    HOUR (UT)   FLARE FACTOR    SKY TESTER    SUN TESTER
   14.41944504   -1.00000000   -1.00000000   -1.00000000
   14.44361115  165.30799866    0.00000000    0.00000000
   14.44694424  103.45800018    0.00000000    0.00000000
   14.44999981  182.37100220    0.00000000    0.00000000
   14.45333290  127.04000092    0.00000000    0.00000000
   14.45666695  113.59799957    0.00000000    0.00000000
   14.45972157  110.05699921    0.00000000    0.00000000
   14.46388912  110.05699921    0.00000000    0.00000000
   14.46805477  108.41200256    0.00000000    0.00000000
   14.47138882  117.20700073    0.00000000    0.00000000
   14.47472191  113.51599884    0.00000000    0.00000000
   14.47694397  107.40599823    0.00000000    0.00000000
   14.47861099  115.08599854    0.00000000    0.00000000
   14.48166656  118.26999664    0.00000000    0.00000000
   14.48500061   99.40380096    0.00000000    0.00000000
   14.48833370  123.11699677    0.00000000    0.00000000
   14.49138927  133.76400757    0.00000000    0.00000000
   14.49472237  112.72000122    0.00000000    0.00000000
   14.49777794  105.70899963    0.00000000    0.00000000
   14.50111103  119.90899658    0.00000000    0.00000000
   14.50666714  119.90899658    0.00000000    0.00000000
   14.51083374  106.43699646    0.00000000    0.00000000
   14.51416683  110.78399658    0.00000000    0.00000000
   14.51749992  105.20999908    0.00000000    0.00000000
   14.52055550  157.54699707    0.00000000    0.00000000
   14.52388859  113.62000275    0.00000000    0.00000000
   14.52722168  120.92600250    0.00000000    0.00000000
   14.53027725  100.94999695    0.00000000    0.00000000
   14.53361130  103.17400360    0.00000000    0.00000000
   14.53694534  104.43499756    0.00000000    0.00000000
   14.54000092   97.33630371    0.00000000    0.00000000
   14.54333401  108.07800293    0.00000000    0.00000000
   14.54388905  105.48600006    0.00000000    0.00000000
   14.54972267  105.48600006    0.00000000    0.00000000
   14.55388927  139.45899963    0.00000000    0.00000000
   14.55694485  164.23800659    0.00000000    0.00000000
   14.56027794  126.47100067    0.00000000    0.00000000
   14.56333351  122.47000122    0.00000000    0.00000000
   14.56666660  108.78600311    0.00000000    0.00000000
   14.56999969  133.05000305    0.00000000    0.00000000
   14.57305527  133.86500549    0.00000000    0.00000000
   14.57638836  167.40499878    0.00000000    0.00000000
   14.57722187  131.80099487    0.00000000    0.00000000
   14.57972240   94.83270264    0.00000000    0.00000000
   14.58305550   97.27380371    0.00000000    0.00000000
   14.58638859  109.85900116    0.00000000    0.00000000
   14.59249973  109.85900116    0.00000000    0.00000000
   14.59666634  103.52700043    0.00000000    0.00000000
   14.59972191  104.38700104    0.00000000    0.00000000
   14.60305595  105.42500305    0.00000000    0.00000000
   14.60638905  106.21099854    0.00000000    0.00000000
   14.60944462  108.66200256    0.00000000    0.00000000
   14.61055565  110.57099915    0.00000000    0.00000000
   14.61305618  114.55500031    0.00000000    0.00000000
   14.61638927  120.55500031    0.00000000    0.00000000
   14.61972237  108.17600250    0.00000000    0.00000000
   14.62277794   98.88449860    0.00000000    0.00000000
   14.62611103  102.68800354    0.00000000    0.00000000
   14.62944412  105.10399628    0.00000000    0.00000000
   14.63527775  105.10399628    0.00000000    0.00000000
   14.63944435  102.67500305    0.00000000    0.00000000
   14.64277744  104.58599854    0.00000000    0.00000000
   14.64388847  100.96700287    0.00000000    0.00000000
   14.64638901  101.05599976    0.00000000    0.00000000
   14.64944458  121.98699951    0.00000000    0.00000000
   14.65277767  115.39900208    0.00000000    0.00000000
   14.65583324  107.22699738    0.00000000    0.00000000
   14.65916634  102.12300110    0.00000000    0.00000000
   14.66249943   -1.00000000    0.00000000    0.00000000
   14.66555500  112.36000061    0.00000000    0.00000000
   14.66888905  102.92500305    0.00000000    0.00000000
   14.67222214  107.62999725    0.00000000    0.00000000
   14.67805576  107.62999725    0.00000000    0.00000000
   14.68222237   97.68150330    0.00000000    0.00000000
   14.68555546   92.00340271    0.00000000    0.00000000
   14.68888855  108.22200012    0.00000000    0.00000000
   14.69194412   99.09220123    0.00000000    0.00000000
   14.69527817  106.15100098    0.00000000    0.00000000
   14.69861126   87.72660065    0.00000000    0.00000000
   14.70166683  131.62600708    0.00000000    0.00000000
   14.70499992  105.95700073    0.00000000    0.00000000
   14.70805550  115.03600311    0.00000000    0.00000000
   14.71055508  133.83500671    0.00000000    0.00000000
   14.71194458  109.38099670    0.00000000    0.00000000
   14.71500015  104.30699921    0.00000000    0.00000000
   14.72111034  104.30699921    0.00000000    0.00000000
   14.72499943  120.13800049    0.00000000    0.00000000
   14.72833252  119.72399902    0.00000000    0.00000000
   14.73166656  117.20700073    0.00000000    0.00000000
   14.73472214   98.10019684    0.00000000    0.00000000
   14.73805618  107.34500122    0.00000000    0.00000000
   14.74138927  122.35299683    0.00000000    0.00000000
   14.74388885  125.61199951    0.00000000    0.00000000
   14.74499989  104.31099701    0.00000000    0.00000000
   14.74805546   97.53900146    0.00000000    0.00000000
   14.75138855  105.44000244    0.00000000    0.00000000
   14.75444412  114.10500336    0.00000000    0.00000000
   14.75777817   99.77380371    0.00000000    0.00000000
   14.76388931   99.77380371    0.00000000    0.00000000
   14.76805496  107.22599792    0.00000000    0.00000000
   14.77111053  107.39600372    0.00000000    0.00000000
   14.77444458   91.18569946    0.00000000    0.00000000
   14.77722168  100.30999756    0.00000000    0.00000000
   14.77805519   97.87960052    0.00000000    0.00000000
   14.78111076  122.18800354    0.00000000    0.00000000
   14.78444481   94.89720154    0.00000000    0.00000000
   14.78750038  109.33000183    0.00000000    0.00000000
   14.79083347  124.47899628    0.00000000    0.00000000
   14.79416752  135.58999634    0.00000000    0.00000000
   14.79722309  110.61100006    0.00000000    0.00000000
   14.80055618  112.26499939    0.00000000    0.00000000
   14.80666733  112.26499939    0.00000000    0.00000000
   14.81083393  103.48400116    0.00000000    0.00000000
   14.81416702  106.41999817    0.00000000    0.00000000
   14.81722260  108.13600159    0.00000000    0.00000000
   14.82055569  105.69400024    0.00000000    0.00000000
   14.82361126  105.05300140    0.00000000    0.00000000
   14.82694435  102.10800171    0.00000000    0.00000000
   14.83027744  104.27799988    0.00000000    0.00000000
   14.83333302  105.77700043    0.00000000    0.00000000
   14.83666611   94.28769684    0.00000000    0.00000000
   14.84000015  106.40000153    0.00000000    0.00000000
   14.84305477  106.80599976    0.00000000    0.00000000
   14.84388828  104.77799988    0.00000000    0.00000000
   14.84944439  104.77799988    0.00000000    0.00000000
   14.85361195   90.68209839    0.00000000    0.00000000
   14.85694504  109.50299835    0.00000000    0.00000000
   14.86027813  259.28500366    0.00000000    0.00000000
   14.86333370  119.72899628    0.00000000    0.00000000
   14.86666679  114.70600128    0.00000000    0.00000000
   14.86972237  114.76999664    0.00000000    0.00000000
   14.87305546  106.92099762    0.00000000    0.00000000
   14.87638855   95.08969879    0.00000000    0.00000000
   14.87722206  105.55899811    0.00000000    0.00000000
   14.88000011   97.42269897    0.00000000    0.00000000
   14.88305569  109.75800323    0.00000000    0.00000000
   14.88638878   99.66590118    0.00000000    0.00000000
   14.89249992   99.66590118    0.00000000    0.00000000
   14.89638901  122.18900299    0.00000000    0.00000000
   14.89972210  123.76799774    0.00000000    0.00000000
   14.90305519  105.88400269    0.00000000    0.00000000
   14.90611076  105.14299774    0.00000000    0.00000000
   14.90944386  102.56099701    0.00000000    0.00000000
   14.91055489  101.92500305    0.00000000    0.00000000
   14.91305542  106.90399933    0.00000000    0.00000000
   14.91611099  161.46200562    0.00000000    0.00000000
   14.91944504  149.79100037    0.00000000    0.00000000
   14.92250061  117.29299927    0.00000000    0.00000000
   14.92583370  105.96199799    0.00000000    0.00000000
   14.92916679  104.89299774    0.00000000    0.00000000
   14.93527794  104.89299774    0.00000000    0.00000000
   14.93944454  108.57499695    0.00000000    0.00000000
   14.94250011  101.48400116    0.00000000    0.00000000
   14.94388866  101.53099823    0.00000000    0.00000000
   14.94638920  111.37300110    0.00000000    0.00000000
   14.94944477  102.77100372    0.00000000    0.00000000
   14.95277786  101.76699829    0.00000000    0.00000000
   14.95611095  102.32599640    0.00000000    0.00000000
   14.95916653  106.41699982    0.00000000    0.00000000
   14.96249962  130.76800537    0.00000000    0.00000000
   14.96555519  108.31600189    0.00000000    0.00000000
   14.96888828  113.60700226    0.00000000    0.00000000
   14.97222137  117.65200043    0.00000000    0.00000000
   14.97805500  117.65200043    0.00000000    0.00000000
   14.98222160  112.82499695    0.00000000    0.00000000
   14.98555565  102.66999817    0.00000000    0.00000000
   14.98861122   98.79989624    0.00000000    0.00000000
   14.99194431  112.23999786    0.00000000    0.00000000
   14.99499989  115.86599731    0.00000000    0.00000000
   14.99833393  110.36199951    0.00000000    0.00000000
   15.00166702  106.11100006    0.00000000    0.00000000
   15.00472260  110.75499725    0.00000000    0.00000000
   15.00805569  110.07900238    0.00000000    0.00000000
   15.01055527  101.04900360    0.00000000    0.00000000
   15.01166630  101.59700012    0.00000000    0.00000000
   15.01472187  107.21099854    0.00000000    0.00000000
   15.02083302  107.21099854    0.00000000    0.00000000
   15.02499962  156.93600464    0.00000000    0.00000000
   15.02833271  151.07899475    0.00000000    0.00000000
   15.03166676  116.82199860    0.00000000    0.00000000
   15.03472233  111.41200256    0.00000000    0.00000000
   15.03805637  106.00199890    0.00000000    0.00000000
   15.04111195  119.83799744    0.00000000    0.00000000
   15.04388905   98.26930237    0.00000000    0.00000000
   15.04500008   98.17819977    0.00000000    0.00000000
   15.04805565  108.82900238    0.00000000    0.00000000
   15.05138874  129.18400574    0.00000000    0.00000000
   15.05472279  112.06600189    0.00000000    0.00000000
   15.05777836  102.36699677    0.00000000    0.00000000
   15.06388950  102.36699677    0.00000000    0.00000000
   15.06805515  105.13899994    0.00000000    0.00000000
   15.07111073  108.49400330    0.00000000    0.00000000
   15.07444477   99.70749664    0.00000000    0.00000000
   15.07722187  101.77200317    0.00000000    0.00000000
   15.07805538   97.47760010    0.00000000    0.00000000
   15.08111095  101.69000244    0.00000000    0.00000000
   15.08444405  104.96499634    0.00000000    0.00000000
   15.08777714  105.92500305    0.00000000    0.00000000
   15.09083271  124.38300323    0.00000000    0.00000000
   15.09416676  124.33000183    0.00000000    0.00000000
   15.09722233  108.88099670    0.00000000    0.00000000
   15.10055637  121.50000000    0.00000000    0.00000000
   15.10666752  121.50000000    0.00000000    0.00000000
   15.11083412  107.99099731    0.00000000    0.00000000
   15.11388969  116.55999756    0.00000000    0.00000000
   15.11722279  109.22499847    0.00000000    0.00000000
   15.12055588  104.11699677    0.00000000    0.00000000
   15.12361145  103.64800262    0.00000000    0.00000000
   15.12694454  106.43800354    0.00000000    0.00000000
   15.13027763  106.19899750    0.00000000    0.00000000
   15.13333321  114.08999634    0.00000000    0.00000000
   15.13666630  103.70400238    0.00000000    0.00000000
   15.13972187  113.55899811    0.00000000    0.00000000
   15.14305496  124.30999756    0.00000000    0.00000000
   15.14388847  109.31199646    0.00000000    0.00000000
   15.14944458  109.31199646    0.00000000    0.00000000
   15.15361118  109.93900299    0.00000000    0.00000000
   15.15694427  103.72100067    0.00000000    0.00000000
   15.15999985  103.02500153    0.00000000    0.00000000
   15.16333294  118.30599976    0.00000000    0.00000000
   15.16666698  113.26899719    0.00000000    0.00000000
   15.16972256   99.65280151    0.00000000    0.00000000
   15.17305565  124.19200134    0.00000000    0.00000000
   15.17611122   95.27999878    0.00000000    0.00000000
   15.17722225  102.14900208    0.00000000    0.00000000
   15.18000031   99.89230347    0.00000000    0.00000000
   15.18305588   97.07800293    0.00000000    0.00000000
   15.18638897   94.80840302    0.00000000    0.00000000
   15.19222260   94.80840302    0.00000000    0.00000000
   15.19638920   94.55740356    0.00000000    0.00000000
   15.19972229   99.93900299    0.00000000    0.00000000
   15.20305538  100.05300140    0.00000000    0.00000000
   15.20611095   94.30650330    0.00000000    0.00000000
   15.20944405   96.72989655    0.00000000    0.00000000
   15.21055508  101.62100220    0.00000000    0.00000000
   15.21305561  103.91500092    0.00000000    0.00000000
   15.21611118   99.36350250    0.00000000    0.00000000
   15.21944427  102.81900024    0.00000000    0.00000000
   15.22277737   99.25080109    0.00000000    0.00000000
   15.22583294  101.72000122    0.00000000    0.00000000
   15.22916603   98.43460083    0.00000000    0.00000000
   15.23527813   98.43460083    0.00000000    0.00000000
   15.23944473  107.69300079    0.00000000    0.00000000
   15.24250031  108.02899933    0.00000000    0.00000000
   15.24388885  128.82000732    0.00000000    0.00000000
   15.24611092   95.08319855    0.00000000    0.00000000
   15.24916649  107.76899719    0.00000000    0.00000000
   15.25249958  107.70700073    0.00000000    0.00000000
   15.25583363  105.54000092    0.00000000    0.00000000
   15.25888920   98.25199890    0.00000000    0.00000000
   15.26222229  105.58300018    0.00000000    0.00000000
   15.26555538   97.21499634    0.00000000    0.00000000
   15.26861095   98.46479797    0.00000000    0.00000000
   15.27194405   94.81800079    0.00000000    0.00000000
   15.27805519   94.81800079    0.00000000    0.00000000
   15.28222179  102.87400055    0.00000000    0.00000000
   15.28527832  101.90899658    0.00000000    0.00000000
   15.28861141  107.58200073    0.00000000    0.00000000
   15.29194450  113.51599884    0.00000000    0.00000000
   15.29527855   96.03790283    0.00000000    0.00000000
   15.29833412  136.62800598    0.00000000    0.00000000
   15.30166721  125.32099915    0.00000000    0.00000000
   15.30472279  202.14700317    0.00000000    0.00000000
   15.30805588  115.08699799    0.00000000    0.00000000
   15.31055546  103.74099731    0.00000000    0.00000000
   15.31166649  109.43900299    0.00000000    0.00000000
   15.31472206  117.83499908    0.00000000    0.00000000
   15.32083321  117.83499908    0.00000000    0.00000000
   15.32499981  100.22200012    0.00000000    0.00000000
   15.32833290  100.31300354    0.00000000    0.00000000
   15.33138847  101.07900238    0.00000000    0.00000000
   15.33472157   97.87650299    0.00000000    0.00000000
   15.33805561   91.20580292    0.00000000    0.00000000
   15.34111118   99.17739868    0.00000000    0.00000000
   15.34388828   99.21019745    0.00000000    0.00000000
   15.34472179   93.74019623    0.00000000    0.00000000
   15.34777737   93.21189880    0.00000000    0.00000000
   15.35111141   98.58660126    0.00000000    0.00000000
   15.35444450   94.13200378    0.00000000    0.00000000
   15.35750008   91.60890198    0.00000000    0.00000000
   15.36361122   91.60890198    0.00000000    0.00000000
   15.36777782   95.60600281    0.00000000    0.00000000
   15.37111092   93.25029755    0.00000000    0.00000000
   15.37444496   96.37719727    0.00000000    0.00000000
   15.37722206   95.28710175    0.00000000    0.00000000
   15.37805557   96.78009796    0.00000000    0.00000000
   15.38111115   96.31300354    0.00000000    0.00000000
   15.38444424   93.07929993    0.00000000    0.00000000
   15.38777733   88.97480011    0.00000000    0.00000000
   15.39083290   92.42849731    0.00000000    0.00000000
   15.39416695   88.04199982    0.00000000    0.00000000
   15.39750004   88.50119781    0.00000000    0.00000000
   15.40055561   98.60359955    0.00000000    0.00000000
   15.40666676   98.60359955    0.00000000    0.00000000
   15.41083336   90.37750244    0.00000000    0.00000000
   15.41388893   89.30190277    0.00000000    0.00000000
   15.41722298   89.50170135    0.00000000    0.00000000
   15.42027855   95.48079681    0.00000000    0.00000000
   15.42361164   89.25659943    0.00000000    0.00000000
   15.42694473   88.61519623    0.00000000    0.00000000
   15.43000031   89.88819885    0.00000000    0.00000000
   15.43333340   92.55879974    0.00000000    0.00000000
   15.43666649   90.18769836    0.00000000    0.00000000
   15.43972206   83.77670288    0.00000000    0.00000000
   15.44305515   87.48030090    0.00000000    0.00000000
   15.44388866   85.69069672    0.00000000    0.00000000
   15.46472168   85.69069672    0.00000000    0.00000000
   15.46888828   87.67549896    0.00000000    0.00000000
   15.47194386   83.20639801    0.00000000    0.00000000
   15.47527695   80.62940216    0.00000000    0.00000000
   15.47722149   85.87580109    0.00000000    0.00000000
   15.47888851   83.93080139    0.00000000    0.00000000
   15.48222160   87.29720306    0.00000000    0.00000000
   15.48527813   88.57460022    0.00000000    0.00000000
   15.48861122   84.69219971    0.00000000    0.00000000
   15.49166679   90.02330017    0.00000000    0.00000000
   15.49499989   89.43060303    0.00000000    0.00000000
   15.49833393   85.89459991    0.00000000    0.00000000
   15.50138855   89.66549683    0.00000000    0.00000000
   15.50749969   89.66549683    0.00000000    0.00000000
   15.51138878   88.06849670    0.00000000    0.00000000
   15.51472187   93.54879761    0.00000000    0.00000000
   15.51805496   93.23370361    0.00000000    0.00000000
   15.52111053   95.51100159    0.00000000    0.00000000
   15.52444458   92.46920013    0.00000000    0.00000000
   15.52777767   88.30750275    0.00000000    0.00000000
   15.53083324   88.90219879    0.00000000    0.00000000
   15.53416729   90.69290161    0.00000000    0.00000000
   15.53722286   89.86900330    0.00000000    0.00000000
   15.54055595   90.88459778    0.00000000    0.00000000
   15.54388905   92.37650299    0.00000000    0.00000000
   15.54444504   88.36070251    0.00000000    0.00000000
   15.55027771   88.36070251    0.00000000    0.00000000
   15.55444431   88.61100006    0.00000000    0.00000000
   15.55749989   87.67970276    0.00000000    0.00000000
   15.56083393   88.94149780    0.00000000    0.00000000
   15.56416702   84.41709900    0.00000000    0.00000000
   15.56722260   94.32800293    0.00000000    0.00000000
   15.57055569   91.22910309    0.00000000    0.00000000
   15.57361126   88.10949707    0.00000000    0.00000000
   15.57694435   92.35310364    0.00000000    0.00000000
   15.57777786   86.82929993    0.00000000    0.00000000
   15.58055592   90.48940277    0.00000000    0.00000000
   15.58388901   86.26679993    0.00000000    0.00000000
   15.58694458   90.79429626    0.00000000    0.00000000
   15.59305477   90.79429626    0.00000000    0.00000000
   15.59722233   96.69969940    0.00000000    0.00000000
   15.60055637   88.91010284    0.00000000    0.00000000
   15.60361195   83.21739960    0.00000000    0.00000000
   15.60694504   86.56099701    0.00000000    0.00000000
   15.61000061   89.48789978    0.00000000    0.00000000
   15.61111164   86.92449951    0.00000000    0.00000000
   15.61361122   91.40200043    0.00000000    0.00000000
   15.61694431   88.64150238    0.00000000    0.00000000
   15.61999989   92.79350281    0.00000000    0.00000000
   15.62333393   88.95809937    0.00000000    0.00000000
   15.62666702   85.90409851    0.00000000    0.00000000
   15.62972260   92.71019745    0.00000000    0.00000000
   15.63583279   92.71019745    0.00000000    0.00000000
   15.64000034   96.37490082    0.00000000    0.00000000
   15.64333344   94.59269714    0.00000000    0.00000000
   15.64444447   88.92600250    0.00000000    0.00000000
   15.64694405   90.76129913    0.00000000    0.00000000
   15.65027714   95.70400238    0.00000000    0.00000000
   15.65333271   93.95960236    0.00000000    0.00000000
   15.65666676   90.75789642    0.00000000    0.00000000
   15.65999985   95.87830353    0.00000000    0.00000000
   15.66305542   91.81079865    0.00000000    0.00000000
   15.66638851   88.90180206    0.00000000    0.00000000
   15.66972256   91.44999695    0.00000000    0.00000000
   15.67277813   90.13179779    0.00000000    0.00000000
   15.67888927   90.13179779    0.00000000    0.00000000
   15.68277836   87.12729645    0.00000000    0.00000000
   15.68611145   94.54170227    0.00000000    0.00000000
   15.68944454   91.35410309    0.00000000    0.00000000
   15.69250011   89.51049805    0.00000000    0.00000000
   15.69583321   90.31050110    0.00000000    0.00000000
   15.69916630   90.44909668    0.00000000    0.00000000
   15.70222187   94.13099670    0.00000000    0.00000000
   15.70555496   88.10990143    0.00000000    0.00000000
   15.70861053   90.78050232    0.00000000    0.00000000
   15.71111107   94.92279816    0.00000000    0.00000000
   15.71222210   94.70909882    0.00000000    0.00000000
   15.71555519   93.56909943    0.00000000    0.00000000
   15.72166634   93.56909943    0.00000000    0.00000000
   15.72583294   92.37629700    0.00000000    0.00000000
   15.72888851   89.75209808    0.00000000    0.00000000
   15.73222160   94.33860016    0.00000000    0.00000000
   15.89805508   -1.00000000   -1.00000000   -1.00000000
   16.00416756   -1.00000000   -1.00000000   -1.00000000
   16.11499977   -1.00000000   -1.00000000   -1.00000000
   16.13750076   91.56150055    0.52999997    2.75000000
   16.14083290   92.90789795    0.52999997    2.76999998
   16.14416695   98.05760193    0.51999998    2.76999998
   16.14749908   99.77870178    0.50000000    2.78999996
   16.15055466  100.68599701    0.50000000    2.76999998
   16.15388870  105.86100006    0.46000001    2.76999998
   16.15805435  105.86100006    0.47999999    2.76999998
   16.16222191  100.91100311    0.47999999    2.76999998
   16.16555595  102.22799683    0.47999999    2.78999996
   16.16860962  103.67099762    0.55000001    2.76999998
   16.17083359   96.79689789    0.51999998    2.76999998
   16.17249870   96.88230133    0.51999998    2.76999998
   16.17583275   97.89369965    0.50000000    2.76999998
   16.17888832   89.05799866    0.50000000    2.76999998
   16.18222237   97.74770355    0.50000000    2.76999998
   16.18527603   97.65769958    0.51999998    2.76999998
   16.18861008   94.34290314    0.51999998    2.76999998
   16.19194412   95.28199768    0.52999997    2.76999998
   16.19499969   98.37860107    0.52999997    2.78999996
   16.20083427   98.37860107    0.51999998    2.76999998
   16.20499992   99.23999786    0.46000001    2.76999998
   16.20833397   97.29080200    0.47999999    2.76999998
   16.21138954  101.69499969    0.51999998    2.76999998
   16.21472359   97.08959961    0.52999997    2.76999998
   16.21805573   96.14050293    0.52999997    2.76999998
   16.22111130   90.72200012    0.55000001    2.78999996
   16.22444534   91.00589752    0.58999997    2.76999998
   16.22777748   94.44400024    0.61000001    2.76999998
   16.23083305   97.30139923    0.63000000    2.76999998
   16.23416710   84.58689880    0.63000000    2.76999998
   16.23722267   97.63809967    0.63000000    2.76999998
   16.23777771   98.85469818    0.63000000    2.76999998
   16.24361229   98.85469818    0.61000001    2.76999998
   16.24777794  100.29799652    0.61000001    2.76999998
   16.25111198   94.23840332    0.63000000    2.76999998
   16.25444412   98.02629852    0.63000000    2.76999998
   16.25749969  101.66400146    0.61000001    2.76999998
   16.26083374   96.60559845    0.61000001    2.76999998
   16.26388931  100.88099670    0.63000000    2.76999998
   16.26722145  100.74900055    0.61000001    2.76999998
   16.27055550  100.52200317    0.63000000    2.76999998
   16.27111053  101.40299988    0.63000000    2.76999998
   16.27416611  105.08399963    0.61000001    2.76999998
   16.27750015  103.84400177    0.61000001    2.76999998
   16.28055573  102.96299744    0.61000001    2.76999998
   16.28666687  102.96299744    0.64999998    2.76999998
   16.29083252   95.97799683    0.64999998    2.76999998
   16.29388809   97.77449799    0.61000001    2.76999998
   16.29722214  103.35600281    0.61000001    2.76999998
   16.30027771   93.98229980    0.56999999    2.78999996
   16.30360985  108.01300049    0.50000000    2.76999998
   16.30444336   96.14129639    0.50000000    2.76999998
   16.30722237   97.15519714    0.58999997    2.76999998
   16.31055450   97.86199951    0.63000000    2.78999996
   16.31361008   98.55899811    0.63000000    2.76999998
   16.31694603   90.72480011    0.63000000    2.76999998
   16.32027817   92.93759918    0.61000001    2.76999998
   16.32333374   97.82740021    0.61000001    2.76999998
   16.32944489   97.82740021    0.63000000    2.76999998
   16.33361244   93.17279816    0.63000000    2.75000000
   16.33694458   93.13379669    0.63000000    2.75000000
   16.33777809   91.37239838    0.63000000    2.76999998
   16.34055710   93.28749847    0.63000000    2.76999998
   16.34388924   94.66159821    0.63000000    2.76999998
   16.34694481   98.17659760    0.61000001    2.76999998
   16.35027885   92.66909790    0.58999997    2.76999998
   16.35361099   99.97299957    0.58999997    2.76999998
   16.35666656   96.02420044    0.64999998    2.78999996
   16.36000061   91.21839905    0.98000002    2.76999998
   16.36305618   92.35079956    1.26999998    2.76999998
   16.36638832   89.15979767    1.30999994    2.76999998
   16.37222290   89.15979767    1.41999996    2.76999998
   16.37638855   94.92859650    1.28999996    2.76999998
   16.37972260   96.38079834    1.21000004    2.76999998
   16.38277817   97.44229889    1.11000001    2.76999998
   16.38611031   97.24680328    1.00000000    2.76999998
   16.38944435   99.64720154    0.98000002    2.76999998
   16.39249992   98.66400146    0.98000002    2.76999998
   16.39583397   97.97280121    1.09000003    2.76999998
   16.39916611   99.68679810    1.14999998    2.76999998
   16.40222168   98.86389923    1.09000003    2.76999998
   16.40472221   96.34609985    1.23000002    2.76999998
   16.40583229  100.63700104    1.23000002    2.76999998
   16.40916634   86.90370178    1.25000000    2.76999998
   16.41499901   86.90370178    1.09000003    2.76999998
   16.41916656   92.82240295    1.00000000    2.76999998
   16.42249870   99.33499908    1.07000005    2.78999996
   16.42583275   96.32610321    1.05999994    2.76999998
   16.42888832   97.13320160    0.95999998    2.76999998
   16.43222237  101.17299652    0.83999997    2.76999998
   16.43527603   96.09690094    0.81999999    2.76999998
   16.43777657   94.08850098    0.80000001    2.76999998
   16.43888855   93.52839661    0.80000001    2.76999998
   16.44222069   97.51490021    0.79000002    2.76999998
   16.44527626   92.20439911    0.89999998    2.76999998
   16.44861031   91.68550110    0.89999998    2.76999998
   16.45194435   93.20400238    0.92000002    2.76999998
   16.45805550   93.20400238    0.79000002    2.76999998
   16.46222305   90.04109955    0.76999998    2.78999996
   16.46527863   98.40789795    0.75000000    2.76999998
   16.46861076   96.93730164    0.83999997    2.76999998
   16.47111130   91.23829651    0.81999999    2.76999998
   16.47222328   99.37550354    0.86000001    2.76999998
   16.47555542   84.96610260    0.75000000    2.76999998
   16.47861099   87.03450012    0.76999998    2.76999998
   16.48194504   88.68319702    0.76999998    2.76999998
   16.48527718   94.21450043    0.63000000    2.76999998
   16.48833275   90.93869781    0.63000000    2.76999998
   16.49166679   95.12239838    0.63000000    2.76999998
   16.49500084   94.39469910    0.64999998    2.76999998
   16.50083351   94.39469910    0.64999998    2.76999998
   16.50499916   87.33159637    0.64999998    2.76999998
   16.50805473   88.08999634    0.63000000    2.78999996
   16.51138878   94.46790314    0.69000000    2.76999998
   16.51472282   94.48519897    0.75000000    2.76999998
   16.51777840   99.22370148    0.75000000    2.76999998
   16.52111053   94.73899841    0.76999998    2.76999998
   16.52444458   95.50599670    0.73000002    2.76999998
   16.52750015   90.60109711    0.73000002    2.76999998
   16.53083229   88.14170074    0.75000000    2.76999998
   16.53388786   95.51090240    0.64999998    2.76999998
   16.53722191   93.14340210    0.67000002    2.78999996
   16.53805542   91.28659821    0.69000000    2.78999996
   16.54361153   91.28659821    0.76999998    2.76999998
   16.54777718   84.71089935    0.79000002    2.76999998
   16.55111122   83.19889832    0.80000001    2.76999998
   16.55416679   99.31680298    0.80000001    2.76999998
   16.55749893   88.99169922    0.92000002    2.76999998
   16.56083298   91.17009735    0.92000002    2.76999998
   16.56388855   88.76899719    0.89999998    2.76999998
   16.56722260   89.04930115    1.00000000    2.78999996
   16.57055664   91.33679962    1.03999996    2.75000000
   16.57139015   92.73539734    1.03999996    2.75000000
   16.57416725   87.86769867    1.05999994    2.78999996
   16.57750130   90.46459961    1.03999996    2.76999998
   16.58055687   93.93740082    1.01999998    2.76999998
   16.58638954   93.93740082    1.01999998    2.76999998
   16.59055710   94.06030273    0.94000000    2.78999996
   16.59388924   88.36009979    0.88000000    2.76999998
   16.59722328   85.83360291    0.88000000    2.76999998
   16.60027885   87.99559784    0.86000001    2.76999998
   16.60361099   85.77989960    0.98000002    2.76999998
   16.60472298   90.44529724    0.94000000    2.78999996
   16.60722351   86.15789795    0.83999997    2.76999998
   16.61055565   77.99469757    0.95999998    2.76999998
   16.61361122   93.64569855    1.01999998    2.76999998
   16.61694527   79.14289856    0.98000002    2.76999998
   16.62027740   96.76909637    0.95999998    2.76999998
   16.62333298   97.26260376    0.92000002    2.76999998
   16.62944412   97.26260376    0.98000002    2.76999998
   16.63361168   89.07779694    1.01999998    2.76999998
   16.63666725   93.79720306    1.00000000    2.76999998
   16.63805580   94.70320129    1.05999994    2.76999998
   16.64027786   93.57730103    1.07000005    2.76999998
   16.64361191   93.42299652    1.13000000    2.76999998
   16.64694405   93.73410034    0.88000000    2.76999998
   16.64999962   90.96279907    0.76999998    2.76999998
   16.65333366   95.91970062    0.76999998    2.76999998
   16.65666580   94.70230103    0.75000000    2.76999998
   16.65972137   93.95359802    0.76999998    2.76999998
   16.66305542   91.00350189    0.94000000    2.76999998
   16.66611099   90.04209900    1.36000001    2.76999998
   16.67222214   90.04209900    1.21000004    2.76999998
   16.67638779   88.32309723    0.81999999    2.76999998
   16.67944336   88.48719788    0.67000002    2.76999998
   16.68277740   91.34010315    0.67000002    2.76999998
   16.68610954   95.62609863    0.67000002    2.76999998
   16.68916512   95.80599976    0.67000002    2.76999998
   16.69249916   94.28800201    0.56999999    2.76999998
   16.69583321   89.46630096    0.56999999    2.76999998
   16.69888878   88.09799957    0.51999998    2.76999998
   16.70222282   95.48130035    0.52999997    2.76999998
   16.70472336   88.67009735    0.63000000    2.76999998
   16.70583344   91.02249908    0.63000000    2.76999998
   16.70916748   88.41940308    0.61000001    2.76999998
   16.71500015   88.41940308    0.40000001    2.76999998
   16.71916771   87.70359802    0.46000001    2.76999998
   16.72249985   85.23719788    0.41999999    2.76999998
   16.72555542   93.22859955    0.44000000    2.76999998
   16.72888947   88.79180145    0.41999999    2.76999998
   16.73222351   87.65609741    0.44000000    2.76999998
   16.73527718   86.26059723    0.44000000    2.76999998
   16.73805618   85.45069885    0.44000000    2.76999998
   16.73888969   83.64099884    0.46000001    2.76999998
   16.74222183   83.33290100    0.46000001    2.76999998
   16.74555588   93.00479889    0.46000001    2.76999998
   16.74888992   86.35289764    0.52999997    2.76999998
   16.75194359   93.82559967    0.58999997    2.76999998
   16.75777817   93.82559967    0.61000001    2.76999998
   16.76194382   90.45079803    0.63000000    2.76999998
   16.76527786   91.51429749    0.64999998    2.76999998
   16.76861000   93.18090057    0.67000002    2.76999998
   16.77138901   84.75180054    0.63000000    2.76999998
   16.77194405   89.40529633    0.64999998    2.76999998
   16.77527809   89.44799805    0.64999998    2.76999998
   16.77861023   94.58460236    0.69000000    2.76999998
   16.78166580   89.71859741    0.69000000    2.76999998
   16.78499985   88.52400208    0.75000000    2.76999998
   16.78805542   91.09889984    0.79000002    2.76999998
   16.79138756   87.85870361    0.73000002    2.76999998
   16.79472160   88.37100220    0.67000002    2.75000000
   16.80083275   88.37100220    0.67000002    2.76999998
   16.80499840   89.01239777    0.67000002    2.76999998
   16.80805397   88.21269989    0.64999998    2.76999998
   16.81138802   86.98989868    0.64999998    2.78999996
   16.81444359   87.38569641    0.67000002    2.76999998
   16.81777954   88.50180054    0.76999998    2.76999998
   16.82111168   87.43170166    0.76999998    2.76999998
   16.82416725   79.88130188    0.75000000    2.76999998
   16.82750130   80.66760254    0.73000002    2.76999998
   16.83083344   79.10459900    0.73000002    2.78999996
   16.83388901   87.16660309    0.73000002    2.76999998
   16.83722305   83.07430267    0.76999998    2.76999998
   16.83805656   84.06479645    0.76999998    2.76999998
   16.84361267   84.06479645    0.95999998    2.76999998
   16.84777832   89.78220367    1.14999998    2.75000000
   16.85083389   87.97560120    1.34000003    2.76999998
   16.85416794   89.94670105    1.34000003    2.76999998
   16.85750008   81.51609802    1.38000000    2.76999998
   16.86055565   88.03659821    1.41999996    2.76999998
   16.86388969   80.19760132    1.41999996    2.76999998
   16.86722183   85.74880219    1.36000001    2.76999998
   16.87027740   86.17579651    0.95999998    2.76999998
   16.87138939   86.08979797    0.95999998    2.76999998
   16.87388992   81.85060120    0.94000000    2.76999998
   16.87722206   88.55889893    0.80000001    2.76999998
   16.88055611   89.28099823    0.79000002    2.76999998
   16.88638878   89.28099823    0.75000000    2.76999998
   16.89055634   88.45480347    0.76999998    2.76999998
   16.89388847   88.35369873    0.83999997    2.76999998
   16.89694405   86.31809998    0.83999997    2.76999998
   16.90027809   85.83789825    0.80000001    2.76999998
   16.90361023   85.88269806    0.73000002    2.76999998
   16.90472221   85.71379852    0.73000002    2.76999998
   16.90694427   90.92089844    0.75000000    2.76999998
   16.91027832   87.20140076    0.70999998    2.76999998
   16.91361046   87.99949646    0.67000002    2.76999998
   16.91666603   84.30370331    0.69000000    2.76999998
   16.92000008   89.03620148    0.69000000    2.76999998
   16.92305565   86.02279663    0.63000000    2.76999998
   16.92916679   86.02279663    0.56999999    2.76999998
   16.93333244   83.33010101    0.51999998    2.76999998
   16.93666649   83.68699646    0.51999998    2.76999998
   16.93805504   84.56580353    0.51999998    2.76999998
   16.94027710   83.70030212    0.51999998    2.76999998
   16.94361115   80.43810272    0.52999997    2.76999998
   16.94694328   81.41390228    0.51999998    2.76999998
   16.95000076   84.69589996    0.52999997    2.76999998
   16.95333481   81.98590088    0.55000001    2.78999996
   16.95666695   83.62619781    0.55000001    2.78999996
   16.95972252   82.77960205    0.56999999    2.76999998
   16.96305656   83.91320038    0.52999997    2.76999998
   16.96611214   84.65570068    0.51999998    2.76999998
   16.97222328   84.65570068    0.51999998    2.76999998
   16.97638893   88.24620056    0.51999998    2.76999998
   16.97944450   91.16809845    0.51999998    2.76999998
   16.98277855   95.22000122    0.52999997    2.78999996
   16.98583412   86.32559967    0.56999999    2.78999996
   16.98916626   88.61569977    0.56999999    2.78999996
   16.99250031   90.46070099    0.58999997    2.76999998
   16.99555588   89.50859833    0.61000001    2.76999998
   16.99888992   82.09519958    0.61000001    2.76999998
   17.00222206   82.99120331    0.63000000    2.76999998
   17.00472260   83.35630035    0.61000001    2.76999998
   17.00555611   83.36239624    0.58999997    2.76999998
   17.00888824   81.70130157    0.56999999    2.76999998
   17.01499939   81.70130157    0.55000001    2.76999998
   17.01916695   86.91719818    0.56999999    2.78999996
   17.02222252   84.84780121    0.61000001    2.76999998
   17.02555466   87.49009705    0.69000000    2.76999998
   17.02888870   83.53500366    0.70999998    2.76999998
   17.03194427   85.66110229    0.73000002    2.76999998
   17.03527641   82.26830292    0.73000002    2.76999998
   17.03805542   84.14119720    0.73000002    2.76999998
   17.03888893   85.15529633    0.73000002    2.76999998
   17.04222107   86.17749786    0.76999998    2.76999998
   17.04555511   87.93219757    0.76999998    2.76999998
   17.04861069   88.41780090    0.79000002    2.76999998
   17.05194283   86.31340027    0.79000002    2.76999998
   17.05777740   86.31340027    0.76999998    2.78999996
   17.06194305   88.49629974    0.76999998    2.76999998
   17.06527710   85.63829803    0.73000002    2.78999996
   17.06833458   87.68000031    0.75000000    2.76999998
   17.07139015   89.59339905    0.75000000    2.76999998
   17.07194519   88.64759827    0.75000000    2.76999998
   17.07527924   88.11450195    0.75000000    2.76999998
   17.07861137   86.99069977    0.73000002    2.76999998
   17.08166695   85.38749695    0.69000000    2.76999998
   17.08500099   86.57839966    0.64999998    2.76999998
   17.08833313   84.04609680    0.64999998    2.78999996
   17.09138870   79.21970367    0.58999997    2.76999998
   17.09472275   80.28450012    0.56999999    2.76999998
   17.10055542   80.28450012    0.56999999    2.76999998
   17.10472298   85.37599945    0.51999998    2.76999998
   17.10805511   81.32820129    0.51999998    2.76999998
   17.11138916   85.29769897    0.51999998    2.76999998
   17.11444473   82.14050293    0.64999998    2.76999998
   17.11777878   78.22280121    0.67000002    2.76999998
   17.12083435   78.19730377    0.70999998    2.78999996
   17.12416649   79.77940369    0.73000002    2.76999998
   17.12750053   80.63300323    0.73000002    2.76999998
   17.13055611   79.77079773    0.75000000    2.76999998
   17.13388824   79.16329956    0.76999998    2.76999998
   17.13722229   81.52950287    0.75000000    2.75000000
   17.13805580   81.09390259    0.75000000    2.75000000
   17.15861130   81.09390259    0.73000002    2.78999996
   17.16277695   94.85679626    0.70999998    2.76999998
   17.16611099   91.54620361    0.73000002    2.76999998
   17.16916656   96.86869812    0.70999998    2.76999998
   17.17138863   88.32900238    0.70999998    2.76999998
   17.17277718   98.15969849    0.75000000    2.76999998
   17.17611122   98.13420105    0.75000000    2.76999998
   17.17944336   97.56839752    0.75000000    2.76999998
   17.18249893   94.79190063    0.73000002    2.76999998
   17.18583298   95.58059692    0.70999998    2.76999998
   17.18916512   94.19570160    0.67000002    2.76999998
   17.19222069   89.69989777    0.67000002    2.76999998
   17.19555473   94.63690186    0.70999998    2.76999998
   17.20138931   94.63690186    0.75000000    2.78999996
   17.20555687   95.61319733    0.76999998    2.76999998
   17.20888901   -1.00000000    0.76999998    2.75000000
   17.21194458   98.65229797    0.75000000    2.75000000
   17.21527863  102.55200195    0.75000000    2.76999998
   17.21861076   98.06659698    0.70999998    2.75000000
   17.22166634   90.67279816    0.67000002    2.76999998
   17.22500038   98.88500214    0.70999998    2.76999998
   17.22833443   97.53379822    0.73000002    2.76999998
   17.23139000   87.78260040    0.73000002    2.76999998
   17.23472214   97.47799683    0.75000000    2.76999998
   17.23805618   91.82910156    0.67000002    2.76999998
   17.23833275   93.27279663    0.67000002    2.76999998
   17.24416733   93.27279663    0.73000002    2.76999998
   17.24833298   96.14749908    0.79000002    2.76999998
   17.25166702  102.50399780    0.79000002    2.76999998
   17.25499916   88.80879974    0.80000001    2.76999998
   17.25805473   97.50659943    0.80000001    2.76999998
   17.26138878   93.82029724    0.81999999    2.75000000
   17.26444435   97.00469971    0.83999997    2.76999998
   17.26777840   93.45939636    0.80000001    2.76999998
   17.27111053   99.62290192    0.73000002    2.76999998
   17.27166557   80.75620270    0.73000002    2.76999998
   17.27472115   93.95200348    0.75000000    2.76999998
   17.27805519   97.94699860    0.70999998    2.76999998
   17.28111076   91.57450104    0.70999998    2.76999998
   17.28722191   91.57450104    0.44000000    2.76999998
   17.29138756   96.73439789    0.50000000    2.76999998
   17.29444313   97.28690338    0.55000001    2.76999998
   17.29777718   98.17140198    0.58999997    2.78999996
   17.30083275   96.85510254    0.58999997    2.76999998
   17.30416679   89.07050323    0.64999998    2.78999996
   17.30499840   93.69319916    0.70999998    2.76999998
   17.30777740   92.71720123    0.75000000    2.76999998
   17.31110954   98.21350098    0.75000000    2.76999998
   17.31416512   94.02110291    0.81999999    2.78999996
   17.31750107  100.97499847    0.80000001    2.76999998
   17.32083511  106.58100128    0.80000001    2.76999998
   17.32389069  102.59999847    0.76999998    2.76999998
   17.33000183  102.59999847    0.86000001    2.75000000
   17.33416748   99.76490021    0.86000001    2.76999998
   17.33722305  100.76300049    0.83999997    2.76999998
   17.33833313   90.82510376    0.83999997    2.76999998
   17.34083366  108.13099670    0.83999997    2.76999998
   17.34416771  101.95400238    0.86000001    2.76999998
   17.34722328  108.01999664    0.89999998    2.76999998
   17.35055542  103.81199646    0.89999998    2.76999998
   17.35388947  100.84999847    1.01999998    2.76999998
   17.35694504  101.52500153    1.03999996    2.76999998
   17.36027908   98.20069885    0.92000002    2.76999998
   17.36361122   95.45220184    0.92000002    2.76999998
   17.36666679   89.03739929    0.88000000    2.75000000
   17.37277794   89.03739929    0.81999999    2.76999998
   17.37694550   97.51730347    0.89999998    2.76999998
   17.38027763   91.42359924    0.88000000    2.76999998
   17.38333321  100.06300354    0.92000002    2.76999998
   17.38666725  100.62599945    1.00000000    2.76999998
   17.38999939  102.60800171    1.01999998    2.76999998
   17.39305496   98.83429718    1.07000005    2.76999998
   17.39638901   99.75330353    1.09000003    2.75000000
   17.39944458  100.03399658    1.01999998    2.76999998
   17.40277672   98.32450104    0.98000002    2.76999998
   17.40527725   98.89990234    0.94000000    2.76999998
   17.40638924   98.24120331    0.92000002    2.76999998
   17.40972137  100.98500061    0.92000002    2.76999998
   17.41555595  100.98500061    0.94000000    2.76999998
   17.41972160  105.42600250    0.95999998    2.76999998
   17.42305565  103.96299744    1.01999998    2.75000000
   17.42638779   95.99389648    1.11000001    2.75000000
   17.42944336   98.81269836    1.19000006    2.76999998
   17.43277740   94.80139923    1.25000000    2.75000000
   17.43583298   91.87670135    1.34000003    2.76999998
   17.43861008   91.71099854    1.34000003    2.76999998
   17.43944359   96.13390350    1.34000003    2.76999998
   17.44277763   93.85420227    1.33000004    2.76999998
   17.44583321   95.31439972    1.14999998    2.76999998
   17.44916534   97.98320007    1.19000006    2.75000000
   17.45250130   95.29609680    1.05999994    2.76999998
   17.45861244   95.29609680    1.00000000    2.76999998
   17.46277809   92.39849854    1.34000003    2.75000000
   17.46583366   93.45159912    1.36000001    2.75000000
   17.46916771   94.63279724    1.30999994    2.76999998
   17.47194481   91.08329773    1.33000004    2.76999998
   17.47277832   94.67150116    1.33000004    2.76999998
   17.47611237   92.65299988    1.39999998    2.75000000
   17.47944450   94.09989929    1.41999996    2.76999998
   17.48250008   94.85540009    1.33000004    2.75000000
   17.48583412   95.68759918    1.33000004    2.75000000
   17.48888969   94.68270111    1.33000004    2.76999998
   17.49222183   98.97820282    1.28999996    2.75000000
   17.49555588   93.21369934    1.19000006    2.76999998
   17.50138855   93.21369934    1.11000001    2.75000000
   17.50555611   96.75849915    1.38000000    2.75000000
   17.50861168  101.64099884    1.36000001    2.76999998
   17.51194382   94.13379669    1.21000004    2.76999998
   17.51527786   92.97389984    1.21000004    2.76999998
   17.51833344   95.40409851    0.75000000    2.76999998
   17.52166557   91.03420258    0.69000000    2.76999998
   17.52499962   93.82180023    0.58999997    2.75000000
   17.52805519   96.43650055    0.52999997    2.76999998
   17.53138924  100.01100159    0.47999999    2.76999998
   17.53444481   98.71790314    0.46000001    2.76999998
   17.53777695   98.26020050    0.47999999    2.78999996
   17.53861046  102.22299957    0.47999999    2.78999996
   17.54416656  102.22299957    0.41999999    2.76999998
   17.54833221  105.69499969    0.41999999    2.76999998
   17.55166626  100.23200226    0.40000001    2.76999998
   17.55472183  100.40299988    0.38000000    2.76999998
   17.55805397   95.97570038    0.41999999    2.76999998
   17.56138802   94.07790375    0.41999999    2.76999998
   17.56444359   94.35350037    0.41999999    2.76999998
   17.56777954   99.77870178    0.41999999    2.76999998
   17.57111168   93.45110321    0.40000001    2.76999998
   17.57194519   94.84040070    0.41999999    2.76999998
   17.57472229   97.19640350    0.41999999    2.76999998
   17.57805634   98.73789978    0.40000001    2.76999998
   17.58111191  101.19300079    0.40000001    2.76999998
   17.58694458  101.19300079    0.44000000    2.78999996
   17.59111214   99.20259857    0.41999999    2.76999998
   17.59444427  103.71499634    0.41999999    2.76999998
   17.59777832  101.74099731    0.41999999    2.76999998
   17.60083389   98.05100250    0.44000000    2.76999998
   17.60416794  101.94000244    0.40000001    2.76999998
   17.60527802  100.46800232    0.40000001    2.75000000
   17.60777855  100.82900238    0.41999999    2.76999998
   17.61111069   96.83290100    0.41999999    2.76999998
   17.61444473   93.37580109    0.44000000    2.76999998
   17.61750031   94.88860321    0.41999999    2.75000000
   17.62083435  104.83200073    0.41999999    2.76999998
   17.62388992   98.54979706    0.41999999    2.75000000
   17.63000107   98.54979706    0.41999999    2.75000000
   17.63416672   98.91120148    0.44000000    2.75000000
   17.63722229   93.78160095    0.44000000    2.76999998
   17.63861084   99.12940216    0.44000000    2.76999998
   17.64083290   93.11579895    0.44000000    2.76999998
   17.64416695   94.16490173    0.44000000    2.76999998
   17.64749908   98.15619659    0.44000000    2.76999998
   17.65055466   96.76180267    0.40000001    2.76999998
   17.65388870  103.45600128    0.40000001    2.76999998
   17.65694427   98.03289795    0.41999999    2.76999998
   17.66027832  102.20099640    0.40000001    2.76999998
   17.66361046  100.85500336    0.40000001    2.76999998
   17.66666603   99.81439972    0.36000001    2.76999998
   17.67277718   99.81439972    0.38000000    2.76999998
   17.67694473   93.46659851    0.41999999    2.76999998
   17.68000031   95.49819946    0.40000001    2.76999998
   17.68333244   90.54750061    0.38000000    2.76999998
   17.68666649   94.23609924    0.38000000    2.76999998
   17.68972206   95.69219971    0.38000000    2.76999998
   17.69305420   94.75689697    0.40000001    2.75000000
   17.69638824   92.27339935    0.38000000    2.76999998
   17.69944382   94.25659943    0.40000001    2.75000000
   17.70277786   92.70339966    0.41999999    2.76999998
   17.70527840   92.43699646    0.44000000    2.75000000
   17.70639038   93.00350189    0.44000000    2.75000000
   17.70972252   92.69349670    0.47999999    2.75000000
   17.71555710   92.69349670    0.47999999    2.76999998
   17.71972275   96.52970123    0.75000000    2.76999998
   17.72305679   96.94059753    0.75000000    2.76999998
   17.72611237  104.76200104    0.73000002    2.75000000
   17.72944450   99.55819702    0.75000000    2.75000000
   17.73277855   94.59839630    0.76999998    2.75000000
   17.73583412   99.47530365    0.79000002    2.76999998
   17.73861122  100.11799622    0.76999998    2.76999998
   17.73944473   96.25109863    0.76999998    2.76999998
   17.74277878   90.87370300    0.73000002    2.76999998
   17.74611092   95.64790344    0.73000002    2.76999998
   17.74916649   93.93190002    0.63000000    2.75000000
   17.75250053  102.61799622    0.76999998    2.75000000
   17.75833321  102.61799622    0.79000002    2.75000000
   17.76250076   95.13520050    0.73000002    2.75000000
   17.76583290   95.56549835    0.73000002    2.75000000
   17.76916695   97.27339935    0.76999998    2.75000000
   17.77194405   95.40679932    0.81999999    2.75000000
   17.77249908  100.37000275    0.81999999    2.75000000
   17.77583313   99.28820038    1.01999998    2.75000000
   17.77916718   93.38220215    1.14999998    2.76999998
   17.78222275   96.69170380    1.13000000    2.75000000
   17.78555489   91.76889801    1.03999996    2.75000000
   17.78888893   93.97109985    0.98000002    2.75000000
   17.79194450   94.95790100    0.95999998    2.75000000
   17.79527664   99.31500244    0.95999998    2.76999998
   17.80138779   99.31500244    0.95999998    2.76999998
   17.80555534   99.63819885    0.95999998    2.75000000
   17.80861092  101.22299957    1.00000000    2.75000000
   17.81194305   98.43869781    0.94000000    2.75000000
   17.81499863  101.26499939    0.94000000    2.75000000
   17.81833458   90.68389893    1.01999998    2.75000000
   17.82166672   96.44300079    1.01999998    2.75000000
   17.82472229   94.27709961    1.05999994    2.76999998
   17.82805634   97.27020264    1.25000000    2.75000000
   17.83139038  100.32800293    1.25000000    2.75000000
   17.83444595   95.93579865    1.33000004    2.75000000
   17.83777809   96.70819855    1.21000004    2.76999998
   17.83861160   98.72959900    1.21000004    2.76999998
   17.84416771   98.72959900    1.23000002    2.75000000
   17.84833336   91.72440338    1.25000000    2.75000000
   17.85166740   94.13410187    1.14999998    2.75000000
   17.85472298   94.44840240    1.14999998    2.75000000
   17.85805511   99.59809875    0.92000002    2.75000000
   17.86111069   95.41390228    2.00000000    2.75000000
   17.86444473   95.16570282    2.00000000    2.75000000
   17.86777878   89.98989868    1.91999996    2.75000000
   17.87083435   94.65760040    1.86000001    2.75000000
   17.87194443   91.98970032    1.86000001    2.75000000
   17.87444496   96.83550262    1.86000001    2.75000000
   17.87777710   93.69139862    1.88000000    2.75000000
   17.88111115   92.00189972    1.89999998    2.75000000
   17.88694382   92.00189972    1.89999998    2.75000000
   17.89111137   87.13259888    1.89999998    2.75000000
   17.89444351   90.87149811    2.05999994    2.75000000
   17.89749908   94.71219635    2.07999992    2.75000000
   17.90083313   93.99870300    2.50000000    2.73000002
   17.90416718   92.17160034    2.84999990    2.73000002
   17.90527725   91.75769806    2.98000002    2.73000002
   17.90749931   95.90650177    3.21000004    2.73000002
   17.91083336  100.81099701    3.14000010    2.73000002
   17.91416550   91.18019867    2.80999994    2.75000000
   17.91722107   95.97940063    2.71000004    2.73000002
   17.92055511   93.28019714    2.36999989    2.75000000
   17.92388916   92.02200317    2.03999996    2.75000000
   17.92972183   92.02200317    2.01999998    2.75000000
   17.93388748   92.16100311    1.76999998    2.75000000
   17.93722153   88.44080353    1.51999998    2.75000000
   17.93861008   91.12740326    1.50000000    2.75000000
   17.94083214   90.50769806    1.34000003    2.75000000
   17.94416618   88.74849701    1.48000002    2.73000002
   17.94749832   79.18419647    1.51999998    2.75000000
   17.95055580  102.20200348    1.51999998    2.75000000
   17.95388985   92.91169739    1.69000006    2.75000000
   17.95722389   94.29129791    1.94000006    2.75000000
   17.96027946   94.08419800    1.85000002    2.75000000
   17.96361160   98.64089966    1.76999998    2.75000000
   17.96666718   95.86759949    2.23000002    2.75000000
   17.97277832   95.86759949    2.25000000    2.75000000
   17.97694588  102.46399689    2.46000004    2.73000002
   17.98000145   97.40820313    2.61999989    2.73000002
   17.98333359  100.71800232    2.59999990    2.73000002
   17.98638916   95.18219757    2.39000010    2.75000000
   17.98972321   97.18109894    2.32999992    2.75000000
   17.99305534   99.12049866    2.36999989    2.75000000
   17.99638939   98.95760345    2.11999989    2.75000000
   17.99944496   95.46589661    2.03999996    2.75000000
   18.00277710   97.89929962    2.07999992    2.75000000
   18.00527763   95.73860168    1.89999998    2.73000002
   18.00611115  102.59500122    1.88000000    2.75000000
   18.00944519   95.75160217    1.94000006    2.75000000
   18.01555634   95.75160217    1.89999998    2.75000000
   18.01972198  102.57399750    1.86000001    2.73000002
   18.02277756   98.95880127    1.83000004    2.73000002
   18.02611160   91.95600128    1.44000006    2.75000000
   18.02944374   88.52860260    1.44000006    2.75000000
   18.03249931   94.30549622    1.21000004    2.75000000
   18.03583336   99.61669922    1.26999998    2.75000000
   18.03861046   86.89990234    1.11000001    2.75000000
   18.03972244   92.45610046    1.19000006    2.75000000
   18.04277802   88.19290161    1.55999994    2.75000000
   18.04611015   94.27940369    1.69000006    2.75000000
   18.04916573   91.17690277    1.39999998    2.73000002
   18.05249977   96.47830200    1.34000003    2.75000000
   18.05833244   96.47830200    1.21000004    2.75000000
   18.06250000   94.92140198    1.23000002    2.75000000
   18.06583214   86.20800018    1.07000005    2.75000000
   18.06888962   92.26660156    0.98000002    2.73000002
   18.07194519   92.34870148    1.00000000    2.75000000
   18.07277870   94.36799622    1.00000000    2.75000000
   18.07583427   93.22480011    0.76999998    2.75000000
   18.07916832   93.50689697    0.79000002    2.75000000
   18.08222389   92.82379913    1.46000004    2.75000000
   18.08555603   95.52539825    1.60000002    2.73000002
   18.08889008   94.06179810    1.60000002    2.73000002
   18.09194565   96.06430054    1.69000006    2.73000002
   18.09527779   91.69450378    1.88000000    2.75000000
   18.10111237   91.69450378    2.00000000    2.73000002
   18.10527802   87.37200165    2.17000008    2.73000002
   18.10861206   93.25700378    2.28999996    2.73000002
   18.11166763   92.26339722    2.64000010    2.73000002
   18.11499977   89.92510223    3.05999994    2.71000004
   18.11833382   90.46070099    3.11999989    2.71000004
   18.12138939   89.15319824    3.03999996    2.73000002
   18.12472153   95.59380341    3.09999990    2.73000002
   18.12777710   90.46690369    3.03999996    2.71000004
   18.13111115   95.96859741    3.26999998    2.71000004
   18.13444519   97.77380371    2.91000009    2.73000002
   18.13750076   96.58769989    2.98000002    2.73000002
   18.13861084   92.63400269    2.98000002    2.73000002
   18.14416695   92.63400269    2.75000000    2.73000002
   18.14805603   86.03929901    2.21000004    2.73000002
   18.15138817   92.80300140    1.83000004    2.73000002
   18.15472221   85.07980347    1.41999996    2.75000000
   18.17222214  100.09799957    1.00000000    2.75000000
   18.17472076   98.74990082    1.01999998    2.75000000
   18.17777634  100.65100098    1.25000000    2.73000002
   18.18111038   91.05079651    1.26999998    2.75000000
   18.18694305   91.05079651    1.25000000    2.75000000
   18.19111061  101.42400360    0.98000002    2.73000002
   18.19444275   86.13009644    1.03999996    2.75000000
   18.19777679   90.32039642    1.05999994    2.75000000
   18.20083427   93.76499939    1.01999998    2.75000000
   18.20416832   98.85649872    0.98000002    2.75000000
   18.20555687  100.56600189    0.98000002    2.75000000
   18.20777893   92.85959625    0.98000002    2.75000000
   18.21111107   94.96510315    0.80000001    2.73000002
   18.21444511   94.00879669    0.63000000    2.75000000
   18.21750069   91.03459930    0.69000000    2.75000000
   18.22083473   93.51959991    0.70999998    2.75000000
   18.22416687   94.33999634    0.70999998    2.75000000
   18.23000145   94.33999634    1.96000004    2.75000000
   18.23416710   87.80069733    2.26999998    2.73000002
   18.23722267   89.62529755    1.44000006    2.75000000
   18.23888969  102.93199921    1.21000004    2.73000002
   18.24083328   92.43389893    1.13000000    2.75000000
   18.24416733   90.25440216    1.19000006    2.75000000
   18.24749947   92.76879883    1.25000000    2.75000000
   18.25055504   89.21559906    1.25000000    2.75000000
   18.25388908   96.55380249    0.89999998    2.73000002
   18.25722313   97.28659821    1.13000000    2.73000002
   18.26027870   98.99569702    1.16999996    2.73000002
   18.26361084   90.19049835    1.16999996    2.73000002
   18.26694489   93.75000000    1.44000006    2.73000002
   18.27277756   93.75000000    1.14999998    2.75000000
   18.27694511   96.56279755    1.01999998    2.75000000
   18.28000069   97.37190247    0.92000002    2.73000002
   18.28333282   98.14199829    0.92000002    2.73000002
   18.28666687  103.36100006    0.89999998    2.73000002
   18.28972244   99.09500122    0.81999999    2.73000002
   18.29305458   93.59950256    0.75000000    2.73000002
   18.29638863   93.43360138    0.73000002    2.73000002
   18.29944420   89.44789886    0.56999999    2.75000000
   18.30277634   92.69989777    0.58999997    2.75000000
   18.30555534   91.41049957    0.58999997    2.75000000
   18.30611038   93.99980164    0.61000001    2.75000000
   18.30944443   92.33090210    0.52999997    2.75000000
   18.31555557   92.33090210    0.50000000    2.75000000
   18.31972313   92.92389679    0.52999997    2.75000000
   18.32305717   93.65350342    0.55000001    2.73000002
   18.32611275   92.06390381    0.55000001    2.75000000
   18.32944489   92.59490204    0.56999999    2.75000000
   18.33277893   89.90360260    0.63000000    2.73000002
   18.33583450   96.62120056    0.63000000    2.73000002
   18.33889008   89.96920013    0.63000000    2.75000000
   18.33972359   92.63649750    0.63000000    2.75000000
   18.34277916   96.98490143    0.61000001    2.73000002
   18.34611130  103.05500031    0.55000001    2.75000000
   18.34944534   92.68440247    0.55000001    2.73000002
   18.35250092  100.49600220    0.55000001    2.73000002
   18.35833359  100.49600220    0.56999999    2.75000000
   18.36250114   95.80560303    0.55000001    2.75000000
   18.36583328   93.59829712    0.36000001    2.75000000
   18.36916733  102.62500000    0.34000000    2.75000000
   18.37222290   85.58319855    0.34000000    2.75000000
   18.37249947   96.16480255    0.34000000    2.75000000
   18.37583351  100.65000153    0.36000001    2.75000000
   18.37916756   99.06479645    0.34000000    2.73000002
   18.38222313   91.40440369    0.34000000    2.73000002
   18.38555527   92.26139832    0.34000000    2.73000002
   18.38861084   94.24040222    0.34000000    2.73000002
   18.39194489   94.56040192    0.34000000    2.75000000
   18.39527702   89.40599823    0.31999999    2.75000000
   18.40138817   89.40599823    0.40000001    2.75000000
   18.40555573   95.71160126    0.41999999    2.73000002
   18.40583229   98.39019775    0.41999999    2.73000002
   18.40916634   99.79340363    0.41999999    2.75000000
   18.41250038   98.85769653    0.40000001    2.75000000
   18.41555595   98.45999908    0.38000000    2.75000000
   18.41888809   93.12329865    0.38000000    2.73000002
   18.42222214   94.47650146    0.36000001    2.75000000
   18.42527771   91.95950317    0.36000001    2.73000002
   18.42860985   95.40160370    0.38000000    2.73000002
   18.43194389   96.24330139    0.38000000    2.75000000
   18.43499947   92.61879730    0.38000000    2.75000000
   18.43833160   94.30930328    0.38000000    2.73000002
   18.43888855   90.76059723    0.38000000    2.73000002
   18.44416618   90.76059723    4.48999977    2.73000002
   18.44833183   93.57900238    0.56999999    2.73000002
   18.45138931   92.43070221    0.41999999    2.73000002
   18.45472336   94.04209900    0.38000000    2.73000002
   18.45805550   96.31359863    0.38000000    2.73000002
   18.46111107   96.50720215    0.38000000    2.75000000
   18.46444511   91.88140106    0.38000000    2.75000000
   18.46750069   94.87329865    0.36000001    2.73000002
   18.47083473   94.76119995    0.38000000    2.73000002
   18.47222328   89.36299896    0.38000000    2.73000002
   18.47444534   92.96499634    0.38000000    2.73000002
   18.47777748   91.18640137    0.75000000    2.73000002
   18.48111153   97.78679657    0.56999999    2.75000000
   18.48694420   97.78679657    0.44000000    2.73000002
   18.49111176   86.91580200    0.41999999    2.73000002
   18.49444389   98.70829773    0.44000000    2.73000002
   18.49749947   96.11389923    0.52999997    2.73000002
   18.50083351   98.11209869    0.75000000    2.73000002
   18.50416756   93.31870270    0.79000002    2.71000004
   18.50555611   94.41919708    0.86000001    2.71000004
   18.50777817   92.42030334    0.69000000    2.73000002
   18.51083374   92.67769623    0.52999997    2.75000000
   18.51416588   96.37570190    0.52999997    2.75000000
   18.51749992   93.50000000    0.56999999    2.73000002
   18.52055550   95.30829620    0.58999997    2.73000002
   18.52388954   93.23609924    0.58999997    2.73000002
   18.52972221   93.23609924    0.70999998    2.73000002
   18.53388786   94.30349731    0.86000001    2.73000002
   18.53722191  100.38800049    0.95999998    2.73000002
   18.53888893   92.02639771    0.95999998    2.73000002
   18.54083252   92.25479889    1.05999994    2.73000002
   18.54388809   95.48300171    1.09000003    2.73000002
   18.54722214  100.20700073    1.09000003    2.73000002
   18.55027771   90.95459747    1.26999998    2.73000002
   18.55360985   96.97209930    1.30999994    2.73000002
   18.55694389   94.44670105    0.83999997    2.73000002
   18.55999947   97.54239655    0.69000000    2.73000002
   18.56333351   93.87680054    0.64999998    2.71000004
   18.56638718   99.79360199    0.61000001    2.73000002
   18.57277870   99.79360199    0.67000002    2.73000002
   18.57666779   98.25890350    0.80000001    2.73000002
   18.58000183  101.33499908    0.80000001    2.71000004
   18.58333397   96.20929718    0.80000001    2.71000004
   18.58638954   96.02330017    0.81999999    2.73000002
   18.58972359   95.93820190    0.92000002    2.73000002
   18.59305573  108.75599670    0.89999998    2.73000002
   18.59611130   91.81929779    0.94000000    2.73000002
   18.59944534  101.36100006    0.92000002    2.73000002
   18.60277748  102.68399811    0.92000002    2.73000002
   18.60555649  100.10500336    0.89999998    2.73000002
   18.60639000   96.88079834    0.94000000    2.73000002
   18.60944557   97.75700378    0.94000000    2.71000004
   18.61555672   97.75700378    0.73000002    2.73000002
   18.61972237  101.61100006    0.64999998    2.73000002
   18.62277794   92.81120300    0.63000000    2.71000004
   18.62611198   95.84369659    0.58999997    2.73000002
   18.62944412   94.76460266    0.58999997    2.73000002
   18.63249969   98.08860016    0.56999999    2.73000002
   18.63583374   98.14659882    0.56999999    2.73000002
   18.63888931   98.23570251    0.56999999    2.73000002
   18.63944435   95.72840118    0.56999999    2.73000002
   18.64249992  101.86900330    0.61000001    2.73000002
   18.64583397  101.17299652    0.58999997    2.73000002
   18.64888954   98.05480194    0.56999999    2.73000002
   18.65222168   97.84390259    0.55000001    2.73000002
   18.65833282   97.84390259    0.52999997    2.73000002
   18.66250038   95.08809662    0.55000001    2.73000002
   18.66583252   96.25360107    0.52999997    2.73000002
   18.66888809   94.67590332    0.52999997    2.73000002
   18.67222214   98.14900208    0.44000000    2.73000002
   18.67277718   92.77380371    0.44000000    2.73000002
   18.67583275   93.08689880    0.44000000    2.73000002
   18.67916679   95.26020050    0.44000000    2.73000002
   18.68222237   92.42169952    0.41999999    2.73000002
   18.68555450   95.00279999    0.44000000    2.73000002
   18.68888855   95.03029633    0.46000001    2.73000002
   18.69194412   92.93759918    0.51999998    2.73000002
   18.69527626   94.24160004    0.51999998    2.75000000
   18.70111275   94.24160004    0.56999999    2.73000002
   18.70527840   91.77030182    0.73000002    2.73000002
   18.70583344   90.07990265    0.75000000    2.71000004
   18.70916748   95.07859802    0.89999998    2.73000002
   18.71250153   94.70390320    1.26999998    2.71000004
   18.71555710   99.56259918    1.71000004    2.71000004
   18.71888924   96.89399719    2.17000008    2.71000004
   18.72194481   97.68340302    2.30999994    2.71000004
   18.72527885   96.34169769    2.66000009    2.71000004
   18.72861099   96.78040314    2.93000007    2.69000006
   18.73166656   94.10990143    3.11999989    2.69000006
   18.73500061   93.17839813    3.25000000    2.69000006
   18.73833275   95.96089935    3.43000007    2.69000006
   18.73916626  100.66899872    3.55999994    2.69000006
   18.74416733  100.66899872    3.14000010    2.71000004
   18.74833298   97.72720337    3.14000010    2.69000006
   18.75138855   99.52649689    3.93000007    2.69000006
   18.75472260   93.92910004    4.76000023    2.69000006
   18.75777817   90.85820007    4.90999985    2.67000008
   18.76111031   88.88990021    4.90999985    2.69000006
   18.76444435   93.80639648    4.90999985    2.67000008
   18.76777840   96.85379791    4.90999985    2.66000009
   18.77083397   95.72599792    4.88999987    2.67000008
   18.77249908   94.90229797    4.69999981    2.69000006
   18.77444458   94.08799744    4.05999994    2.69000006
   18.77777672   87.54640198    3.64000010    2.69000006
   18.78083229   99.59159851    3.59999990    2.69000006
   18.78694344   99.59159851    4.51000023    2.67000008
   18.79111099  104.70099640    4.90999985    2.67000008
   18.79416656  103.12200165    4.90999985    2.66000009
   18.79749870   97.93800354    4.90999985    2.64000010
   18.80083275  102.23999786    4.90999985    2.64000010
   18.80388832   99.66780090    4.90999985    2.66000009
   18.80583191   93.22879791    4.90999985    2.66000009
   18.80749893   98.30529785    4.90999985    2.66000009
   18.81083298   99.29560089    4.90999985    2.66000009
   18.81388855   98.69290161    4.63999987    2.69000006
   18.81722260   98.90170288    3.84999990    2.69000006
   18.82027817   95.69950104    3.28999996    2.69000006
   18.82361221   95.81990051    2.84999990    2.71000004
   18.82972336   95.81990051    3.03999996    2.71000004
   18.83388901   98.14440155    2.69000006    2.69000006
   18.83722305   98.22859955    2.19000006    2.69000006
   18.83916664   98.20909882    2.07999992    2.69000006
   18.84083366   97.11309814    2.13000011    2.69000006
   18.84416771   95.99479675    2.46000004    2.69000006
   18.84722328   99.19190216    2.48000002    2.69000006
   18.85055542   97.18060303    3.11999989    2.69000006
   18.85388947   95.72830200    3.66000009    2.66000009
   18.85694504  101.06500244    3.66000009    2.67000008
   18.86027908   94.62999725    3.25000000    2.67000008
   18.86333466   94.08809662    3.01999998    2.67000008
   18.86666679   97.57289886    2.51999998    2.69000006
   18.87249947   97.57289886    2.67000008    2.69000006
   18.87666702   98.59709930    2.23000002    2.69000006
   18.88000107   98.36620331    2.05999994    2.69000006
   18.88305473   99.45300293    1.75000000    2.71000004
   18.88638878  100.43900299    1.53999996    2.69000006
   18.88972282   97.11309814    1.58000004    2.69000006
   18.89277840  103.47399902    1.55999994    2.69000006
   18.89611053   88.91059875    4.38999987    2.71000004
   18.89944458   96.16989899    1.33000004    2.71000004
   18.90250015   99.70800018    0.92000002    2.71000004
   18.90583229   98.45159912    0.89999998    2.69000006
   18.90777779   90.70999908    0.83999997    2.69000006
   18.90944481   95.64510345    0.89999998    2.71000004
   18.91555595   95.64510345    0.98000002    2.71000004
   18.91944313   90.65470123    1.26999998    2.71000004
   18.92277718   89.53690338    1.13000000    2.69000006
   18.92611122   92.88649750    1.19000006    2.69000006
   18.92916679   92.83200073    1.23000002    2.69000006
   18.93249893   92.21649933    1.23000002    2.69000006
   18.93583298   94.27369690    1.25000000    2.71000004
   18.93888855   93.92009735    1.19000006    2.69000006
   18.94111061   98.91929626    1.55999994    2.71000004
   18.94277763   96.77279663    1.55999994    2.71000004
   18.94583321   91.52069855    1.07000005    2.71000004
   18.94916534   97.05079651    1.01999998    2.69000006
   18.95250130   97.11319733    0.98000002    2.69000006
   18.95833397   97.11319733    0.80000001    2.69000006
   18.96250153   99.55519867    0.63000000    2.69000006
   18.96555710   94.18240356    2.21000004    2.67000008
   18.96888924   93.91709900    2.30999994    2.67000008
   18.97222328   97.36910248    1.89999998    2.67000008
   18.97444534   95.54689789    1.55999994    2.67000008
   18.97583389   95.20130157    1.55999994    2.67000008
   18.97916794   94.50969696    1.26999998    2.69000006
   18.98222351   94.84750366    1.01999998    2.69000006
   18.98555565   93.97319794    0.89999998    2.69000006
   18.98861122   95.32420349    1.07000005    2.69000006
   18.99194527   91.69560242    1.09000003    2.69000006
   18.99527740   98.99269867    1.05999994    2.69000006
   19.00111198   98.99269867    1.19000006    2.69000006
   19.00527763  104.04199982    1.21000004    2.71000004
   19.00777817   96.42720032    1.21000004    2.69000006
   19.00888824   93.43129730    1.21000004    2.69000006
   19.01222229   99.80039978    1.19000006    2.69000006
   19.01527786   94.45520020    1.19000006    2.69000006
   19.01861000   99.50360107    1.34000003    2.69000006
   19.02166557  100.95600128    1.39999998    2.69000006
   19.02499962   99.73619843    1.41999996    2.69000006
   19.02833366   95.70310211    1.39999998    2.69000006
   19.03138924   95.45379639    1.44000006    2.69000006
   19.03472137   94.59709930    1.44000006    2.69000006
   19.03805542   96.25779724    1.46000004    2.67000008
   19.04388809   96.25779724    1.48000002    2.69000006
   19.04805565   96.41030121    1.38000000    2.69000006
   19.05138779   94.21659851    1.30999994    2.69000006
   19.05472183   95.11689758    1.33000004    2.69000006
   19.05777740   94.87100220    1.33000004    2.69000006
   19.06110954  101.25599670    1.30999994    2.69000006
   19.06444359   93.85350037    1.44000006    2.69000006
   19.06750107   93.54049683    1.53999996    2.69000006
   19.07083511  100.50700378    1.36000001    2.69000006
   19.07389069   96.41439819    1.41999996    2.69000006
   19.07500076   94.75669861    1.50000000    2.69000006
   19.07750130   98.91889954    2.26999998    2.69000006
   19.08083344  110.78399658    2.82999992    2.61999989
   19.08694458  110.78399658    4.21999979    2.61999989
   19.09083366   94.04170227    4.00000000    2.66000009
   19.09416771   96.71350098    4.03999996    2.66000009
   19.09749985   98.82330322    4.44999981    2.59999990
   19.10055542   99.33550262    4.11999989    2.64000010
   19.10388947   99.98130035    3.09999990    2.67000008
   19.10722351   94.76499939    2.50000000    2.66000009
   19.10833359   93.87220001    2.36999989    2.66000009
   19.11083412   94.78739929    2.21000004    2.67000008
   19.11416626   94.09970093    1.94000006    2.67000008
   19.11750031  101.12400055    1.80999994    2.67000008
   19.12055588   94.38059998    1.63000000    2.66000009
   19.12388992   97.69339752    1.64999998    2.67000008
   19.12972260   97.69339752    1.58000004    2.67000008
   19.13388824   94.61479950    1.19000006    2.69000006
   19.13694382   96.75509644    1.19000006    2.69000006
   19.14027786   99.24579620    1.05999994    2.69000006
   19.14166641   96.78440094    0.95999998    2.69000006
   19.14388847   98.23090363    0.95999998    2.69000006
   19.14722252   96.26740265    0.94000000    2.69000006
   19.15027809  100.94999695    0.86000001    2.69000006
   19.15361023   97.80039978    0.86000001    2.69000006
   19.15694427   96.17079926    0.86000001    2.69000006
   19.15999985   98.05519867    0.81999999    2.69000006
   19.16333389   92.52030182    0.75000000    2.67000008
   19.16666603   92.92620087    0.61000001    2.69000006
   19.17249870   92.92620087    0.58999997    2.69000006
   19.19083214   -1.00000000    0.75000000    2.69000006
   19.19416618  101.19499969    0.67000002    2.67000008
   19.19722176   90.36949921    0.56999999    2.69000006
   19.20055580   97.08920288    0.55000001    2.69000006
   19.20388985   92.96800232    0.55000001    2.69000006
   19.20694542   90.12069702    0.55000001    2.69000006
   19.21027946   95.00399780    0.58999997    2.69000006
   19.21555710   95.00399780    0.58999997    2.69000006
   19.21972275   93.59760284    4.90999985    2.71000004
   19.22305679  123.83000183    4.90999985    2.46000004
   19.22389030   94.98950195    4.90999985    2.55999994
   19.22666740   84.51560211    4.90999985    2.64000010
   19.23000145   91.69640350    4.90999985    2.69000006
   19.23305511   91.76840210    2.53999996    2.67000008
   19.23638916   97.78170013    1.63000000    2.67000008
   19.23944473   94.62010193    1.28999996    2.67000008
   19.24277878   97.04689789    0.94000000    2.67000008
   19.24611092  101.91400146    0.88000000    2.69000006
   19.24916649   96.04029846    0.80000001    2.67000008
   19.25250053   95.00810242    0.79000002    2.67000008
   19.25833321   95.00810242    0.75000000    2.67000008
   19.26250076   95.25119781    0.69000000    2.67000008
   19.26583290   95.75420380    0.58999997    2.67000008
   19.26916695   97.88980103    0.52999997    2.67000008
   19.27222252  101.04199982    0.51999998    2.67000008
   19.27555466   93.14579773    0.46000001    2.67000008
   19.27861023   95.99469757    0.47999999    2.69000006
   19.28194427  100.47000122    0.46000001    2.67000008
   19.28527641   99.50589752    0.47999999    2.67000008
   19.28833199   92.29599762    0.47999999    2.67000008
   19.29055595  100.53399658    0.47999999    2.67000008
   19.29222107  107.28399658    0.46000001    2.67000008
   19.29555511   96.26260376    0.50000000    2.67000008
   19.30138779   96.26260376    0.51999998    2.67000008
   19.30555534   97.01770020    0.55000001    2.67000008
   19.30861092   95.65650177    0.55000001    2.67000008
   19.31194305   97.26499939    0.56999999    2.67000008
   19.31499863   96.54979706    0.61000001    2.67000008
   19.31833458   97.71730042    0.69000000    2.67000008
   19.32166672   92.83059692    0.67000002    2.67000008
   19.32389069   96.85669708    0.67000002    2.67000008
   19.32527924   97.98130035    0.67000002    2.67000008
   19.32861137   95.92440033    0.67000002    2.67000008
   19.33166695   96.96669769    0.64999998    2.67000008
   19.33500099   93.66829681    0.64999998    2.67000008
   19.33805656   96.44819641    0.69000000    2.67000008
   19.34416771   96.44819641    1.50000000    2.67000008
   19.34833336   92.88289642    2.23000002    2.66000009
   19.35138893   92.58489990    1.19000006    2.67000008
   19.35472298   92.07089996    0.80000001    2.66000009
   19.35722351   95.73000336    0.70999998    2.67000008
   19.35833359  102.80899811    0.70999998    2.67000008
   19.36166763  106.40499878    0.69000000    2.67000008
   19.36472321  100.22200012    0.63000000    2.67000008
   19.36805534   98.81529999    0.63000000    2.67000008
   19.37138939  104.63500214    0.63000000    2.67000008
   19.37444496   97.18440247    0.67000002    2.66000009
   19.37777710   96.13880157    0.73000002    2.67000008
   19.38083267   97.29779816    0.76999998    2.66000009
   19.38694382   97.29779816    0.76999998    2.67000008
   19.39111137   93.14790344    0.75000000    2.66000009
   19.39444351   95.41000366    0.73000002    2.67000008
   19.39749908  108.68800354    0.69000000    2.66000009
   19.40083313   94.72820282    0.73000002    2.66000009
   19.40416718   97.76979828    0.73000002    2.66000009
   19.40722275   96.68219757    0.67000002    2.66000009
   19.41055489  100.99600220    0.64999998    2.66000009
   19.41388893   96.79930115    0.58999997    2.66000009
   19.41694450  102.18699646    0.61000001    2.66000009
   19.42027664   99.13500214    0.61000001    2.67000008
   19.42333221   91.65049744    0.56999999    2.66000009
   19.42388916   98.71900177    0.56999999    2.66000009
   19.42972183   98.71900177    0.56999999    2.66000009
   19.43388748  102.53700256    0.55000001    2.66000009
   19.43722153  101.23999786    0.52999997    2.66000009
   19.44055557   96.10130310    0.55000001    2.66000009
   19.44361115   92.79900360    0.56999999    2.66000009
   19.44694328   87.26090240    1.50000000    2.67000008
   19.45027924   92.15290070    4.90999985    2.61999989
   19.45333481   89.87609863    4.90999985    2.50000000
   19.45666695   97.46559906    4.90999985    2.64000010
   19.45722389   94.28269958    4.90999985    2.66000009
   19.46027946   94.57420349    1.86000001    2.66000009
   19.46361160   99.79070282    1.55999994    2.66000009
   19.46666718   93.81390381    3.95000005    2.66000009
   19.47277832   93.81390381    4.90999985    2.28999996
   19.47694588  109.35399628    4.90999985    2.73000002
   19.48000145  193.14399719    4.90999985    1.75000000
   19.48333359  204.61999512    4.90999985    1.89999998
   19.48638916   99.39340210    4.90999985    1.89999998
   19.48972321   96.44409943    4.90999985    2.67000008
   19.49055672  100.63700104    4.90999985    2.69000006
   19.49333382   98.26640320    4.90999985    2.69000006
   19.49666786   95.67089844    4.90999985    2.67000008
   19.49972153   96.17230225    4.90999985    2.67000008
   19.50305557   95.79299927    1.41999996    2.66000009
   19.50638962  105.85900116    1.64999998    2.64000010
   19.50944519  100.55899811    1.39999998    2.64000010
   19.51555634  100.55899811    1.16999996    2.64000010
   19.51972198  104.93000031    1.16999996    2.64000010
   19.52305603  100.12200165    1.19000006    2.64000010
   19.52388954   99.77239990    1.00000000    2.64000010
   19.52666664   98.78440094    0.69000000    2.64000010
   19.53000069  101.35900116    0.67000002    2.64000010
   19.53305435   98.84619904    0.63000000    2.66000009
   19.53638840  102.68499756    0.63000000    2.66000009
   19.53972244   98.55410004    0.51999998    2.66000009
   19.54277802   95.14320374    0.47999999    2.64000010
   19.54611015   94.87159729    0.46000001    2.66000009
   19.54916573   95.39089966    0.47999999    2.66000009
   19.55249977   92.84880066    0.47999999    2.66000009
   19.55833244   92.84880066    0.67000002    2.64000010
   19.56250000  101.01599884    0.75000000    2.66000009
   19.56583214   94.87699890    0.79000002    2.64000010
   19.56888962   95.41159821    0.94000000    2.64000010
   19.57222366  100.75199890    1.03999996    2.64000010
   19.57527924   97.02110291    1.28999996    2.64000010
   19.57861137   98.04479980    1.60000002    2.61999989
   19.58194542   96.03130341    2.19000006    2.61999989
   19.58500099   99.67030334    2.59999990    2.61999989
   19.58833313   99.00060272    2.94000006    2.61999989
   19.59055710   98.69090271    3.34999990    2.59999990
   19.59194565   87.45279694    3.68000007    2.59999990
   19.59527779  102.03500366    4.90999985    2.50000000
   19.60111237  102.03500366    4.80999994    2.53999996
   19.60527802   90.60820007    3.78999996    2.57999992
   19.60861206   92.55239868    2.32999992    2.59999990
   19.61194420   93.54570007    2.01999998    2.59999990
   19.61499977   93.51159668    1.69000006    2.61999989
   19.61833382   94.54290009    1.28999996    2.61999989
   19.62138939   97.74120331    1.19000006    2.64000010
   19.62416649   95.08309937    0.80000001    2.64000010
   19.62500000   95.60479736    0.79000002    2.64000010
   19.62833405   98.19909668    0.69000000    2.64000010
   19.63138962   96.46499634    0.69000000    2.64000010
   19.63472176  100.17600250    0.61000001    2.64000010
   19.63805580  102.35299683    0.63000000    2.64000010
   19.64416695  102.35299683    0.63000000    2.64000010
   19.64805603  100.77500153    0.64999998    2.64000010
   19.65138817  104.69100189    0.64999998    2.64000010
   19.65472221  101.59600067    0.64999998    2.64000010
   19.65722275   96.36299896    0.64999998    2.64000010
   19.65833282   94.45860291    0.64999998    2.64000010
   19.66166687   97.19619751    0.64999998    2.64000010
   19.66472244   99.76599884    0.64999998    2.64000010
   19.66805458   99.84980011    0.63000000    2.64000010
   19.67138863  100.15899658    0.63000000    2.61999989
   19.67444420   98.47730255    0.63000000    2.61999989
   19.67777634  102.93800354    0.63000000    2.61999989
   19.68111038   99.46489716    0.64999998    2.64000010
   19.68694305   99.46489716    0.75000000    2.64000010
   19.69111061  100.13700104    0.79000002    2.64000010
   19.69416618   98.08940125    0.81999999    2.61999989
   19.69749832  104.72399902    0.81999999    2.64000010
   19.70083427  101.87500000    0.88000000    2.64000010
   19.70388985   93.26969910    1.53999996    2.64000010
   19.70722389   93.37020111    3.00000000    2.64000010
   19.71055603   96.34739685    4.90999985    2.66000009
   19.71361160  106.90699768    4.90999985    2.34999990
   19.71694565   99.15879822    4.90999985    2.39000010
   19.72000122  100.68199921    4.90999985    2.48000002
   19.72333336  107.50700378    4.90999985    2.21000004
   19.72416687  121.96800232    4.90999985    2.36999989
   19.72972298  121.96800232    4.90999985    2.51999998
   19.73388863   98.74410248    4.90999985    2.59999990
   19.73722267   99.02040100    4.90999985    2.59999990
   19.74027824   90.55039978    4.90999985    2.59999990
   19.74361229  104.65599823    4.90999985    2.34999990
   19.74666786   94.28299713    4.90999985    2.55999994
   19.75000000   96.47380066    4.90999985    2.50000000
   19.75333405  106.95200348    4.90999985    2.42000008
   19.75638962   97.23970032    4.90999985    2.46000004
   19.75749969  103.27899933    4.90999985    2.42000008
   19.76000023  101.29299927    4.90999985    2.48000002
   19.76333427   99.69110107    4.90999985    2.51999998
   19.76638794   96.31919861    4.90999985    2.59999990
   19.77249908   96.31919861    4.90999985    2.61999989
   19.77666664   94.25900269    4.90999985    2.61999989
   19.78000069   94.58280182    4.90999985    2.59999990
   19.78305435   88.00630188    4.90999985    2.57999992
   19.78638840   96.86849976    4.28999996    2.59999990
   19.78972244   99.59850311    1.98000002    2.59999990
   19.79083252   93.65969849    1.34000003    2.61999989
   19.79333305   91.63220215    1.05999994    2.59999990
   19.79666710  102.43800354    1.01999998    2.59999990
   19.79972076   99.31870270    0.81999999    2.61999989
   19.80305481   92.29389954    0.83999997    2.59999990
   19.80638885   94.74449921    0.76999998    2.59999990
   19.80944443   89.47799683    0.80000001    2.61999989
   19.81555557   89.47799683    1.00000000    2.59999990
   19.81944466   93.49859619    0.98000002    2.59999990
   19.82277870   93.91079712    0.98000002    2.59999990
   19.82416725   93.66899872    0.98000002    2.59999990
   19.82638931   88.23519897    1.30999994    2.59999990
   19.82972336   88.74199677    1.30999994    2.59999990
   19.83277893   92.75160217    1.30999994    2.59999990
   19.83611107   92.55049896    1.48000002    2.59999990
   19.83944511   94.42579651    1.39999998    2.59999990
   19.84250069   95.84429932    1.53999996    2.57999992
   19.84583473   88.78910065    1.63000000    2.57999992
   19.84916687   88.68949890    1.63000000    2.59999990
   19.85222244   95.46880341    1.64999998    2.57999992
   19.85833359   95.46880341    1.96000004    2.57999992
   19.86250114   93.71199799    2.01999998    2.57999992
   19.86555672  100.96199799    1.85000002    2.59999990
   19.86888885   96.76840210    1.58000004    2.59999990
   19.87222290   93.54830170    1.51999998    2.59999990
   19.87527847   95.46779633    1.48000002    2.59999990
   19.87861061   97.06279755    1.09000003    2.57999992
   19.88166618   95.82599640    1.07000005    2.59999990
   19.88500023   93.39820099    1.07000005    2.59999990
   19.88833237   95.41819763    0.98000002    2.59999990
   19.89083290   95.96360016    0.86000001    2.59999990
   19.89194489   99.42140198    0.86000001    2.59999990
   19.89527702   97.82360077    0.79000002    2.59999990
   19.90111160   97.82360077    0.76999998    2.59999990
   19.90527725   87.18319702    4.90999985    2.53999996
   19.90861130   98.86450195    4.90999985    2.19000006
   19.91166687  198.77999878    4.90999985    2.01999998
   19.91499901   -1.00000000    4.90999985    1.61000001
   19.91805458   -1.00000000    4.90999985    1.38000000
   19.92138863  164.29299927    4.90999985    1.55999994
   19.92416573  108.49299622    4.90999985    1.94000006
   19.92499924  228.21899414    4.90999985    1.85000002
   19.92833328   -1.00000000    4.90999985    1.94000006
   19.93138885   -1.00000000    4.90999985    1.48000002
   19.93472099   -1.00000000    4.90999985    1.21000004
   19.93805504   -1.00000000    4.90999985    1.25000000
   19.94388771   -1.00000000    4.90999985    1.39999998
   19.94805527  244.25799561    4.90999985    1.94000006
   19.95138931  128.19700623    4.90999985    2.28999996
   19.95444489  105.51000214    4.90999985    2.36999989
   19.95750046  103.72100067    4.90999985    2.50000000
   19.95805550  100.96700287    4.90999985    2.50000000
   19.96138954  118.29599762    4.90999985    2.44000006
   19.96472359  169.30000305    4.90999985    2.40000010
   19.96777916  261.07199097    4.90999985    2.46000004
   19.97111130  400.83599854    4.90999985    2.46000004
   19.97305679   95.52410126    4.90999985    2.48000002
   19.97333336   -1.00000000    4.90999985    1.25000000
   19.97333336  244.25799561    4.90999985    1.94000006
   19.97333336  128.19700623    4.90999985    2.28999996
   19.97333336  105.51000214    4.90999985    2.36999989
   19.97361183  100.96700287    4.90999985    2.50000000
   19.97361183  118.29599762    4.90999985    2.44000006
   19.97389030  169.30000305    4.90999985    2.40000010
   19.97389030  261.07199097    4.90999985    2.46000004
