    HOUR (UT)   FLARE FACTOR    SKY TESTER    SUN TESTER
   11.71138859   -1.00000000   -1.00000000   -1.00000000
   11.73583317  207.54200745    0.58999997    2.28999996
   11.73916721  210.50399780    0.58999997    2.30999994
   11.74222279  196.42900085    0.58999997    2.28999996
   11.74555588  204.17700195    0.58999997    2.30999994
   11.74888897  205.64700317    0.58999997    2.28999996
   11.75194454  221.30900574    0.56999999    2.30999994
   11.75611115  221.30900574    0.56999999    2.30999994
   11.76027775  217.81599426    0.56999999    2.30999994
   11.76361084  203.83799744    0.56999999    2.30999994
   11.76666641  220.84500122    0.56999999    2.30999994
   11.76888847  215.55799866    0.58999997    2.30999994
   11.77055550  216.62600708    0.58999997    2.30999994
   11.77361107  236.00199890    0.58999997    2.30999994
   11.77694416  217.50900269    0.56999999    2.30999994
   11.78027725  213.92100525    0.56999999    2.30999994
   11.78333378  219.00500488    0.56999999    2.30999994
   11.78666687  209.89700317    0.56999999    2.32999992
   11.79000092  217.76300049    0.56999999    2.32999992
   11.79305553  223.04699707    0.56999999    2.32999992
   11.79888916  223.04699707    0.56999999    2.32999992
   11.80305576  222.37600708    0.56999999    2.32999992
   11.80638885  223.84700012    0.56999999    2.32999992
   11.80944443  235.99699402    0.56999999    2.34999990
   11.81277752  208.58099365    0.55000001    2.32999992
   11.81611156  208.48100281    0.55000001    2.34999990
   11.81916618  209.48100281    0.55000001    2.34999990
   11.82250023  200.02400208    0.55000001    2.32999992
   11.82583332  216.27600098    0.55000001    2.32999992
   11.82888889  208.37199402    0.55000001    2.34999990
   11.83222198  204.90100098    0.56999999    2.34999990
   11.83527756  213.78300476    0.55000001    2.34999990
   11.83583260  215.63400269    0.55000001    2.34999990
   11.84194374  215.63400269    0.55000001    2.34999990
   11.84583282  209.51699829    0.55000001    2.34999990
   11.84916592  212.19799805    0.55000001    2.34999990
   11.85249996  204.97099304    0.55000001    2.34999990
   11.85555553  210.30900574    0.55000001    2.36999989
   11.85888958  215.97200012    0.55000001    2.36999989
   11.86222267  214.58599854    0.55000001    2.36999989
   11.86583328  229.56900024    0.55000001    2.36999989
   11.86916637  205.86000061    0.55000001    2.36999989
   11.86972237  207.60600281    0.55000001    2.36999989
   11.87305546  220.86999512    0.55000001    2.36999989
   11.87611103  217.95899963    0.55000001    2.36999989
   11.87944412  219.15199280    0.52999997    2.36999989
   11.88472176  219.15199280    0.55000001    2.36999989
   11.88888836  231.63400269    0.55000001    2.36999989
   11.89194393  229.91900635    0.55000001    2.39000010
   11.89527798  223.67100525    0.52999997    2.39000010
   11.89861107  227.64999390    0.52999997    2.39000010
   11.90166664  217.32800293    0.52999997    2.39000010
   11.90249920  222.37800598    0.52999997    2.39000010
   11.90527725  226.70199585    0.52999997    2.39000010
   11.90861034  224.85499573    0.52999997    2.39000010
   11.91166592  219.80799866    0.55000001    2.39000010
   11.91499996  239.07600403    0.52999997    2.39000010
   11.91833401  235.46699524    0.52999997    2.39000010
   11.92138958  237.80499268    0.52999997    2.39000010
   11.92750072  237.80499268    0.52999997    2.40000010
   11.93166733  237.58700562    0.52999997    2.39000010
   11.93500042  230.65600586    0.52999997    2.39000010
   11.93583298  226.80999756    0.52999997    2.40000010
   11.93861103  226.85000610    0.52999997    2.40000010
   11.94194412  242.90699768    0.51999998    2.40000010
   11.94499969  214.33500671    0.51999998    2.40000010
   11.94833374  234.48599243    0.51999998    2.40000010
   11.95166683  236.03900146    0.52999997    2.40000010
   11.95472240  214.50199890    0.52999997    2.40000010
   11.95805550  215.21400452    0.52999997    2.40000010
   11.96138859  208.08999634    0.51999998    2.40000010
   11.96444416  206.77600098    0.51999998    2.40000010
   11.97027779  206.77600098    0.51999998    2.42000008
   11.97444439  209.60499573    0.51999998    2.40000010
   11.97777748  208.66600037    0.51999998    2.42000008
   11.98083305  223.52600098    0.51999998    2.42000008
   11.98416710  211.86700439    0.51999998    2.42000008
   11.98750019  211.96200562    0.51999998    2.42000008
   11.99055576  202.92599487    0.51999998    2.44000006
   11.99388885  192.58999634    0.51999998    2.42000008
   11.99722290  193.77099609    0.51999998    2.42000008
   12.00027752  221.09399414    0.51999998    2.42000008
   12.00249958  210.97700500    0.51999998    2.42000008
   12.00388908  216.65899658    0.51999998    2.42000008
   12.00722218  205.28799438    0.51999998    2.42000008
   12.01333332  205.28799438    0.51999998    2.42000008
   12.01722240  205.18699646    0.51999998    2.42000008
   12.02055550  217.05200195    0.51999998    2.44000006
   12.02388859  206.44500732    0.51999998    2.44000006
   12.02694416  211.00000000    0.51999998    2.44000006
   12.03027725  207.31300354    0.51999998    2.44000006
   12.03361130  202.00399780    0.51999998    2.44000006
   12.03583336  221.78399658    0.51999998    2.44000006
   12.03722286  209.37899780    0.51999998    2.44000006
   12.04055595  202.40699768    0.51999998    2.44000006
   12.04361153  211.45599365    0.51999998    2.46000004
   12.04694462  205.12399292    0.50000000    2.46000004
   12.05027771  202.34899902    0.50000000    2.44000006
   12.05611134  202.34899902    0.50000000    2.46000004
   12.06027794  207.67999268    0.50000000    2.46000004
   12.06333351  197.37899780    0.50000000    2.46000004
   12.06666660  201.98699951    0.51999998    2.46000004
   12.06916618  197.61300659    0.50000000    2.46000004
   12.07027817  199.20300293    0.50000000    2.46000004
   12.07361126  197.99400330    0.50000000    2.46000004
   12.07666683  195.02999878    0.50000000    2.46000004
   12.07999992  195.46299744    0.50000000    2.46000004
   12.08333302  203.20599365    0.50000000    2.46000004
   12.08638859  190.96600342    0.50000000    2.46000004
   12.08972168  192.77600098    0.50000000    2.46000004
   12.09277725  199.40699768    0.50000000    2.46000004
   12.09888840  199.40699768    0.50000000    2.48000002
   12.10305595  195.17700195    0.50000000    2.48000002
   12.10638905  182.61399841    0.50000000    2.46000004
   12.10944462  193.68600464    0.50000000    2.48000002
   12.11277771  172.53599548    0.50000000    2.46000004
   12.11583328  193.30499268    0.50000000    2.46000004
   12.11916637  181.83900452    0.50000000    2.46000004
   12.12250042  182.66999817    0.50000000    2.48000002
   12.12555599  180.30599976    0.50000000    2.46000004
   12.12888908  180.07899475    0.50000000    2.48000002
   12.13222218  188.06399536    0.50000000    2.48000002
   12.13527775  178.24200439    0.47999999    2.48000002
   12.13583279  192.38600159    0.47999999    2.48000002
   12.14166641  192.38600159    0.47999999    2.48000002
   12.14583302  193.86000061    0.47999999    2.48000002
   12.14916611  183.19500732    0.47999999    2.48000002
   12.15222168  189.93299866    0.47999999    2.48000002
   12.15555477  183.42700195    0.47999999    2.48000002
   12.15888882  177.06199646    0.47999999    2.48000002
   12.16194439  181.66600037    0.47999999    2.48000002
   12.16527748  191.53399658    0.47999999    2.50000000
   12.16861153  184.58999634    0.47999999    2.50000000
   12.16944504  187.62800598    0.47999999    2.50000000
   12.17222214  191.52200317    0.47999999    2.50000000
   12.17555618  197.79400635    0.47999999    2.50000000
   12.17861176  194.41700745    0.47999999    2.50000000
   12.18472195  194.41700745    0.47999999    2.51999998
   12.18861103  187.53399658    0.47999999    2.50000000
   12.19194412  183.01800537    0.47999999    2.50000000
   12.19527817  198.00900269    0.47999999    2.50000000
   12.19833374  193.55200195    0.47999999    2.50000000
   12.20166683  205.08599854    0.47999999    2.50000000
   12.20277786  198.00199890    0.47999999    2.50000000
   12.20527744  191.50199890    0.47999999    2.50000000
   12.20861053  187.90199280    0.47999999    2.50000000
   12.21166611  195.92100525    0.46000001    2.50000000
   12.21500015  193.09700012    0.46000001    2.50000000
   12.21833324  195.28300476    0.47999999    2.51999998
   12.22138882  202.74800110    0.46000001    2.50000000
   12.22749996  202.74800110    0.47999999    2.51999998
   12.23166656  195.85499573    0.46000001    2.51999998
   12.23472214  192.28700256    0.46000001    2.51999998
   12.23611164  190.26400757    0.46000001    2.51999998
   12.23833370  202.83500671    0.46000001    2.51999998
   12.24166679  186.46299744    0.46000001    2.51999998
   12.24472237  191.41099548    0.47999999    2.51999998
   12.24805546  183.32600403    0.46000001    2.51999998
   12.25138855  191.55099487    0.46000001    2.51999998
   12.25444412  185.26400757    0.46000001    2.51999998
   12.25777817  195.74099731    0.46000001    2.51999998
   12.26111126  193.54800415    0.46000001    2.51999998
   12.26416683  181.42100525    0.46000001    2.51999998
   12.27027798  181.42100525    0.46000001    2.51999998
   12.27444458  180.77499390    0.44000000    2.53999996
   12.27777767  184.88299561    0.46000001    2.53999996
   12.28083324  189.15800476    0.46000001    2.53999996
   12.28416729  179.97500610    0.44000000    2.53999996
   12.28722286  190.32600403    0.44000000    2.53999996
   12.29055595  196.08999634    0.44000000    2.53999996
   12.29388905  169.31700134    0.44000000    2.53999996
   12.29694462  180.49099731    0.44000000    2.53999996
   12.30027771  180.57800293    0.44000000    2.53999996
   12.30277824  168.81300354    0.44000000    2.53999996
   12.30388927  180.71499634    0.44000000    2.53999996
   12.30722237  172.49400330    0.44000000    2.53999996
   12.31305599  172.49400330    0.44000000    2.53999996
   12.31722260  178.34500122    0.44000000    2.53999996
   12.32055569  180.94000244    0.44000000    2.53999996
   12.32361126  179.40899658    0.44000000    2.53999996
   12.32694435  177.09300232    0.44000000    2.53999996
   12.33027744  183.93600464    0.44000000    2.53999996
   12.33333302  175.62199402    0.44000000    2.53999996
   12.33611107  173.11500549    0.44000000    2.53999996
   12.33694458  172.85299683    0.44000000    2.53999996
   12.34027767  170.12199402    0.44000000    2.53999996
   12.34333324  178.69599915    0.44000000    2.55999994
   12.34666634  181.93099976    0.44000000    2.55999994
   12.35000038  179.06700134    0.44000000    2.53999996
   12.35611153  179.06700134    0.44000000    2.55999994
   12.36000061  174.81799316    0.44000000    2.55999994
   12.36333370  171.43499756    0.44000000    2.55999994
   12.36666679  172.80299377    0.44000000    2.55999994
   12.36944485  165.58299255    0.44000000    2.55999994
   12.37027836  167.63900757    0.44000000    2.55999994
   12.37361145  172.65499878    0.44000000    2.55999994
   12.37694454  172.83599854    0.44000000    2.55999994
   12.38000011  184.19999695    0.44000000    2.55999994
   12.38333321  178.76899719    0.44000000    2.55999994
   12.38638878  168.38099670    0.44000000    2.55999994
   12.38972187  169.44500732    0.41999999    2.57999992
   12.39305496  191.76699829    0.44000000    2.55999994
   12.39888859  191.76699829    0.41999999    2.55999994
   12.40305519  170.55299377    0.41999999    2.55999994
   12.40611076  180.58000183    0.44000000    2.55999994
   12.40944386  198.19200134    0.41999999    2.57999992
   12.41249943  188.28399658    0.41999999    2.55999994
   12.41583252  174.44200134    0.41999999    2.55999994
   12.41916656  173.97999573    0.41999999    2.57999992
   12.42222214  183.22399902    0.41999999    2.57999992
   12.42555618  175.81100464    0.41999999    2.57999992
   12.42888927  177.87600708    0.41999999    2.57999992
   12.43194485  184.50900269    0.41999999    2.57999992
   12.43527794  176.67100525    0.41999999    2.57999992
   12.43611145  205.15899658    0.41999999    2.57999992
   12.44166660  205.15899658    0.41999999    2.59999990
   12.44583321  210.57200623    0.41999999    2.57999992
   12.44888878  209.82499695    0.41999999    2.57999992
   12.45222187  186.76400757    0.41999999    2.57999992
   12.45555496  184.12600708    0.41999999    2.57999992
   12.45861053  166.57800293    0.41999999    2.57999992
   12.46194458  185.80099487    0.41999999    2.57999992
   12.46527767  176.95300293    0.41999999    2.57999992
   12.46833324  199.18200684    0.41999999    2.59999990
   12.46944427  217.50199890    0.41999999    2.59999990
   12.47194386  232.97700500    0.41999999    2.57999992
   12.47527695  178.95700073    0.41999999    2.57999992
   12.47861099  216.03900146    0.41999999    2.57999992
   12.48444462  216.03900146    0.41999999    2.59999990
   12.48861122  237.26899719    0.41999999    2.59999990
   12.49194431  221.47500610    0.41999999    2.59999990
   12.49499989  235.89700317    0.41999999    2.59999990
   12.49833393  237.71099854    0.41999999    2.59999990
   12.50166702  212.27699280    0.41999999    2.59999990
   12.50277805  247.20100403    0.41999999    2.59999990
   12.50527763  261.30999756    0.40000001    2.59999990
   12.50861073  221.42799377    0.41999999    2.59999990
   12.51194477  289.65100098    0.41999999    2.59999990
   12.51500034  261.25698853    0.40000001    2.59999990
   12.51833344  243.48500061    0.41999999    2.59999990
   12.52138901  251.37100220    0.40000001    2.61999989
   12.52722168  251.37100220    0.40000001    2.59999990
   12.53138828  216.15100098    0.40000001    2.59999990
   12.53472233  233.42599487    0.40000001    2.61999989
   12.53611183  268.13699341    0.40000001    2.61999989
   12.53833389  233.47300720    0.40000001    2.59999990
   12.54166698  202.07499695    0.40000001    2.61999989
   12.54500008  233.64999390    0.40000001    2.61999989
   12.54805565  222.63000488    0.40000001    2.61999989
   12.55138874  196.88000488    0.40000001    2.61999989
   12.55444431  222.13400269    0.40000001    2.61999989
   12.55777836  271.17898560    0.40000001    2.59999990
   12.56111145  213.97099304    0.40000001    2.61999989
   12.56416702  223.75300598    0.40000001    2.59999990
   12.57027817  223.75300598    0.40000001    2.61999989
   12.57444477  226.15400696    0.40000001    2.61999989
   12.57750034  232.84399414    0.40000001    2.61999989
   12.58083344  210.15899658    0.40000001    2.61999989
   12.58388901  246.00300598    0.40000001    2.61999989
   12.58722210  209.68099976    0.40000001    2.61999989
   12.59055519  214.94900513    0.40000001    2.64000010
   12.59388828  241.73500061    0.40000001    2.61999989
   12.59694386  218.76100159    0.40000001    2.61999989
   12.60027790  214.64700317    0.40000001    2.61999989
   12.60277843  223.32000732    0.40000001    2.61999989
   12.60388947  232.73899841    0.38000000    2.61999989
   12.60722256  247.00500488    0.38000000    2.61999989
   12.61305618  247.00500488    0.38000000    2.61999989
   12.61722279  235.68800354    0.40000001    2.64000010
   12.62027836  231.81799316    0.38000000    2.64000010
   12.62361145  213.68499756    0.38000000    2.61999989
   12.62694454  224.61500549    0.38000000    2.61999989
   12.63000011  220.12199402    0.38000000    2.64000010
   12.63333321  221.31700134    0.38000000    2.64000010
   12.63611126  227.52000427    0.38000000    2.64000010
   12.63694477  237.96600342    0.38000000    2.64000010
   12.64027786  247.28799438    0.38000000    2.61999989
   12.64361095  237.12899780    0.38000000    2.64000010
   12.64666653  227.17700195    0.38000000    2.64000010
   12.64999962  218.35899353    0.40000001    2.64000010
   12.65583324  218.35899353    0.38000000    2.61999989
   12.65999985  213.26800537    0.38000000    2.64000010
   12.66333294  228.21600342    0.38000000    2.64000010
   12.66638851  214.96699524    0.38000000    2.64000010
   12.66944504  239.54800415    0.38000000    2.61999989
   12.67027855  243.08299255    0.38000000    2.61999989
   12.67361164  225.39900208    0.38000000    2.64000010
   12.67666721  234.92700195    0.38000000    2.64000010
   12.68000031  226.41700745    0.38000000    2.64000010
   12.68305588  220.32299805    0.38000000    2.64000010
   12.68638897  207.78900146    0.38000000    2.64000010
   12.68972206  225.21000671    0.38000000    2.64000010
   12.69277763  216.58700562    0.38000000    2.64000010
   12.69861126  216.58700562    0.38000000    2.64000010
   12.70277786  201.52400208    0.38000000    2.64000010
   12.70611095  220.55900574    0.38000000    2.64000010
   12.70944405  208.14700317    0.38000000    2.64000010
   12.71249962  210.37899780    0.38000000    2.64000010
   12.71583271  205.09700012    0.38000000    2.64000010
   12.71888828  213.45100403    0.38000000    2.66000009
   12.72222137  193.61999512    0.38000000    2.64000010
   12.72555542  182.98300171    0.38000000    2.64000010
   12.72861099  199.28300476    0.36000001    2.66000009
   12.73194408  206.54200745    0.38000000    2.64000010
   12.73527813  213.67199707    0.36000001    2.66000009
   12.73611164  213.92799377    0.36000001    2.66000009
   12.75666714  213.92799377    0.36000001    2.66000009
   12.76083374  203.46600342    0.36000001    2.66000009
   12.76416683  209.55400085    0.36000001    2.66000009
   12.76749992  208.46899414    0.38000000    2.67000008
   12.76944447  215.03500366    0.38000000    2.66000009
   12.77111053  222.37699890    0.38000000    2.66000009
   12.77416611  228.25000000    0.36000001    2.66000009
   12.77750015  212.46600342    0.36000001    2.66000009
   12.78055573  199.17399597    0.38000000    2.66000009
   12.78388977  204.34899902    0.38000000    2.66000009
   12.78722286  195.25700378    0.36000001    2.66000009
   12.79027843  210.36700439    0.36000001    2.66000009
   12.79361153  209.97999573    0.36000001    2.66000009
   12.79944515  209.97999573    0.36000001    2.66000009
   12.80361176  185.55900574    0.38000000    2.66000009
   12.80694485  199.53900146    0.36000001    2.66000009
   12.81000042  215.68299866    0.36000001    2.66000009
   12.81333351  201.92999268    0.36000001    2.66000009
   12.81666660  198.62600708    0.36000001    2.66000009
   12.81972218  215.27900696    0.36000001    2.66000009
   12.82305527  213.10400391    0.36000001    2.66000009
   12.82638836  215.84399414    0.36000001    2.67000008
   12.82944393  198.52999878    0.36000001    2.67000008
   12.83277798  210.18800354    0.36000001    2.67000008
   12.83583260  225.74699402    0.36000001    2.67000008
   12.83638859  211.83700562    0.36000001    2.67000008
   12.84249973  211.83700562    0.38000000    2.67000008
   12.84638882  227.70199585    0.36000001    2.67000008
   12.84972191  230.88200378    0.36000001    2.67000008
   12.85305595  192.37800598    0.36000001    2.67000008
   12.85611153  193.74899292    0.36000001    2.67000008
   12.85944462  213.66499329    0.36000001    2.66000009
   12.86277771  220.73399353    0.36000001    2.67000008
   12.86583328  217.72500610    0.36000001    2.67000008
   12.86916637  234.24699402    0.38000000    2.67000008
   12.86972237  190.78799438    0.38000000    2.67000008
   12.87277794  209.52699280    0.36000001    2.67000008
   12.87611103  188.27499390    0.36000001    2.67000008
   12.87916660  214.30599976    0.36000001    2.67000008
   12.88527775  214.30599976    0.36000001    2.69000006
   12.88944435  199.04800415    0.36000001    2.67000008
   12.89249992  213.86399841    0.34000000    2.67000008
   12.89583302  219.33999634    0.34000000    2.67000008
   12.89888859  195.59899902    0.36000001    2.67000008
   12.90222168  215.88699341    0.36000001    2.69000006
   12.90305519  195.57899475    0.36000001    2.69000006
   12.90583324  213.13499451    0.34000000    2.69000006
   12.90916634  208.72399902    0.36000001    2.67000008
   12.91222191  216.87600708    0.36000001    2.67000008
   12.91555500  196.67500305    0.34000000    2.67000008
   12.91888905  189.62199402    0.34000000    2.67000008
   12.92194462  220.21800232    0.34000000    2.67000008
   12.92805576  220.21800232    0.34000000    2.67000008
   12.93222237  193.39700317    0.34000000    2.67000008
   12.93527794  212.07299805    0.34000000    2.67000008
   12.93638897  204.25799561    0.34000000    2.67000008
   12.93888855  222.17999268    0.34000000    2.69000006
   12.94222260  201.63499451    0.34000000    2.67000008
   12.94527817  218.77000427    0.36000001    2.69000006
   12.94861126  237.52600098    0.34000000    2.69000006
   12.95194435  216.32200623    0.34000000    2.69000006
   12.95499992  211.42300415    0.34000000    2.69000006
   12.95833302  189.25399780    0.36000001    2.69000006
   12.96138859  208.29100037    0.34000000    2.69000006
   12.96472168  221.64500427    0.36000001    2.69000006
   12.97083282  221.64500427    0.34000000    2.69000006
   12.97499943  211.78500366    0.36000001    2.69000006
   12.97833252  201.58399963    0.36000001    2.69000006
   12.98138809  182.26199341    0.36000001    2.69000006
   12.98472214  213.85299683    0.34000000    2.69000006
   12.98777771  202.29100037    0.36000001    2.69000006
   12.99111176  191.19999695    0.36000001    2.69000006
   12.99444485  219.11700439    0.36000001    2.69000006
   12.99750042  188.17799377    0.34000000    2.71000004
   13.00083351  205.50799561    0.34000000    2.69000006
   13.00305557  218.53100586    0.34000000    2.69000006
   13.00444412  197.75900269    0.36000001    2.69000006
   13.00777817  195.13200378    0.34000000    2.69000006
   13.01361084  195.13200378    0.34000000    2.69000006
   13.01777744  204.77799988    0.34000000    2.69000006
   13.02111053  199.55799866    0.34000000    2.69000006
   13.02444458  215.90699768    0.34000000    2.69000006
   13.02750015  199.63400269    0.34000000    2.69000006
   13.03083324  197.01600647    0.34000000    2.69000006
   13.03388977  197.17199707    0.36000001    2.69000006
   13.03638935  184.32000732    0.34000000    2.69000006
   13.03750038  191.80799866    0.34000000    2.69000006
   13.04083347  200.34199524    0.34000000    2.69000006
   13.04388905  218.97599792    0.34000000    2.69000006
   13.04722309  188.24899292    0.36000001    2.69000006
   13.05055618  205.85800171    0.36000001    2.69000006
   13.05666733  205.85800171    0.34000000    2.71000004
   13.06083393  194.37199402    0.34000000    2.69000006
   13.06388950  197.18299866    0.34000000    2.69000006
   13.06722260  195.50199890    0.34000000    2.71000004
   13.06972218  200.51499939    0.34000000    2.71000004
   13.07083321  182.23800659    0.34000000    2.71000004
   13.07416630  195.62500000    0.34000000    2.69000006
   13.07722187  186.13499451    0.34000000    2.71000004
   13.08055592  200.44500732    0.34000000    2.71000004
   13.08388901  187.14700317    0.34000000    2.69000006
   13.08694458  191.70100403    0.34000000    2.71000004
   13.09027767  200.76300049    0.34000000    2.71000004
   13.09361076  198.05900574    0.34000000    2.69000006
   13.09944439  198.05900574    0.34000000    2.71000004
   13.10361195  203.69299316    0.34000000    2.71000004
   13.10694504  167.10400391    0.34000000    2.71000004
   13.11000061  189.99499512    0.34000000    2.71000004
   13.11333370  184.64700317    0.34000000    2.71000004
   13.11638927  192.12500000    0.36000001    2.71000004
   13.11972237  186.32099915    0.36000001    2.71000004
   13.12305546  207.22099304    0.36000001    2.71000004
   13.12611103  183.17999268    0.36000001    2.71000004
   13.12944412  178.34199524    0.36000001    2.71000004
   13.13249969  183.58299255    0.36000001    2.71000004
   13.13583279  176.31799316    0.38000000    2.71000004
   13.13638878  182.22599792    0.40000001    2.73000002
   13.14222240  182.22599792    0.38000000    2.71000004
   13.14638901  180.10499573    0.40000001    2.71000004
   13.14972210  182.79299927    0.40000001    2.71000004
   13.15277767  196.51100159    0.40000001    2.71000004
   13.15611076  179.10099792    0.38000000    2.71000004
   13.15916634  189.07400513    0.36000001    2.71000004
   13.16249943  186.88200378    0.38000000    2.71000004
   13.16583252  176.07200623    0.38000000    2.71000004
   13.16888905  189.97700500    0.38000000    2.71000004
   13.16972256  183.02699280    0.38000000    2.71000004
   13.17250061  183.01400757    0.36000001    2.71000004
   13.17583370  184.57400513    0.36000001    2.71000004
   13.17888927  181.95399475    0.36000001    2.71000004
   13.18500042  181.95399475    0.36000001    2.71000004
   13.18916702  183.48100281    0.38000000    2.71000004
   13.19250011  180.73500061    0.36000001    2.73000002
   13.19583321  172.59100342    0.36000001    2.71000004
   13.19888878  184.69200134    0.36000001    2.71000004
   13.20222187  177.01499939    0.36000001    2.71000004
   13.20333290  178.67500305    0.36000001    2.71000004
   13.20583344  180.63099670    0.36000001    2.73000002
   13.20916653  174.57499695    0.36000001    2.71000004
   13.21222210  173.73100281    0.36000001    2.73000002
   13.21555519  186.19900513    0.36000001    2.73000002
   13.21888828  192.64999390    0.38000000    2.73000002
   13.22194386  170.83900452    0.38000000    2.73000002
   13.22805500  170.83900452    0.40000001    2.75000000
   13.23222160  167.70700073    0.40000001    2.75000000
   13.23527813  175.47200012    0.40000001    2.73000002
   13.23666668  186.00799561    0.40000001    2.73000002
   13.23888874  177.05499268    0.40000001    2.73000002
   13.24222279  178.67799377    0.40000001    2.73000002
   13.24527836  188.71499634    0.41999999    2.73000002
   13.24861145  216.78300476    0.41999999    2.73000002
   13.25194454  204.67300415    0.41999999    2.73000002
   13.25527763  234.98500061    0.41999999    2.73000002
   13.25833321  218.96200562    0.41999999    2.73000002
   13.26166630  246.77699280    0.41999999    2.73000002
   13.26500034  251.62300110    0.41999999    2.73000002
   13.27083302  251.62300110    0.40000001    2.73000002
   13.27499962  210.03999329    0.40000001    2.73000002
   13.27805519  239.08000183    0.40000001    2.73000002
   13.28138828  159.94200134    0.40000001    2.75000000
   13.28472233  218.19099426    0.40000001    2.75000000
   13.28777790  218.30999756    0.40000001    2.73000002
   13.29111195  219.08999634    0.40000001    2.73000002
   13.29444504  220.75399780    0.40000001    2.73000002
   13.29750061  205.43099976    0.40000001    2.73000002
   13.30083370  210.90800476    0.38000000    2.73000002
   13.30333328  227.05099487    0.40000001    2.73000002
   13.30444431  230.76199341    0.40000001    2.73000002
   13.30777836  210.82800293    0.40000001    2.73000002
   13.31361103  210.82800293    0.40000001    2.73000002
   13.31777763  201.38800049    0.38000000    2.75000000
   13.32111073  201.29899597    0.40000001    2.75000000
   13.32416630  198.81500244    0.40000001    2.73000002
   13.32750034  195.42799377    0.40000001    2.75000000
   13.33083344  191.06199646    0.40000001    2.75000000
   13.33388901  183.59800720    0.40000001    2.73000002
   13.33666611  183.05499268    0.41999999    2.73000002
   13.33749962  193.01499939    0.41999999    2.73000002
   13.34083271  187.69700623    0.41999999    2.73000002
   13.34416676  195.06500244    0.40000001    2.73000002
   13.34722233  195.83500671    0.41999999    2.73000002
   13.35055637  190.93200684    0.41999999    2.73000002
   13.35638905  190.93200684    0.41999999    2.73000002
   13.36055565  186.50100708    0.41999999    2.75000000
   13.36388969  177.32000732    0.41999999    2.73000002
   13.36722279  170.92799377    0.40000001    2.75000000
   13.36999989  188.94299316    0.40000001    2.75000000
   13.37055588  182.24800110    0.41999999    2.75000000
   13.37388897  180.11399841    0.41999999    2.75000000
   13.37722206  191.41200256    0.40000001    2.75000000
   13.38027763  185.17100525    0.41999999    2.75000000
   13.38361073  182.22900391    0.41999999    2.75000000
   13.38666630  178.90299988    0.41999999    2.75000000
   13.39000034  183.34199524    0.41999999    2.73000002
   13.39333344  187.81599426    0.41999999    2.73000002
   13.39944458  187.81599426    0.41999999    2.75000000
   13.40361118  179.38600159    0.41999999    2.75000000
   13.40666676  203.31700134    0.41999999    2.75000000
   13.40999985  185.87500000    0.41999999    2.75000000
   13.41333294  199.89700317    0.41999999    2.75000000
   13.41638851  202.84500122    0.40000001    2.75000000
   13.41972256  199.16700745    0.40000001    2.75000000
   13.42277813  217.21099854    0.40000001    2.75000000
   13.42611122  187.11000061    0.41999999    2.73000002
   13.42944431  201.57299805    0.40000001    2.75000000
   13.43249989  194.69599915    0.40000001    2.75000000
   13.43583298  193.07800293    0.40000001    2.73000002
   13.43666649  190.38400269    0.40000001    2.73000002
   13.44222260  190.38400269    0.40000001    2.75000000
   13.44638920  187.03500366    0.38000000    2.75000000
   13.44944477  205.52000427    0.38000000    2.75000000
   13.45277786  200.74699402    0.38000000    2.75000000
   13.45611095  189.74400330    0.36000001    2.75000000
   13.45916653  183.61000061    0.36000001    2.75000000
   13.46249962  192.94200134    0.36000001    2.75000000
   13.46583271  193.92100525    0.36000001    2.75000000
   13.46888828  203.72799683    0.38000000    2.75000000
   13.46999931  201.83999634    0.36000001    2.75000000
   13.47277737  204.55099487    0.36000001    2.75000000
   13.47611046  192.61000061    0.36000001    2.75000000
   13.47916603  185.26800537    0.36000001    2.75000000
   13.48500061  185.26800537    0.38000000    2.75000000
   13.48916721  210.62899780    0.36000001    2.75000000
   13.49250031  191.00999451    0.38000000    2.75000000
   13.49555588  181.37800598    0.36000001    2.75000000
   13.49888897  211.45899963    0.38000000    2.75000000
   13.50222206  197.03599548    0.38000000    2.75000000
   13.50333309  213.45500183    0.36000001    2.75000000
   13.50555515  197.25500488    0.36000001    2.75000000
   13.50888920  186.73800659    0.36000001    2.75000000
   13.51222229  188.26400757    0.36000001    2.76999998
   13.51527786  197.97700500    0.36000001    2.75000000
   13.51861095  189.33399963    0.36000001    2.75000000
   13.52194405  196.26199341    0.36000001    2.75000000
   13.52777767  196.26199341    0.36000001    2.75000000
   13.53194427  211.13200378    0.38000000    2.75000000
   13.53527832  191.25900269    0.36000001    2.75000000
   13.53666687  199.21699524    0.36000001    2.75000000
   13.53888893  189.31799316    0.36000001    2.75000000
   13.54222298  196.68699646    0.36000001    2.75000000
   13.54555607  176.09599304    0.36000001    2.76999998
   13.54861164  184.35200500    0.36000001    2.76999998
   13.55194473  192.97399902    0.36000001    2.75000000
   13.55527782  205.46200562    0.34000000    2.76999998
   13.55833340  207.65199280    0.34000000    2.76999998
   13.56166649  202.79400635    0.34000000    2.76999998
   13.56472206  193.35299683    0.34000000    2.76999998
   13.57083321  193.35299683    0.34000000    2.75000000
   13.57499981  212.64199829    0.34000000    2.75000000
   13.57805538  202.04899597    0.34000000    2.76999998
   13.58138847  210.64199829    0.34000000    2.76999998
   13.58444405  181.68899536    0.34000000    2.76999998
   13.58777714  203.04299927    0.34000000    2.76999998
   13.59111118  187.60800171    0.34000000    2.76999998
   13.59416676  194.63699341    0.34000000    2.76999998
   13.59749985  216.09100342    0.34000000    2.76999998
   13.60083389  193.47399902    0.34000000    2.75000000
   13.60333347  196.03700256    0.34000000    2.76999998
   13.60416698  191.85499573    0.34000000    2.76999998
   13.60750008  190.13900757    0.34000000    2.76999998
   13.61361122  190.13900757    0.34000000    2.76999998
   13.61777782  182.37699890    0.34000000    2.76999998
   13.62111092  194.22999573    0.34000000    2.76999998
   13.62416649  178.09700012    0.34000000    2.76999998
   13.62750053  196.49000549    0.34000000    2.75000000
   13.63055611  191.72799683    0.34000000    2.76999998
   13.63388920  194.83299255    0.34000000    2.76999998
   13.63666630  189.97999573    0.31999999    2.76999998
   13.63749981  154.60899353    0.31999999    2.76999998
   13.64083290  180.34199524    0.34000000    2.76999998
   13.64416695  186.15299988    0.31999999    2.76999998
   13.64722252  207.22500610    0.31999999    2.76999998
   13.65055561  183.21699524    0.31999999    2.76999998
   13.65638828  183.21699524    0.31999999    2.76999998
   13.66055489  185.30299377    0.34000000    2.76999998
   13.66388893  191.13499451    0.31999999    2.76999998
   13.66694450  183.55000305    0.34000000    2.78999996
   13.67000008  185.87199402    0.34000000    2.75000000
   13.67055607  187.23100281    0.31999999    2.76999998
   13.67388916  186.50199890    0.34000000    2.76999998
   13.67722225  188.26100159    0.31999999    2.76999998
   13.68027782  195.43800354    0.31999999    2.76999998
   13.68361092  179.92700195    0.31999999    2.76999998
   13.68694496  203.79800415    0.34000000    2.76999998
   13.69000053  178.63000488    0.31999999    2.76999998
   13.69333363  196.32899475    0.31999999    2.78999996
   13.69916630  196.32899475    0.31999999    2.78999996
   13.70333290  185.41900635    0.31999999    2.76999998
   13.70666695  188.80400085    0.30000001    2.76999998
   13.70972157  188.56100464    0.30000001    2.76999998
   13.71305561  201.93800354    0.30000001    2.76999998
   13.71638870  187.12500000    0.30000001    2.76999998
   13.71944427  187.44999695    0.30000001    2.76999998
   13.72277737  184.25700378    0.30000001    2.76999998
   13.72611046  190.17799377    0.30000001    2.76999998
   13.72916603  207.45700073    0.30000001    2.78999996
   13.73249912  176.97799683    0.30000001    2.78999996
   13.73555565  195.55000305    0.30000001    2.78999996
   13.73666668  187.34199524    0.30000001    2.78999996
   13.74222279  187.34199524    0.30000001    2.76999998
   13.74611092  182.65600586    0.30000001    2.76999998
   13.74944496  214.73599243    0.30000001    2.78999996
   13.75277805  185.99200439    0.30000001    2.78999996
   13.77027798  184.76100159    0.30000001    2.78999996
   13.77277756  183.31199646    0.30000001    2.78999996
   13.77583313  172.22500610    0.30000001    2.76999998
   13.77916622  185.41200256    0.30000001    2.76999998
   13.78500080  185.41200256    0.28000000    2.78999996
   13.78916740  179.20599365    0.28000000    2.78999996
   13.79250050  194.58799744    0.28000000    2.76999998
   13.79583359  199.61199951    0.28000000    2.76999998
   13.79888916  191.94599915    0.28000000    2.78999996
   13.80222225  187.55000305    0.30000001    2.78999996
   13.80361176  201.95399475    0.28000000    2.78999996
   13.80583382  189.79400635    0.30000001    2.78999996
   13.80916691  202.30400085    0.30000001    2.78999996
   13.81250000  186.32600403    0.28000000    2.78999996
   13.81555557  199.80099487    0.28000000    2.78999996
   13.81888866  185.79699707    0.28000000    2.78999996
   13.82222176  191.85299683    0.30000001    2.78999996
   13.82805538  191.85299683    0.28000000    2.78999996
   13.83222198  182.65800476    0.28000000    2.78999996
   13.83527756  199.98399353    0.28000000    2.78999996
   13.83694458  215.62899780    0.28000000    2.78999996
   13.83888817  178.66200256    0.28000000    2.78999996
   13.84222221  183.96400452    0.28000000    2.78999996
   13.84555531  198.28599548    0.28000000    2.78999996
   13.84861088  179.33999634    0.28000000    2.78999996
   13.85194492  188.67500305    0.28000000    2.78999996
   13.85527802  196.50199890    0.28000000    2.78999996
   13.85861111  193.88000488    0.28000000    2.78999996
   13.86166668  188.02600098    0.28000000    2.78999996
   13.86500072  188.27000427    0.28000000    2.78999996
   13.87083340  188.27000427    0.28000000    2.78999996
   13.87500000  183.90800476    0.28000000    2.78999996
   13.87805557  170.50599670    0.28000000    2.78999996
   13.88138866  183.30999756    0.28000000    2.76999998
   13.88472176  187.42399597    0.28000000    2.78999996
   13.88777733  178.92999268    0.28000000    2.78999996
   13.89111137  201.27499390    0.28000000    2.78999996
   13.89416695  177.59800720    0.28000000    2.78999996
   13.89750004  176.99400330    0.28000000    2.78999996
   13.90083313  196.55999756    0.25999999    2.78999996
   13.90361118  179.18499756    0.28000000    2.78999996
   13.90416622  186.38499451    0.28000000    2.78999996
   13.90749931  180.38600159    0.28000000    2.78999996
   13.91361046  180.38600159    0.28000000    2.78999996
   13.91777802  197.75900269    0.25999999    2.78999996
   13.92111111  182.66499329    0.25999999    2.78999996
   13.92416668  185.45199585    0.25999999    2.78999996
   13.92750072  204.71299744    0.28000000    2.78999996
   13.93083382  161.94400024    0.25999999    2.78999996
   13.93388939  170.32400513    0.25999999    2.78999996
   13.93694496  188.65499878    0.25999999    2.78999996
   13.93777752  186.13000488    0.25999999    2.78999996
   13.94083309  206.74000549    0.25999999    2.80999994
   13.94416714  173.71200562    0.25999999    2.80999994
   13.94722271  204.21800232    0.28000000    2.78999996
   13.95055580  173.49400330    0.25999999    2.78999996
   13.95638847  173.49400330    0.25999999    2.78999996
   13.96055508  163.88000488    0.25999999    2.80999994
   13.96388912  171.78300476    0.25999999    2.80999994
   13.96722221  191.33000183    0.25999999    2.78999996
   13.97027779  180.53599548    0.25999999    2.78999996
   13.97055531  165.31900024    0.28000000    2.80999994
   13.97388840  154.43200684    0.25999999    2.80999994
   13.97722149  169.83799744    0.25999999    2.78999996
   13.98027706  174.78500366    0.25999999    2.78999996
   13.98361111  171.16700745    0.25999999    2.80999994
   13.98666668  166.88400269    0.25999999    2.80999994
   13.99000072  191.59399414    0.25999999    2.80999994
   13.99333382  189.38400269    0.25999999    2.80999994
   13.99944496  189.38400269    0.28000000    2.78999996
   14.00361156  191.92799377    0.28000000    2.80999994
   14.00388908  190.22000122    0.28000000    2.80999994
   14.00722218  186.38699341    0.28000000    2.80999994
   14.01055527  188.58799744    0.25999999    2.80999994
   14.01361084  185.04299927    0.25999999    2.80999994
   14.01694393  175.60699463    0.28000000    2.78999996
   14.02027798  181.11099243    0.28000000    2.80999994
   14.02361107  179.84899902    0.28000000    2.80999994
   14.02666664  175.70700073    0.25999999    2.80999994
   14.02999973  175.26899719    0.25999999    2.80999994
   14.03333378  188.92599487    0.25999999    2.78999996
   14.03638935  174.80400085    0.25999999    2.80999994
   14.03694534  183.51499939    0.25999999    2.80999994
   14.04222298  183.51499939    0.28000000    2.80999994
   14.04638958  177.96400452    0.25999999    2.80999994
   14.04972267  177.99600220    0.28000000    2.80999994
   14.05277824  174.38499451    0.25999999    2.80999994
   14.05611134  182.79899597    0.25999999    2.80999994
   14.05916691  174.26800537    0.28000000    2.80999994
   14.06250000  175.30799866    0.25999999    2.80999994
   14.06583309  188.73100281    0.25999999    2.80999994
   14.06888866  180.72999573    0.25999999    2.80999994
   14.07027817  177.05099487    0.25999999    2.80999994
   14.07277775  184.47399902    0.25999999    2.82999992
   14.07583332  172.09899902    0.25999999    2.80999994
   14.07916641  188.37500000    0.25999999    2.80999994
   14.08500004  188.37500000    0.25999999    2.80999994
   14.08916664  166.79800415    0.25999999    2.80999994
   14.09249973  167.46899414    0.25999999    2.80999994
   14.09555531  175.81900024    0.25999999    2.80999994
   14.09888840  168.63299561    0.25999999    2.80999994
   14.10222244  164.51499939    0.25999999    2.80999994
   14.10361195  170.00700378    0.25999999    2.80999994
   14.10583401  167.47599792    0.25999999    2.80999994
   14.10888958  172.51400757    0.25999999    2.80999994
   14.11222267  158.42199707    0.25999999    2.80999994
   14.11555576  163.16400146    0.25999999    2.80999994
   14.11861134  173.53900146    0.25999999    2.82999992
   14.12194443  169.48899841    0.25999999    2.80999994
   14.12777805  169.48899841    0.25999999    2.80999994
   14.13222218  167.48399353    0.25999999    2.80999994
   14.13527775  162.55599976    0.25999999    2.80999994
   14.13694477  172.65600586    0.25999999    2.80999994
   14.13916683  179.90800476    0.25999999    2.80999994
   14.14222240  171.68200684    0.25999999    2.82999992
   14.14555550  164.59199524    0.25999999    2.80999994
   14.14888859  174.10000610    0.25999999    2.80999994
   14.15194416  184.29200745    0.25999999    2.80999994
   14.15527725  179.58200073    0.25999999    2.80999994
   14.15861034  163.61999512    0.25999999    2.80999994
   14.16166592  169.88999939    0.25999999    2.82999992
   14.16499996  154.63900757    0.25999999    2.82999992
   14.17083359  154.63900757    0.25999999    2.82999992
   14.17500019  171.07000732    0.25999999    2.80999994
   14.17805576  164.78599548    0.25999999    2.80999994
   14.18138885  167.13999939    0.25999999    2.80999994
   14.18444443  163.54299927    0.25999999    2.82999992
   14.18777752  156.30799866    0.25999999    2.80999994
   14.19111156  159.11199951    0.28000000    2.80999994
   14.19416714  163.63699341    0.30000001    2.82999992
   14.19750023  164.55999756    0.30000001    2.82999992
   14.20083332  159.51899719    0.30000001    2.80999994
   14.20361137  154.42700195    0.31999999    2.80999994
   14.20444393  168.09800720    0.31999999    2.80999994
   14.20749950  165.84500122    0.31999999    2.80999994
   14.21361065  165.84500122    0.31999999    2.82999992
   14.21777725  158.08900452    0.31999999    2.80999994
   14.22083282  167.23399353    0.30000001    2.82999992
   14.22416592  167.47999573    0.30000001    2.82999992
   14.22749996  167.69099426    0.30000001    2.82999992
   14.23055553  159.11799622    0.30000001    2.82999992
   14.23388958  157.29600525    0.30000001    2.80999994
   14.23694515  156.83399963    0.31999999    2.80999994
   14.23750019  164.44299316    0.31999999    2.80999994
   14.24055576  166.72799683    0.31999999    2.80999994
   14.24388885  163.23599243    0.31999999    2.82999992
   14.24722290  162.48100281    0.31999999    2.82999992
   14.25027752  162.60299683    0.31999999    2.80999994
   14.25638866  162.60299683    0.30000001    2.82999992
   14.26055527  170.19700623    0.30000001    2.82999992
   14.26388931  165.75500488    0.30000001    2.82999992
   14.26694393  181.37800598    0.30000001    2.82999992
   14.27027798  157.46499634    0.28000000    2.82999992
   14.27083302  157.02699280    0.28000000    2.82999992
   14.27388859  155.18600464    0.28000000    2.80999994
   14.27722168  157.66499329    0.28000000    2.82999992
   14.28055573  159.95100403    0.28000000    2.82999992
   14.28361130  158.58000183    0.28000000    2.82999992
   14.28694534  169.60600281    0.28000000    2.82999992
   14.29000092  169.26300049    0.25999999    2.82999992
   14.29333401  170.90400696    0.25999999    2.82999992
   14.29916668  170.90400696    0.25999999    2.82999992
   14.30333328  177.78300476    0.25999999    2.82999992
   14.30388927  176.32000732    0.28000000    2.82999992
   14.30722237  193.09399414    0.25999999    2.80999994
   14.31055546  157.86700439    0.25999999    2.82999992
   14.31361103  168.72099304    0.25999999    2.82999992
   14.31694412  176.50700378    0.25999999    2.82999992
   14.31999969  173.16499329    0.25999999    2.82999992
   14.32333374  173.66000366    0.28000000    2.82999992
   14.32666683  170.54499817    0.25999999    2.80999994
   14.32972240  174.12699890    0.25999999    2.82999992
   14.33305550  179.02000427    0.28000000    2.82999992
   14.33638859  178.21200562    0.28000000    2.82999992
   14.33722210  171.67500305    0.28000000    2.82999992
   14.34222221  171.67500305    0.28000000    2.82999992
   14.34638882  179.10800171    0.28000000    2.82999992
   14.34944439  177.98500061    0.28000000    2.82999992
   14.35277843  171.87300110    0.28000000    2.82999992
   14.35583401  172.03999329    0.28000000    2.82999992
   14.35916710  189.71499634    0.28000000    2.82999992
   14.36250019  171.26499939    0.28000000    2.82999992
   14.36583328  174.25199890    0.28000000    2.82999992
   14.36888885  188.55000305    0.28000000    2.82999992
   14.37055588  177.28399658    0.28000000    2.82999992
   14.37250042  177.08200073    0.30000001    2.82999992
   14.37555599  184.26800537    0.30000001    2.82999992
   14.37888908  166.35000610    0.30000001    2.82999992
   14.38500023  166.35000610    0.30000001    2.82999992
   14.38916683  164.87699890    0.30000001    2.82999992
   14.39222240  158.34199524    0.30000001    2.82999992
   14.39555550  162.17900085    0.30000001    2.82999992
   14.39888859  156.42700195    0.30000001    2.82999992
   14.40194416  168.35699463    0.30000001    2.82999992
   14.40388870  161.36300659    0.30000001    2.82999992
   14.40555477  165.50799561    0.30000001    2.82999992
   14.40861034  164.22000122    0.30000001    2.82999992
   14.41194439  159.73100281    0.31999999    2.82999992
   14.41527748  166.86099243    0.31999999    2.82999992
   14.41833401  160.98199463    0.30000001    2.82999992
   14.42166710  164.50100708    0.30000001    2.82999992
   14.42777824  164.50100708    0.30000001    2.82999992
   14.43194485  163.55900574    0.30000001    2.82999992
   14.43527794  152.87199402    0.30000001    2.84999990
   14.43722248  161.89500427    0.30000001    2.82999992
   14.43888855  162.91499329    0.30000001    2.82999992
   14.44222260  156.91299438    0.30000001    2.84999990
   14.44527817  154.24699402    0.30000001    2.82999992
   14.44861126  158.80799866    0.30000001    2.82999992
   14.45194435  165.81399536    0.30000001    2.84999990
   14.45499992  163.00000000    0.30000001    2.82999992
   14.45833302  170.08599854    0.30000001    2.84999990
   14.46138859  164.91799927    0.30000001    2.84999990
   14.46472168  163.47799683    0.30000001    2.84999990
   14.47055531  163.47799683    0.30000001    2.84999990
   14.47472191  172.22599792    0.28000000    2.84999990
   14.47805500  159.40600586    0.28000000    2.84999990
   14.48138809  168.33000183    0.28000000    2.82999992
   14.48444462  154.20199585    0.28000000    2.82999992
   14.48777771  159.99299622    0.28000000    2.84999990
   14.49111176  162.09899902    0.28000000    2.82999992
   14.49416733  168.88499451    0.30000001    2.82999992
   14.49750042  170.75999451    0.30000001    2.82999992
   14.50055599  152.46400452    0.28000000    2.84999990
   14.50388908  170.40199280    0.28000000    2.84999990
   14.50444412  160.00000000    0.28000000    2.82999992
   14.50777817  173.86900330    0.28000000    2.82999992
   14.51361084  173.86900330    0.30000001    2.82999992
   14.51777744  165.55299377    0.30000001    2.84999990
   14.52083302  167.67100525    0.30000001    2.84999990
   14.52416611  152.86799622    0.30000001    2.84999990
   14.52750015  171.26400757    0.30000001    2.84999990
   14.53055573  155.06900024    0.30000001    2.84999990
   14.53388977  163.30000305    0.30000001    2.82999992
   14.53694534  161.97000122    0.30000001    2.84999990
   14.53777790  156.35400391    0.30000001    2.84999990
   14.54083347  153.49299622    0.30000001    2.84999990
   14.54388905  168.24800110    0.30000001    2.84999990
   14.54722309  171.91000366    0.30000001    2.82999992
   14.55055618  167.05999756    0.30000001    2.84999990
   14.55638885  167.05999756    0.30000001    2.84999990
   14.56055546  167.05400085    0.30000001    2.84999990
   14.56361103  162.09700012    0.30000001    2.84999990
   14.56694412  161.78300476    0.30000001    2.84999990
   14.57027817  155.18699646    0.30000001    2.84999990
   14.57111073  159.52200317    0.30000001    2.84999990
   14.57388878  168.88000488    0.30000001    2.84999990
   14.57694435  163.73300171    0.30000001    2.82999992
   14.58027744  164.90199280    0.30000001    2.84999990
   14.58361053  160.33999634    0.30000001    2.84999990
   14.58666611  168.40699768    0.30000001    2.84999990
   14.59000015  168.81300354    0.30000001    2.84999990
   14.59333324  175.11799622    0.30000001    2.82999992
   14.59916592  175.11799622    0.30000001    2.82999992
   14.60333347  160.56700134    0.30000001    2.82999992
   14.60444450  163.34300232    0.30000001    2.82999992
   14.60694504  164.63900757    0.30000001    2.84999990
   14.61000061  161.67399597    0.30000001    2.84999990
   14.61333370  160.39599609    0.30000001    2.84999990
   14.61666679  181.88400269    0.30000001    2.84999990
   14.61972237  173.50799561    0.30000001    2.84999990
   14.62305546  165.54899597    0.30000001    2.84999990
   14.62611103  169.91200256    0.30000001    2.84999990
   14.62944412  169.76699829    0.30000001    2.84999990
   14.63277817  162.40600586    0.28000000    2.84999990
   14.63583279  161.58299255    0.28000000    2.86999989
   14.63777733  170.05999756    0.28000000    2.86999989
   14.64194393  170.05999756    0.30000001    2.84999990
   14.64611053  172.24400330    0.30000001    2.84999990
   14.64944458  159.12199402    0.28000000    2.84999990
   14.65277767  161.96800232    0.30000001    2.84999990
   14.65583324  162.49099731    0.28000000    2.84999990
   14.65916634  164.33500671    0.28000000    2.86999989
   14.66249943  171.27499390    0.28000000    2.84999990
   14.66555500  162.35099792    0.28000000    2.86999989
   14.66888905  159.11999512    0.28000000    2.84999990
   14.67111111  163.58900452    0.28000000    2.84999990
   14.67250061  170.85299683    0.30000001    2.86999989
   14.67555618  157.37399292    0.30000001    2.86999989
   14.67888927  164.14399719    0.30000001    2.84999990
   14.68500042  164.14399719    0.28000000    2.84999990
   14.68916702  167.30499268    0.28000000    2.84999990
   14.69222260  172.55099487    0.28000000    2.84999990
   14.69555569  165.81900024    0.28000000    2.84999990
   14.69888878  168.26400757    0.28000000    2.84999990
   14.70194435  167.20300293    0.28000000    2.84999990
   14.70444393  166.17500305    0.28000000    2.84999990
   14.70583344  167.74800110    0.28000000    2.84999990
   14.70888901  170.84300232    0.28000000    2.84999990
   14.71222210  167.95300293    0.28000000    2.84999990
   14.71527767  164.52099609    0.28000000    2.84999990
   14.71861076  170.37100220    0.28000000    2.84999990
   14.72194386  170.26400757    0.28000000    2.84999990
   14.72777748  170.26400757    0.25999999    2.84999990
   14.73194408  171.84899902    0.28000000    2.84999990
   14.73500061  165.26400757    0.28000000    2.84999990
   14.73777771  174.93299866    0.28000000    2.84999990
   14.73888874  170.56399536    0.25999999    2.84999990
   14.74194431  169.16900635    0.25999999    2.84999990
   14.74527836  165.72399902    0.25999999    2.84999990
   14.74833393  169.22900391    0.25999999    2.84999990
   14.75166702  164.75100708    0.25999999    2.84999990
   14.75500011  170.73100281    0.25999999    2.84999990
   14.75805569  161.62500000    0.25999999    2.84999990
   14.76138878  160.14100647    0.25999999    2.86999989
   14.76472187  161.67999268    0.25000000    2.84999990
   14.77055550  161.67999268    0.25999999    2.84999990
   14.78888893  166.41999817    0.25000000    2.84999990
   14.79222298  173.49200439    0.25000000    2.86999989
   14.79555607  168.09899902    0.25000000    2.86999989
   14.79861164  177.47599792    0.25999999    2.84999990
   14.80194473  176.50000000    0.25999999    2.84999990
   14.80500031  175.35400391    0.25000000    2.84999990
   14.80833340  170.55099487    0.25999999    2.84999990
   14.81361103  170.55099487    0.25000000    2.86999989
   14.81777763  162.82000732    0.25000000    2.84999990
   14.82111073  179.51499939    0.25000000    2.84999990
   14.82194424  165.08099365    0.25999999    2.84999990
   14.82472229  166.75799561    0.25999999    2.84999990
   14.82805538  166.06300354    0.25999999    2.86999989
   14.83111095  173.72500610    0.28000000    2.84999990
   14.83444405  164.06100464    0.25999999    2.86999989
   14.83749962  164.80799866    0.25999999    2.86999989
   14.84083271  166.69700623    0.25999999    2.84999990
   14.84416676  164.67500305    0.25999999    2.86999989
   14.84722233  159.02099609    0.25999999    2.86999989
   14.85055637  165.50000000    0.25000000    2.84999990
   14.85666752  165.50000000    0.25000000    2.84999990
   14.86055565  166.49899292    0.25000000    2.84999990
   14.86388969  164.27900696    0.25000000    2.84999990
   14.86722279  163.24099731    0.25000000    2.84999990
   14.87027836  176.88800049    0.25000000    2.86999989
   14.87361145  165.94299316    0.25000000    2.86999989
   14.87666702  164.34199524    0.25000000    2.86999989
   14.88000011  171.27200317    0.25000000    2.86999989
   14.88333321  161.32899475    0.25000000    2.86999989
   14.88638878  172.13900757    0.25000000    2.86999989
   14.88861084  158.95500183    0.25000000    2.86999989
   14.89000034  156.12800598    0.25999999    2.84999990
   14.89333344  154.46299744    0.25999999    2.84999990
   14.89944458  154.46299744    0.25000000    2.86999989
   14.90361118  167.07600403    0.25000000    2.86999989
   14.90666676  167.04899597    0.25000000    2.89000010
   14.90999985  167.28199768    0.25000000    2.86999989
   14.91333294  159.22799683    0.25000000    2.84999990
   14.91638851  162.29499817    0.25000000    2.86999989
   14.91972256  172.50199890    0.25000000    2.86999989
   14.92194462  159.48899841    0.25000000    2.86999989
   14.92333412  162.36000061    0.25000000    2.86999989
   14.92666721  165.23300171    0.25000000    2.86999989
   14.92972279  156.83299255    0.25000000    2.86999989
   14.93305588  159.93600464    0.25000000    2.84999990
   14.93611145  167.57400513    0.25000000    2.84999990
   14.94222260  167.57400513    0.25000000    2.86999989
   14.94638920  168.33700562    0.25000000    2.84999990
   14.94972229  169.81700134    0.23000000    2.86999989
   14.95277786  168.65400696    0.25000000    2.86999989
   14.95527744  169.41999817    0.25000000    2.86999989
   14.95638847  171.61199951    0.25000000    2.86999989
   14.95972157  169.76899719    0.25000000    2.86999989
   14.96277714  163.65600586    0.23000000    2.84999990
   14.96611118  158.88200378    0.25000000    2.86999989
   14.96944427  172.50300598    0.25000000    2.86999989
   14.97249985  165.53599548    0.25000000    2.86999989
   14.97583294  159.80400085    0.25000000    2.86999989
   14.97888851  176.38000488    0.25000000    2.86999989
   14.98500061  176.38000488    0.25000000    2.86999989
   14.98916721  163.27799988    0.25000000    2.84999990
   14.99250031  160.08200073    0.23000000    2.86999989
   14.99555588  153.92900085    0.23000000    2.86999989
   14.99888897  155.28199768    0.23000000    2.86999989
   15.00222206  169.93600464    0.25000000    2.84999990
   15.00527763  161.83799744    0.25000000    2.84999990
   15.00861073  162.63000488    0.25000000    2.86999989
   15.01166630  165.49200439    0.25000000    2.86999989
   15.01500034  150.73800659    0.25999999    2.86999989
   15.01833344  157.65800476    0.25000000    2.86999989
   15.02138901  161.47999573    0.25999999    2.86999989
   15.02194405  161.65699768    0.25999999    2.86999989
   15.02805519  161.65699768    0.25999999    2.86999989
   15.03194427  160.72599792    0.25999999    2.86999989
   15.03527832  160.67700195    0.28000000    2.86999989
   15.03861141  174.86000061    0.28000000    2.86999989
   15.04166698  161.26800537    0.28000000    2.86999989
   15.04500008  165.12199402    0.28000000    2.86999989
   15.04833412  147.64999390    0.28000000    2.86999989
   15.05138874  161.75700378    0.30000001    2.84999990
   15.05472279  164.38600159    0.30000001    2.86999989
   15.05527782  160.43800354    0.28000000    2.86999989
   15.05833340  157.18200684    0.28000000    2.84999990
   15.06166649  165.59700012    0.28000000    2.86999989
   15.06472206  166.18699646    0.28000000    2.86999989
   15.07083321  166.18699646    0.28000000    2.86999989
   15.07499981  162.86799622    0.28000000    2.86999989
   15.07805538  153.75300598    0.28000000    2.86999989
   15.08138847  156.11999512    0.30000001    2.84999990
   15.08444405  161.22099304    0.30000001    2.86999989
   15.08777714  166.15499878    0.30000001    2.86999989
   15.08861065  155.43200684    0.30000001    2.86999989
   15.09138870  155.69400024    0.30000001    2.84999990
   15.09472179  156.37100220    0.30000001    2.86999989
   15.09777737  162.30200195    0.30000001    2.86999989
   15.10111141  167.48500061    0.30000001    2.86999989
   15.10444450  161.33399963    0.30000001    2.86999989
   15.10750008  158.10299683    0.30000001    2.86999989
   15.11361122  158.10299683    0.30000001    2.86999989
   15.11777782  166.10800171    0.30000001    2.86999989
   15.12083340  170.97700500    0.30000001    2.86999989
   15.12194443  161.32899475    0.30000001    2.86999989
   15.12444496  164.96200562    0.28000000    2.86999989
   15.12777805  172.70300293    0.28000000    2.86999989
   15.13083363  167.08200073    0.25999999    2.86999989
   15.13416672  155.08700562    0.25999999    2.86999989
   15.13749981  157.25100708    0.25999999    2.86999989
   15.14055538  151.97900391    0.25999999    2.86999989
   15.14388847  175.13600159    0.25999999    2.86999989
   15.14694405  158.01800537    0.25999999    2.86999989
   15.15027714  162.37199402    0.25000000    2.89000010
   15.15638828  162.37199402    0.25000000    2.86999989
   15.16055489  151.23500061    0.25000000    2.86999989
   15.16388893  169.71200562    0.25000000    2.86999989
   15.16694450  155.82099915    0.25000000    2.89000010
   15.26972198   -1.00000000   -1.00000000   -1.00000000
   15.38916683   -1.00000000   -1.00000000   -1.00000000
   15.49194431   -1.00000000   -1.00000000   -1.00000000
   15.53055573  156.04200745    0.28000000    2.89000010
   15.53388977  145.55200195    0.28000000    2.89000010
   15.53722286  172.77699280    0.28000000    2.89000010
   15.54027843  166.27999878    0.28000000    2.89000010
   15.54361153  159.88900757    0.28000000    2.89000010
   15.54694462  165.12500000    0.28000000    2.89000010
   15.55111122  165.12500000    0.25999999    2.89000010
   15.55527782  161.50399780    0.25999999    2.89000010
   15.55833340  154.51499939    0.25999999    2.86999989
   15.56166649  153.01600647    0.25999999    2.89000010
   15.56388950  147.71800232    0.25999999    2.89000010
   15.56527805  162.70399475    0.25999999    2.89000010
   15.56833363  147.18400574    0.25999999    2.89000010
   15.57166672  147.77799988    0.25999999    2.89000010
   15.57499981  150.62100220    0.25999999    2.89000010
   15.57805538  141.78799438    0.25999999    2.89000010
   15.58138847  146.85200500    0.25999999    2.89000010
   15.58444405  147.61999512    0.25999999    2.89000010
   15.58777714  152.58200073    0.40000001    2.89000010
   15.59388828  152.58200073    0.40000001    2.86999989
   15.59805489  149.00000000    0.41999999    2.91000009
   15.60111141  144.15299988    0.41999999    2.89000010
   15.60444450  143.27299500    0.41999999    2.86999989
   15.60777855  146.17599487    0.38000000    2.89000010
   15.61083412  144.27999878    0.38000000    2.89000010
   15.61416721  150.85699463    0.34000000    2.89000010
   15.61722279  144.10699463    0.34000000    2.89000010
   15.62055588  156.54400635    0.31999999    2.89000010
   15.62388897  139.56100464    0.31999999    2.89000010
   15.62694454  150.46000671    0.31999999    2.89000010
   15.63027763  145.81900024    0.34000000    2.89000010
   15.63083363  157.20399475    0.34000000    2.89000010
   15.63666630  157.20399475    0.30000001    2.89000010
   15.64083290  155.41400146    0.30000001    2.89000010
   15.64416695  145.03999329    0.30000001    2.89000010
   15.64722252  144.80400085    0.30000001    2.89000010
   15.65055561  152.44700623    0.31999999    2.89000010
   15.65361118  146.91200256    0.31999999    2.89000010
   15.65694427  148.75399780    0.31999999    2.89000010
   15.66027737  142.04100037    0.31999999    2.89000010
   15.66333294  140.30499268    0.31999999    2.89000010
   15.66416645  144.62600708    0.31999999    2.89000010
   15.66722298  146.17900085    0.31999999    2.89000010
   15.67027855  139.08599854    0.30000001    2.89000010
   15.67361164  144.46099854    0.30000001    2.86999989
   15.67944431  144.46099854    0.30000001    2.89000010
   15.68361092  142.62199402    0.30000001    2.89000010
   15.68694496  154.80299377    0.30000001    2.89000010
   15.69000053  147.70700073    0.28000000    2.89000010
   15.69333363  156.27900696    0.28000000    2.89000010
   15.69666672  136.22300720    0.28000000    2.89000010
   15.69750023  154.20399475    0.28000000    2.91000009
   15.70027733  166.31900024    0.28000000    2.89000010
   15.70333290  155.03300476    0.28000000    2.89000010
   15.70666695  162.83900452    0.25999999    2.89000010
   15.70972157  172.71099854    0.25999999    2.89000010
   15.71305561  164.53399658    0.25999999    2.89000010
   15.71638870  172.42900085    0.28000000    2.89000010
   15.72249985  172.42900085    0.28000000    2.89000010
   15.72638798  162.82000732    0.25999999    2.89000010
   15.72972202  154.03500366    0.25999999    2.89000010
   15.73083305  183.55599976    0.25999999    2.89000010
   15.73361111  161.46499634    0.25999999    2.89000010
   15.73666668  178.34399414    0.25999999    2.91000009
   15.74000072  177.25000000    0.25999999    2.89000010
   15.74333382  171.85299683    0.25999999    2.89000010
   15.74638939  160.13900757    0.25999999    2.89000010
   15.74972248  144.50399780    0.25000000    2.89000010
   15.75277805  147.47500610    0.25000000    2.89000010
   15.75611115  156.48699951    0.25000000    2.89000010
   15.75944424  157.92199707    0.25000000    2.89000010
   15.76527786  157.92199707    0.25000000    2.89000010
   15.76944447  155.20100403    0.25000000    2.89000010
   15.77250004  145.82400513    0.25000000    2.89000010
   15.77583313  137.57600403    0.25000000    2.89000010
   15.77916622  151.05999756    0.25000000    2.89000010
   15.78222179  149.79600525    0.25000000    2.89000010
   15.78555584  150.10899353    0.25000000    2.89000010
   15.78888893  144.88900757    0.25000000    2.89000010
   15.79194450  135.32800293    0.25000000    2.89000010
   15.79527855  144.48899841    0.25000000    2.89000010
   15.79750061  153.75900269    0.25000000    2.89000010
   15.79888916  143.17900085    0.25000000    2.89000010
   15.80194473  141.78399658    0.23000000    2.89000010
   15.80805588  141.78399658    0.23000000    2.89000010
   15.81222248  141.54200745    0.23000000    2.89000010
   15.81555557  147.89100647    0.23000000    2.89000010
   15.81861115  149.73100281    0.23000000    2.89000010
   15.82194424  156.11099243    0.23000000    2.89000010
   15.82499981  146.48599243    0.23000000    2.89000010
   15.82833290  158.96800232    0.23000000    2.89000010
   15.83083344  139.65600586    0.23000000    2.89000010
   15.83222198  143.48699951    0.25000000    2.89000010
   15.83527756  145.11599731    0.25000000    2.89000010
   15.83861065  143.35899353    0.23000000    2.89000010
   15.84166622  151.85800171    0.23000000    2.91000009
   15.84499931  149.41400146    0.23000000    2.91000009
   15.85083389  149.41400146    0.23000000    2.89000010
   15.85500050  135.46000671    0.25000000    2.91000009
   15.85833359  147.79600525    0.25000000    2.89000010
   15.86138916  140.49899292    0.25000000    2.89000010
   15.86416721  141.77600098    0.25999999    2.89000010
   15.86527824  147.93200684    0.25999999    2.89000010
   15.86861134  146.76199341    0.28000000    2.89000010
   15.87194443  145.77000427    0.28000000    2.91000009
   15.87500000  144.76199341    0.30000001    2.89000010
   15.87833309  139.39300537    0.30000001    2.89000010
   15.88138866  148.09800720    0.31999999    2.91000009
   15.88472176  139.61799622    0.34000000    2.91000009
   15.88805580  147.25100708    0.38000000    2.89000010
   15.89388847  147.25100708    0.40000001    2.89000010
   15.89777756  136.20899963    0.40000001    2.89000010
   15.90111065  144.52200317    0.46000001    2.89000010
   15.90444374  137.77200317    0.46000001    2.89000010
   15.90749931  136.66900635    0.41999999    2.89000010
   15.91083336  140.31799316    0.40000001    2.89000010
   15.91416645  147.78500366    0.40000001    2.89000010
   15.91722298  148.60200500    0.38000000    2.91000009
   15.92055607  144.05700684    0.36000001    2.89000010
   15.92361164  149.69400024    0.36000001    2.89000010
   15.92694473  145.67199707    0.34000000    2.89000010
   15.93027782  146.04800415    0.34000000    2.89000010
   15.93083382  136.91299438    0.34000000    2.89000010
   15.93666649  136.91299438    0.28000000    2.89000010
   15.94083309  139.79299927    0.28000000    2.91000009
   15.94388866  158.13999939    0.28000000    2.91000009
   15.94722271  144.83599854    0.25000000    2.91000009
   15.95055580  144.32699585    0.25000000    2.89000010
   15.95361137  144.77999878    0.25000000    2.89000010
   15.95694447  142.54600525    0.25000000    2.89000010
   15.96027756  147.01899719    0.25000000    2.91000009
   15.96333313  147.34599304    0.25000000    2.89000010
   15.96416664  139.79299927    0.25000000    2.89000010
   15.96722221  145.84300232    0.25000000    2.89000010
   15.97027779  146.62300110    0.25000000    2.89000010
   15.97361088  149.33500671    0.25000000    2.89000010
   15.97944355  149.33500671    0.25000000    2.89000010
   15.98361111  145.26800537    0.25000000    2.89000010
   15.98694515  144.07400513    0.25000000    2.91000009
   15.99000072  139.83500671    0.25000000    2.89000010
   15.99333382  147.51800537    0.25999999    2.89000010
   15.99638939  146.17700195    0.25999999    2.91000009
   15.99750042  142.56700134    0.25999999    2.91000009
   16.00027847  153.85899353    0.25999999    2.91000009
   16.00333405  139.13499451    0.25999999    2.89000010
   16.00666618  156.87199402    0.25999999    2.91000009
   16.01000023  140.44999695    0.25999999    2.89000010
   16.01305580  143.32899475    0.25999999    2.89000010
   16.01638794  138.97099304    0.28000000    2.91000009
   16.02249908  138.97099304    0.30000001    2.89000010
   16.02666664  150.12600708    0.31999999    2.89000010
   16.02972221  136.74299622    0.31999999    2.89000010
   16.03083229  145.05000305    0.30000001    2.89000010
   16.03361130  137.81500244    0.30000001    2.89000010
   16.03694344  148.39599609    0.30000001    2.89000010
   16.03999901  147.86700439    0.31999999    2.91000009
   16.04333305  143.89300537    0.30000001    2.89000010
   16.04666710  137.22799683    0.28000000    2.89000010
   16.04972076  146.16299438    0.28000000    2.89000010
   16.05305481  140.65199280    0.28000000    2.91000009
   16.05611038  144.50599670    0.28000000    2.91000009
   16.05944443  147.63000488    0.28000000    2.91000009
   16.06527710  147.63000488    0.30000001    2.91000009
   16.06916809  150.82200623    0.30000001    2.89000010
   16.07250023  141.50500488    0.28000000    2.89000010
   16.07583427  140.35600281    0.28000000    2.91000009
   16.07888985  145.51800537    0.30000001    2.89000010
   16.08222389  153.04600525    0.30000001    2.89000010
   16.08555603  146.08000183    0.28000000    2.89000010
   16.08861160  141.44900513    0.28000000    2.89000010
   16.09194565  144.89700317    0.28000000    2.89000010
   16.09500122  140.55900574    0.28000000    2.89000010
   16.09749985  140.53799438    0.28000000    2.91000009
   16.09889030  150.41900635    0.25000000    2.89000010
   16.10194397  146.20300293    0.25000000    2.91000009
   16.10805511  146.20300293    0.25999999    2.89000010
   16.11222267  133.47999573    0.25000000    2.89000010
   16.11527824  132.75700378    0.25000000    2.89000010
   16.11861038  137.51699829    0.23000000    2.89000010
   16.12194443  138.62399292    0.25000000    2.89000010
   16.12500000  138.09500122    0.23000000    2.91000009
   16.12833405  139.25500488    0.23000000    2.89000010
   16.13083267  143.85200500    0.20999999    2.89000010
   16.13194466  148.26699829    0.20999999    2.89000010
   16.13500023  146.34199524    0.23000000    2.89000010
   16.13833237  141.32899475    0.23000000    2.91000009
   16.14166641  145.05599976    0.23000000    2.89000010
   16.14472198  143.02299500    0.23000000    2.89000010
   16.15083313  143.02299500    0.23000000    2.89000010
   16.15499878  137.87399292    0.23000000    2.89000010
   16.15833282  141.30099487    0.23000000    2.91000009
   16.16138840  138.55200195    0.23000000    2.91000009
   16.16416550  139.75799561    0.23000000    2.89000010
   16.16527748  138.31300354    0.23000000    2.89000010
   16.16833305  141.64199829    0.23000000    2.89000010
   16.17166519  139.02999878    0.23000000    2.89000010
   16.17499924  143.37800598    0.23000000    2.89000010
   16.17805481  143.30299377    0.23000000    2.89000010
   16.18138885  140.15899658    0.25000000    2.89000010
   16.18472099  139.39500427    0.23000000    2.89000010
   16.18777657  151.70399475    0.23000000    2.89000010
   16.19361115  151.70399475    0.25000000    2.89000010
   16.19777679  144.90100098    0.23000000    2.91000009
   16.20111275  145.74699402    0.23000000    2.89000010
   16.20444489  148.00999451    0.20999999    2.89000010
   16.20750046  147.03300476    0.20999999    2.89000010
   16.21083450  150.94799805    0.20999999    2.89000010
   16.21389008  151.16099548    0.23000000    2.89000010
   16.21722221  137.44900513    0.20999999    2.89000010
   16.22055626  142.66799927    0.20999999    2.89000010
   16.22361183  141.47700500    0.23000000    2.89000010
   16.22694588  139.98500061    0.23000000    2.89000010
   16.23027802  137.32299805    0.23000000    2.89000010
   16.23083305  138.19099426    0.23000000    2.89000010
   16.23666763  138.19099426    0.20999999    2.91000009
   16.24055672  156.07499695    0.23000000    2.89000010
   16.24388885  146.37399292    0.20999999    2.91000009
   16.24722290  152.59199524    0.20999999    2.91000009
   16.25027847  148.36500549    0.20999999    2.89000010
   16.25361061  151.81300354    0.20999999    2.89000010
   16.25694466  150.77299500    0.23000000    2.89000010
   16.26000023  131.59300232    0.20999999    2.91000009
   16.26333427  144.68800354    0.20999999    2.91000009
   16.26416588  143.58500671    0.23000000    2.89000010
   16.26694489  149.16900635    0.23000000    2.89000010
   16.27000046  140.59199524    0.23000000    2.89000010
   16.27333260  140.11099243    0.23000000    2.89000010
   16.27944374  140.11099243    0.23000000    2.93000007
   16.28361130  147.42999268    0.25000000    2.89000010
   16.28666687  147.50100708    0.25000000    2.91000009
   16.28999901  146.89100647    0.25999999    2.89000010
   16.29333305  139.91099548    0.25999999    2.89000010
   16.29638863  144.55200195    0.25999999    2.89000010
   16.29749870  140.22300720    0.28000000    2.91000009
   16.30027771  135.04699707    0.28000000    2.91000009
   16.30360985  144.39700317    0.28000000    2.91000009
   16.30666542  139.12800598    0.28000000    2.91000009
   16.30999947  137.83099365    0.30000001    2.91000009
   16.31305504  143.96699524    0.31999999    2.89000010
   16.31638718  147.09300232    0.31999999    2.89000010
   16.32222366  147.09300232    0.31999999    2.89000010
   16.32638931  149.42399597    0.31999999    2.89000010
   16.32972336  145.76300049    0.30000001    2.89000010
   16.33083344  141.64700317    0.30000001    2.91000009
   16.33333397  143.02000427    0.30000001    2.91000009
   16.33638954  152.28399658    0.30000001    2.91000009
   16.34000015  138.23800659    0.30000001    2.89000010
   16.34305573  137.06199646    0.28000000    2.89000010
   16.34638977  146.33399963    0.28000000    2.89000010
   16.34944534  144.92199707    0.28000000    2.89000010
   16.35277748  143.32200623    0.28000000    2.91000009
   16.35611153  142.89300537    0.30000001    2.91000009
   16.35916710  138.92500305    0.31999999    2.89000010
   16.36499977  138.92500305    0.30000001    2.89000010
   16.36916733  147.80799866    0.28000000    2.89000010
   16.37249947  145.00100708    0.25999999    2.91000009
   16.37583351  138.99400330    0.25999999    2.91000009
   16.37916756  142.95300293    0.25999999    2.89000010
   16.38222313  143.01600647    0.25999999    2.89000010
   16.38555527  138.10299683    0.25999999    2.89000010
   16.38888931  140.85899353    0.25999999    2.91000009
   16.39194489  140.45700073    0.25000000    2.89000010
   16.39527702  139.69200134    0.25999999    2.89000010
   16.39749908  142.86799622    0.25999999    2.89000010
   16.39888954  143.91900635    0.25999999    2.89000010
   16.40194321  139.53500366    0.25999999    2.91000009
   16.40805435  139.53500366    0.25999999    2.91000009
   16.41194344  145.24600220    0.25999999    2.89000010
   16.41527748  141.24899292    0.28000000    2.89000010
   16.41860962  137.83299255    0.30000001    2.89000010
   16.42166519  140.06100464    0.30000001    2.89000010
   16.42499924  139.05299377    0.28000000    2.91000009
   16.42805481  144.92300415    0.28000000    2.89000010
   16.43083191  146.15899658    0.28000000    2.91000009
   16.43194389  145.58399963    0.28000000    2.91000009
   16.43527603  137.72300720    0.28000000    2.89000010
   16.43833160  149.80200195    0.28000000    2.91000009
   16.44166565  139.01899719    0.28000000    2.91000009
   16.44472122  143.83299255    0.28000000    2.89000010
   16.45083427  143.83299255    0.25999999    2.89000010
   16.45499992  148.44299316    0.28000000    2.91000009
   16.45805550  140.63200378    0.28000000    2.91000009
   16.46138954  145.87300110    0.28000000    2.89000010
   16.46416664  136.42599487    0.25999999    2.89000010
   16.46500015  144.62100220    0.25999999    2.89000010
   16.46833420  146.38800049    0.28000000    2.89000010
   16.47138977  140.96499634    0.25999999    2.91000009
   16.47472191  144.80999756    0.25999999    2.91000009
   16.47805595  140.96200562    0.25999999    2.91000009
   16.48111153  143.07600403    0.25000000    2.91000009
   16.48444557  138.97399902    0.25000000    2.91000009
   16.48750114  151.16400146    0.25000000    2.89000010
   16.49361229  151.16400146    0.25000000    2.89000010
   16.49777794  146.27200317    0.25000000    2.91000009
   16.50083351  140.80999756    0.25000000    2.89000010
   16.50416756  143.61000061    0.25000000    2.91000009
   16.50749969  142.09399414    0.25000000    2.91000009
   16.51055527  136.66499329    0.25000000    2.89000010
   16.51388931  148.28300476    0.25000000    2.89000010
   16.51722145  144.13800049    0.25000000    2.91000009
   16.52027702  149.87399292    0.25000000    2.89000010
   16.52361107  148.98699951    0.25000000    2.91000009
   16.52666664  149.87199402    0.25000000    2.91000009
   16.53000069  147.34199524    0.25000000    2.89000010
   16.53083229  148.48500061    0.25000000    2.89000010
   16.55166626  148.48500061    0.25999999    2.91000009
   16.55583191  145.72200012    0.25000000    2.89000010
   16.55888748  144.15899658    0.25000000    2.89000010
   16.56222153  143.92399597    0.25999999    2.89000010
   16.56416512  143.15299988    0.25999999    2.89000010
   16.56583214  142.83700562    0.25999999    2.89000010
   16.56916809  149.50500488    0.25999999    2.89000010
   16.57222366  143.17799377    0.25999999    2.89000010
   16.57555580  140.60299683    0.25000000    2.89000010
   16.57888985  139.74699402    0.25000000    2.89000010
   16.58194542  146.49499512    0.25000000    2.91000009
   16.58527756  156.17700195    0.25999999    2.91000009
   16.58833313  146.32099915    0.25000000    2.89000010
   16.59444427  146.32099915    0.25000000    2.91000009
   16.59861183  156.85699463    0.25000000    2.89000010
   16.60166740  155.26699829    0.23000000    2.89000010
   16.60499954  143.66700745    0.23000000    2.89000010
   16.60805511  143.87600708    0.25000000    2.89000010
   16.61138916  147.79299927    0.25000000    2.91000009
   16.61472321  150.20100403    0.25000000    2.91000009
   16.61777878  143.47200012    0.25000000    2.89000010
   16.62111092  149.59899902    0.25000000    2.89000010
   16.62444496  155.89500427    0.25000000    2.89000010
   16.62750053  152.98800659    0.25000000    2.89000010
   16.63083267  149.26600647    0.25000000    2.89000010
   16.63138962  146.69099426    0.25000000    2.89000010
   16.63722229  146.69099426    0.25000000    2.91000009
   16.64138794  150.74600220    0.25000000    2.89000010
   16.64444351  148.26800537    0.23000000    2.91000009
   16.64777756  149.95799255    0.25000000    2.91000009
   16.65111160  145.32600403    0.23000000    2.89000010
   16.65416718  142.16999817    0.23000000    2.89000010
   16.65749931  139.92399597    0.25000000    2.91000009
   16.66083336  150.48300171    0.23000000    2.91000009
   16.66388893  146.52099609    0.23000000    2.91000009
   16.66472244  144.97599792    0.23000000    2.91000009
   16.66749954  155.62600708    0.23000000    2.89000010
   16.67083359  146.66000366    0.20999999    2.89000010
   16.67416573  144.78199768    0.23000000    2.91000009
   16.68000031  144.78199768    0.20999999    2.91000009
   16.68416595  146.33599854    0.20999999    2.89000010
   16.68750000  143.53500366    0.20999999    2.89000010
   16.69055557  146.89700317    0.23000000    2.89000010
   16.69388771  154.38499451    0.20999999    2.91000009
   16.69722176  149.20599365    0.20999999    2.89000010
   16.69805527  151.89300537    0.20999999    2.89000010
   16.70055580  149.42300415    0.20999999    2.89000010
   16.70388985  144.97399902    0.20999999    2.89000010
   16.70722389  146.90899658    0.20999999    2.91000009
   16.71027946  148.52000427    0.23000000    2.89000010
   16.71361160  145.45199585    0.20999999    2.89000010
   16.71694565  146.96499634    0.20999999    2.89000010
   16.72277832  146.96499634    0.20999999    2.91000009
   16.72694588  141.87399292    0.20999999    2.89000010
   16.73027802  150.68499756    0.20999999    2.91000009
   16.73139000  146.25300598    0.20999999    2.91000009
   16.73388863  148.36399841    0.20999999    2.89000010
   16.73722267  149.05599976    0.20999999    2.91000009
   16.74055672  147.78500366    0.20999999    2.89000010
   16.74361229  151.02799988    0.20999999    2.89000010
   16.74694443  158.08200073    0.20999999    2.89000010
   16.75027847  149.17500305    0.20999999    2.91000009
   16.75333405  161.13999939    0.20999999    2.91000009
   16.75666618  152.89799500    0.20999999    2.91000009
   16.75972176  150.30700684    0.23000000    2.91000009
   16.76583290  150.30700684    0.20999999    2.91000009
   16.77000046  150.45899963    0.23000000    2.89000010
   16.77305603  148.72700500    0.23000000    2.89000010
   16.77638817  145.73399353    0.23000000    2.89000010
   16.77944374  156.28599548    0.23000000    2.89000010
   16.78277779  154.37800598    0.23000000    2.89000010
   16.78610992  152.67599487    0.23000000    2.89000010
   16.78916550  148.45799255    0.23000000    2.91000009
   16.79249954  152.09399414    0.23000000    2.91000009
   16.79583359  147.10499573    0.23000000    2.91000009
   16.79805565  144.46800232    0.23000000    2.89000010
   16.79916573  148.04699707    0.23000000    2.89000010
   16.80249977  153.47900391    0.23000000    2.89000010
   16.80861092  153.47900391    0.23000000    2.89000010
   16.81277657  145.56199646    0.23000000    2.89000010
   16.81583214  150.25300598    0.23000000    2.89000010
   16.81916809  151.67100525    0.23000000    2.91000009
   16.82250023  144.53100586    0.23000000    2.91000009
   16.82555580  149.79400635    0.20999999    2.89000010
   16.82888985  151.64599609    0.23000000    2.89000010
   16.83139038  144.25300598    0.23000000    2.91000009
   16.83277893  142.45799255    0.23000000    2.91000009
   16.83583450  145.51499939    0.20999999    2.89000010
   16.83916664  145.44799805    0.20999999    2.89000010
   16.84222221  146.82299805    0.20999999    2.89000010
   16.84555626  143.00999451    0.20999999    2.89000010
   16.85138893  143.00999451    0.20999999    2.89000010
   16.85555649  147.41700745    0.20999999    2.91000009
   16.85888863  151.22000122    0.20999999    2.91000009
   16.86194420  151.97799683    0.20999999    2.91000009
   16.86472321  148.31599426    0.20999999    2.91000009
   16.86555672  152.61500549    0.20999999    2.89000010
   16.86888885  147.37300110    0.20999999    2.89000010
   16.87222290  158.19400024    0.20999999    2.89000010
   16.87527847  146.47700500    0.20999999    2.89000010
   16.87861061  154.21600342    0.20999999    2.91000009
   16.88194466  149.96299744    0.23000000    2.89000010
   16.88527679  146.60000610    0.20999999    2.91000009
   16.88833237  150.26300049    0.20999999    2.89000010
   16.89416695  150.26300049    0.20999999    2.91000009
   16.89833260  146.15699768    0.20999999    2.91000009
   16.90166664  143.76199341    0.20999999    2.91000009
   16.90499878  148.05299377    0.20999999    2.91000009
   16.90805435  146.56399536    0.20999999    2.89000010
   16.91138840  140.66400146    0.23000000    2.89000010
   16.91444397  141.25900269    0.20999999    2.89000010
   16.91777802  153.60099792    0.20999999    2.89000010
   16.92111015  148.98399353    0.20999999    2.89000010
   16.92416573  147.13499451    0.23000000    2.91000009
   16.92749977  149.86199951    0.20999999    2.91000009
   16.93083191  155.20799255    0.23000000    2.91000009
   16.93138885  148.25599670    0.23000000    2.91000009
   16.93722153  148.25599670    0.23000000    2.89000010
   16.94138718  155.03799438    0.20999999    2.89000010
   16.94444275  142.35899353    0.20999999    2.89000010
   16.94777679  157.39799500    0.20999999    2.89000010
   16.95083427  151.13499451    0.23000000    2.89000010
   16.95444489  146.34599304    0.20999999    2.89000010
   16.95750046  147.28500366    0.20999999    2.89000010
   16.96083450  144.11700439    0.20999999    2.89000010
   16.96389008  155.11000061    0.20999999    2.89000010
   16.96472359  151.91799927    0.20999999    2.89000010
   16.96777916  152.67700195    0.20999999    2.91000009
   16.97083473  146.93099976    0.23000000    2.89000010
   16.97416687  158.77999878    0.20999999    2.89000010
   16.98000145  158.77999878    0.20999999    2.89000010
   16.98416710  151.49899292    0.20999999    2.89000010
   16.98722267  154.76499939    0.20999999    2.89000010
   16.99055672  152.16799927    0.23000000    2.89000010
   16.99388885  146.45799255    0.23000000    2.89000010
   16.99694443  145.41900635    0.23000000    2.89000010
   16.99805641  149.34199524    0.23000000    2.91000009
   17.00083351  140.97099304    0.23000000    2.91000009
   17.00388908  154.16000366    0.23000000    2.91000009
   17.00722313  160.17300415    0.23000000    2.91000009
   17.01027870  177.00300598    0.23000000    2.91000009
   17.01361084  179.64199829    0.23000000    2.89000010
   17.01694489  161.03999329    0.20999999    2.91000009
   17.02277756  161.03999329    0.20999999    2.89000010
   17.02694511  150.97799683    0.20999999    2.89000010
   17.03027725  153.80200195    0.20999999    2.89000010
   17.03138924  165.50399780    0.20999999    2.89000010
   17.03388786  160.59100342    0.20999999    2.89000010
   17.03694344  148.32000732    0.20999999    2.89000010
   17.04027748  176.32200623    0.20999999    2.91000009
   17.04361153  169.57400513    0.23000000    2.91000009
   17.04666710  168.19799805    0.20999999    2.89000010
   17.04999924  167.77799988    0.20999999    2.89000010
   17.05333328  171.55200195    0.23000000    2.89000010
   17.05638885  176.94900513    0.20999999    2.89000010
   17.05972099  179.87100220    0.20999999    2.91000009
   17.06555557  179.87100220    0.20999999    2.91000009
   17.06972313  164.43899536    0.20999999    2.89000010
   17.07305717  161.23300171    0.23000000    2.89000010
   17.07638931  152.74400330    0.20999999    2.91000009
   17.07944489  145.64399719    0.23000000    2.91000009
   17.08277893  146.05000305    0.20999999    2.89000010
   17.08583450  152.00000000    0.20999999    2.89000010
   17.08916664  152.97200012    0.20999999    2.89000010
   17.09250069  144.41400146    0.20999999    2.91000009
   17.09555626  149.91799927    0.20999999    2.89000010
   17.09805679  146.08599854    0.20999999    2.89000010
   17.09944534  147.68600464    0.20999999    2.89000010
   17.10250092  149.81599426    0.20999999    2.89000010
   17.10861206  149.81599426    0.20999999    2.91000009
   17.11277771  139.52099609    0.20999999    2.91000009
   17.11583328  151.44400024    0.20999999    2.91000009
   17.11916733  166.23100281    0.20999999    2.89000010
   17.12222290  159.76800537    0.20999999    2.89000010
   17.12555504  158.14399719    0.20999999    2.89000010
   17.12888908  146.58500671    0.20999999    2.91000009
   17.13138962  155.80999756    0.20999999    2.91000009
   17.13249969  153.00700378    0.20999999    2.89000010
   17.13555527  158.05400085    0.20999999    2.89000010
   17.13888931  155.69099426    0.20999999    2.91000009
   17.14194489  152.38200378    0.20999999    2.89000010
   17.14527702  158.50799561    0.20999999    2.89000010
   17.15138817  158.50799561    0.19000000    2.89000010
   17.15555573  160.00000000    0.19000000    2.89000010
   17.15861130  154.38600159    0.20999999    2.89000010
   17.16194344  157.07899475    0.19000000    2.89000010
   17.16472244  158.52000427    0.19000000    2.89000010
   17.16583252  148.94700623    0.19000000    2.89000010
   17.16888809  153.29600525    0.19000000    2.89000010
   17.17222214  151.39300537    0.20999999    2.89000010
   17.17527771  152.72200012    0.19000000    2.89000010
   17.17860985  156.83099365    0.20999999    2.89000010
   17.18194389  150.06700134    0.20999999    2.89000010
   17.18499947  153.51699829    0.20999999    2.89000010
   17.18833160  147.66900635    0.20999999    2.89000010
   17.19416618  147.66900635    0.20999999    2.89000010
   17.19833183  155.11300659    0.20999999    2.89000010
   17.20166779  153.04600525    0.20999999    2.89000010
   17.20472336  159.30200195    0.20999999    2.91000009
   17.20805550  157.21000671    0.23000000    2.89000010
   17.21138954  154.84100342    0.20999999    2.89000010
   17.21444511  156.37500000    0.20999999    2.91000009
   17.21777916  158.49800110    0.20999999    2.89000010
   17.22083473  148.12699890    0.23000000    2.89000010
   17.22416687  146.01300049    0.23000000    2.89000010
   17.22750092  151.51199341    0.20999999    2.89000010
   17.23055649  143.26699829    0.23000000    2.89000010
   17.23139000  156.47099304    0.23000000    2.89000010
   17.23694420  156.47099304    0.20999999    2.89000010
   17.24111176  149.84300232    0.20999999    2.91000009
   17.24444389  150.11500549    0.20999999    2.89000010
   17.24777794  150.16000366    0.19000000    2.91000009
   17.25083351  144.58900452    0.19000000    2.91000009
   17.25416756  151.64900208    0.19000000    2.91000009
   17.25749969  148.33299255    0.20999999    2.89000010
   17.26055527  149.75999451    0.20999999    2.89000010
   17.26388931  146.36799622    0.20999999    2.89000010
   17.26472282  158.86099243    0.20999999    2.89000010
   17.26749992  150.81399536    0.20999999    2.89000010
   17.27055550  154.97300720    0.20999999    2.89000010
   17.27388954  142.08599854    0.20999999    2.89000010
   17.28000069  142.08599854    0.20999999    2.89000010
   17.28416634  158.42700195    0.20999999    2.91000009
   17.28722191  152.09599304    0.20999999    2.89000010
   17.29055595  144.08900452    0.20999999    2.89000010
   17.29361153  146.06700134    0.20999999    2.89000010
   17.29694366  141.85800171    0.19000000    2.91000009
   17.29805565  148.76600647    0.19000000    2.91000009
   17.30055428  165.98800659    0.19000000    2.89000010
   17.30360985  171.06799316    0.19000000    2.89000010
   17.30694389  155.49099731    0.19000000    2.91000009
   17.31027794  155.17100525    0.19000000    2.91000009
   17.31333351  158.77200317    0.19000000    2.91000009
   17.31666756  157.38999939    0.20999999    2.89000010
   17.32277870  157.38999939    0.20999999    2.89000010
   17.32694626  167.96499634    0.20999999    2.89000010
   17.33000183  154.44500732    0.20999999    2.89000010
   17.33139038  144.20700073    0.20999999    2.89000010
   17.33388901  159.38400269    0.20999999    2.89000010
   17.33694458  166.59500122    0.20999999    2.89000010
   17.34027863  166.94400024    0.23000000    2.89000010
   17.34361267  148.97500610    0.23000000    2.89000010
   17.34666824  164.14399719    0.20999999    2.89000010
   17.35000038  171.07800293    0.20999999    2.91000009
   17.35305595  154.39599609    0.20999999    2.89000010
   17.35639000  146.24899292    0.20999999    2.89000010
   17.35972214  167.43200684    0.23000000    2.91000009
   17.36555672  167.43200684    0.20999999    2.89000010
   17.36972237  151.15199280    0.20999999    2.89000010
   17.37305641  174.04200745    0.20999999    2.91000009
   17.37611198  157.62300110    0.20999999    2.89000010
   17.37944412  159.63699341    0.19000000    2.91000009
   17.38277817  163.34500122    0.19000000    2.91000009
   17.38583374  152.42300415    0.19000000    2.89000010
   17.38916588  159.26499939    0.19000000    2.91000009
   17.39249992  154.91200256    0.19000000    2.89000010
   17.39555550  167.20899963    0.19000000    2.91000009
   17.39805603  156.58099365    0.19000000    2.91000009
   17.39944458  142.05799866    0.19000000    2.89000010
   17.40250015  175.40499878    0.19000000    2.89000010
   17.40833282  175.40499878    0.20999999    2.89000010
   17.41250038  150.31399536    0.20999999    2.89000010
   17.41583252  164.49600220    0.20999999    2.91000009
   17.41888809  157.02200317    0.20999999    2.89000010
   17.42222214  167.98899841    0.23000000    2.91000009
   17.42555428  180.57200623    0.23000000    2.89000010
   17.42860985  153.76499939    0.23000000    2.89000010
   17.43138885  166.78799438    0.23000000    2.89000010
   17.43249893  154.59700012    0.23000000    2.89000010
   17.43555450  143.23399353    0.23000000    2.89000010
   17.43888855  157.40299988    0.25000000    2.89000010
   17.44222069  161.77200317    0.25000000    2.89000010
   17.44527626  154.05400085    0.25999999    2.91000009
   17.45138931  154.05400085    0.25999999    2.89000010
   17.45527840  162.02400208    0.28000000    2.89000010
   17.45861244  158.54899597    0.25999999    2.91000009
   17.46194458  174.81100464    0.25999999    2.89000010
   17.46472359  162.27099609    0.25999999    2.89000010
   17.46555710  164.89700317    0.25999999    2.89000010
   17.46861076  152.46499634    0.25999999    2.91000009
   17.47194481  166.35200500    0.25999999    2.91000009
   17.47527885  160.34899902    0.25999999    2.89000010
   17.47833443  154.97000122    0.25999999    2.91000009
   17.48166656  146.63299561    0.25999999    2.89000010
   17.48500061  150.46499634    0.25999999    2.89000010
   17.48805618  148.55999756    0.25999999    2.89000010
   17.49416733  148.55999756    0.25999999    2.89000010
   17.49833298  156.32200623    0.25999999    2.91000009
   17.50138855  151.98199463    0.25999999    2.91000009
   17.50472260  149.84700012    0.25999999    2.89000010
   17.50805473  148.13600159    0.25999999    2.89000010
   17.51111031  145.25199890    0.28000000    2.89000010
   17.51444435  148.80099487    0.25999999    2.89000010
   17.51777840  149.16700745    0.25999999    2.89000010
   17.52083397  142.81500244    0.25999999    2.89000010
   17.52416611  144.60400391    0.25999999    2.89000010
   17.52722168  147.94599915    0.25999999    2.91000009
   17.53055573  145.59399414    0.25999999    2.89000010
   17.53138924  149.89399719    0.28000000    2.89000010
   17.53694344  149.89399719    0.28000000    2.89000010
   17.54111099  164.22200012    0.28000000    2.89000010
   17.54444313  145.54600525    0.28000000    2.89000010
   17.54749870  153.03700256    0.25999999    2.89000010
   17.56527710  164.65699768    0.25999999    2.89000010
   17.56750107  138.06500244    0.25999999    2.89000010
   17.57083511  147.84100342    0.25999999    2.89000010
   17.57416725  153.29499817    0.25999999    2.89000010
   17.58000183  153.29499817    0.25999999    2.89000010
   17.58416748  149.20100403    0.25000000    2.89000010
   17.58750153  166.15600586    0.25000000    2.89000010
   17.59055710  167.27900696    0.25000000    2.86999989
   17.59388924  153.82000732    0.25999999    2.89000010
   17.59694481  171.59199524    0.25999999    2.89000010
   17.59833336  166.60800171    0.25999999    2.89000010
   17.60083389  165.02200317    0.28000000    2.86999989
   17.60416794  174.89100647    0.28000000    2.91000009
   17.60722351  158.86900330    0.25999999    2.89000010
   17.61055565  172.42599487    0.28000000    2.89000010
   17.61361122  158.39399719    0.28000000    2.89000010
   17.61694527  166.74800110    0.28000000    2.89000010
   17.62277794  166.74800110    0.28000000    2.89000010
   17.62694550  156.43400574    0.28000000    2.89000010
   17.63027763  160.00300598    0.28000000    2.89000010
   17.63166618  187.58799744    0.28000000    2.89000010
   17.63388824  183.83099365    0.28000000    2.89000010
   17.63722229  148.55999756    0.25999999    2.89000010
   17.64027786  156.90899658    0.30000001    2.91000009
   17.64361191  174.38999939    0.30000001    2.89000010
   17.64666748  179.36599731    0.30000001    2.89000010
   17.64999962  164.05499268    0.30000001    2.89000010
   17.65333366  164.02099609    0.30000001    2.89000010
   17.65638924  164.45899963    0.30000001    2.89000010
   17.65972137  182.81900024    0.30000001    2.89000010
   17.66555595  182.81900024    0.30000001    2.91000009
   17.66972160  157.64100647    0.31999999    2.89000010
   17.67305565  158.70399475    0.31999999    2.86999989
   17.67638779  164.86000061    0.31999999    2.89000010
   17.67944336  163.16200256    0.34000000    2.89000010
   17.68277740  173.52099609    0.31999999    2.89000010
   17.68610954  162.45899963    0.31999999    2.89000010
   17.68916512  169.23500061    0.30000001    2.89000010
   17.69249916  167.54899597    0.30000001    2.89000010
   17.69555473  181.81100464    0.30000001    2.89000010
   17.69833183  179.87699890    0.30000001    2.89000010
   17.69944382  162.72200012    0.30000001    2.89000010
   17.70277786  183.52999878    0.30000001    2.89000010
   17.70861244  183.52999878    0.30000001    2.86999989
   17.71277809  186.01699829    0.28000000    2.89000010
   17.71583366  162.20899963    0.30000001    2.89000010
   17.71916771  176.68899536    0.30000001    2.89000010
   17.72249985  185.46200562    0.28000000    2.89000010
   17.72555542  180.80900574    0.30000001    2.89000010
   17.72888947  179.30299377    0.28000000    2.89000010
   17.73166656  179.56700134    0.28000000    2.89000010
   17.73250008  184.45100403    0.28000000    2.89000010
   17.73583412  185.70500183    0.28000000    2.89000010
   17.73888969  193.10800171    0.28000000    2.89000010
   17.74222183  190.03300476    0.28000000    2.89000010
   17.74527740  197.38499451    0.28000000    2.89000010
   17.75138855  197.38499451    0.25000000    2.89000010
   17.75555611  169.10600281    0.25000000    2.89000010
   17.75861168  189.79899597    0.25000000    2.89000010
   17.76194382  189.03700256    0.25999999    2.89000010
   17.76499939  183.88999939    0.25999999    2.89000010
   17.76555634  185.10600281    0.25999999    2.89000010
   17.76888847  179.48500061    0.28000000    2.89000010
   17.77194405  173.99200439    0.28000000    2.89000010
   17.77527809  187.35899353    0.25999999    2.89000010
   17.77833366  189.60299683    0.25999999    2.89000010
   17.78166580  183.01300049    0.25999999    2.89000010
   17.78499985  192.53399658    0.25999999    2.89000010
   17.78805542  190.67700195    0.25999999    2.89000010
   17.79416656  190.67700195    0.25999999    2.89000010
   17.79833221  208.40199280    0.25999999    2.86999989
   17.79888916  196.21699524    0.25999999    2.89000010
   17.80222130  164.85899353    0.25999999    2.89000010
   17.80527687  182.23500061    0.28000000    2.89000010
   17.80861092  201.63000488    0.25999999    2.89000010
   17.81166649  185.34800720    0.25999999    2.89000010
   17.81499863  202.16999817    0.25999999    2.89000010
   17.81833458  183.69400024    0.25999999    2.86999989
   17.82139015  193.44700623    0.25999999    2.86999989
   17.82472229  188.61799622    0.25999999    2.89000010
   17.82805634  198.86900330    0.25000000    2.86999989
   17.83111191  154.19400024    0.25999999    2.89000010
   17.83166695  180.03599548    0.25999999    2.89000010
   17.83694458  180.03599548    0.30000001    2.89000010
   17.84111214  167.54699707    0.30000001    2.89000010
   17.84444427  187.03300476    0.30000001    2.91000009
   17.84777832  192.42700195    0.31999999    2.89000010
   17.85083389  171.10299683    0.30000001    2.89000010
   17.85416794  177.30599976    0.30000001    2.89000010
   17.85750008  162.53900146    0.30000001    2.89000010
   17.86055565  180.34199524    0.30000001    2.89000010
   17.86388969  191.52699280    0.30000001    2.89000010
   17.86499977  172.69900513    0.30000001    2.89000010
   17.86750031  189.48599243    0.30000001    2.89000010
   17.87083435  166.69200134    0.30000001    2.89000010
   17.87388992  182.81900024    0.30000001    2.89000010
   17.88000107  182.81900024    0.28000000    2.89000010
   17.88416672  188.69400024    0.28000000    2.86999989
   17.88722229  165.10600281    0.30000001    2.86999989
   17.89055634  165.41499329    0.28000000    2.89000010
   17.89361191  175.51600647    0.28000000    2.89000010
   17.89694405  168.73599243    0.28000000    2.86999989
   17.89833260  185.47300720    0.25999999    2.89000010
   17.90055466  173.92599487    0.25999999    2.89000010
   17.90388870  174.28700256    0.25999999    2.89000010
   17.90694427  179.44400024    0.25999999    2.89000010
   17.91027832  202.72099304    0.25999999    2.86999989
   17.91361046  192.36099243    0.25999999    2.89000010
   17.91666603  172.02600098    0.25999999    2.86999989
   17.92277718  172.02600098    0.25999999    2.89000010
   17.92694473  181.72999573    0.25999999    2.89000010
   17.93000031  185.15699768    0.25999999    2.86999989
   17.93166542  200.20199585    0.25999999    2.89000010
   17.93361092  182.49099731    0.25999999    2.86999989
   17.93694305  179.97300720    0.25999999    2.89000010
   17.93999863  173.68600464    0.28000000    2.89000010
   17.94333267  173.41700745    0.25999999    2.89000010
   17.94666672  162.33000183    0.25999999    2.89000010
   17.94972038  167.95599365    0.25999999    2.89000010
   17.95305634  169.28999329    0.28000000    2.89000010
   17.95639038  183.91299438    0.28000000    2.89000010
   17.95944595  156.48599243    0.28000000    2.89000010
   17.96555710  156.48599243    0.28000000    2.89000010
   17.96972275  179.84800720    0.30000001    2.86999989
   17.97305679  184.66299438    0.28000000    2.89000010
   17.97611237  179.70399475    0.28000000    2.89000010
   17.97944450  170.33299255    0.28000000    2.89000010
   17.98277855  155.94299316    0.28000000    2.89000010
   17.98583412  182.18600464    0.28000000    2.89000010
   17.98916626  178.67399597    0.28000000    2.89000010
   17.99250031  169.98199463    0.28000000    2.89000010
   17.99555588  174.73899841    0.28000000    2.86999989
   17.99833298  176.90100098    0.28000000    2.89000010
   17.99916649  180.91999817    0.28000000    2.89000010
   18.00250053  160.82299805    0.28000000    2.89000010
   18.00833321  160.82299805    0.28000000    2.86999989
   18.01250076  164.92199707    0.25999999    2.89000010
   18.01583290  152.75000000    0.25999999    2.89000010
   18.01916695  169.11999512    0.25999999    2.89000010
   18.02222252  157.23399353    0.25999999    2.89000010
   18.02555466  155.50000000    0.25999999    2.89000010
   18.02888870  148.15800476    0.25999999    2.89000010
   18.03166580  155.16299438    0.28000000    2.89000010
   18.03249931  160.24600220    0.28000000    2.89000010
   18.03583336  146.27699280    0.28000000    2.89000010
   18.03888893  157.93699646    0.25999999    2.86999989
   18.04222107  170.45399475    0.25999999    2.89000010
   18.04555511  155.77900696    0.25999999    2.86999989
   18.05138779  155.77900696    0.25999999    2.89000010
   18.05555534  161.00199890    0.25999999    2.89000010
   18.05861092  163.88299561    0.25999999    2.89000010
   18.06194305  140.57400513    0.25999999    2.89000010
   18.06499863  154.40899658    0.28000000    2.89000010
   18.06555557  139.76300049    0.28000000    2.89000010
   18.06888962  155.57699585    0.25999999    2.86999989
   18.07194519  161.58500671    0.25999999    2.86999989
   18.07527924  158.01199341    0.25999999    2.89000010
   18.07861137  158.12699890    0.25999999    2.86999989
   18.08166695  150.91999817    0.25999999    2.89000010
   18.08500099  158.69299316    0.25999999    2.89000010
   18.08833313  163.91799927    0.25999999    2.86999989
   18.09416771  163.91799927    0.28000000    2.89000010
   18.09833336  154.97000122    0.25999999    2.86999989
   18.09889030  156.80099487    0.25999999    2.86999989
   18.10194397  163.37500000    0.25999999    2.86999989
   18.10527802  154.21200562    0.28000000    2.86999989
   18.10861206  140.13400269    0.30000001    2.89000010
   18.11166763  149.71099854    0.30000001    2.86999989
   18.11499977  158.73800659    0.30000001    2.89000010
   18.11833382  157.06599426    0.30000001    2.89000010
   18.12138939  155.25300598    0.30000001    2.89000010
   18.12472153  158.25599670    0.31999999    2.86999989
   18.12777710  159.13400269    0.31999999    2.86999989
   18.13111115  168.35600281    0.31999999    2.89000010
   18.13222313  151.75199890    0.31999999    2.86999989
   18.13694382  151.75199890    0.34000000    2.86999989
   18.14111137  145.09899902    0.34000000    2.89000010
   18.14444351  154.26600647    0.34000000    2.86999989
   18.14749908  150.29299927    0.34000000    2.86999989
   18.15083313  145.52699280    0.34000000    2.86999989
   18.15416718  168.16099548    0.34000000    2.86999989
   18.15749931  142.96299744    0.34000000    2.89000010
   18.16055489  154.97099304    0.34000000    2.86999989
   18.16388893  139.70500183    0.36000001    2.86999989
   18.16555595  141.35800171    0.36000001    2.86999989
   18.16749954  146.10800171    0.34000000    2.86999989
   18.17083359  136.19700623    0.34000000    2.86999989
   18.17416573  142.78700256    0.34000000    2.86999989
   18.17972183  142.78700256    0.34000000    2.86999989
   18.18388748  164.99099731    0.34000000    2.84999990
   18.18722153  158.98699951    0.34000000    2.86999989
   18.19055557  153.18299866    0.34000000    2.86999989
   18.19361115  147.83099365    0.34000000    2.86999989
   18.19694328  142.81300354    0.34000000    2.86999989
   18.19888878  135.17999268    0.34000000    2.86999989
   18.20055580  145.28300476    0.34000000    2.86999989
   18.20388985  149.14500427    0.38000000    2.86999989
   18.20722389  151.92999268    0.38000000    2.86999989
   18.21027946  141.07200623    0.36000001    2.86999989
   18.21361160  155.41700745    0.36000001    2.86999989
   18.21694565  143.68499756    0.34000000    2.86999989
   18.22277832  143.68499756    0.34000000    2.86999989
   18.22694588  127.24700165    0.31999999    2.86999989
   18.23000145  146.07099915    0.31999999    2.86999989
   18.23222351  139.09500122    0.31999999    2.86999989
   18.23361206  144.32099915    0.31999999    2.86999989
   18.23694420  142.65299988    0.31999999    2.89000010
   18.24027824  150.68299866    0.31999999    2.86999989
   18.24333382  148.25399780    0.31999999    2.86999989
   18.24666786  152.55700684    0.31999999    2.86999989
   18.25000000  155.12300110    0.31999999    2.86999989
   18.25305557  146.71899414    0.34000000    2.86999989
   18.25638962  142.03599548    0.34000000    2.86999989
   18.25944519  146.93299866    0.31999999    2.86999989
   18.26555634  146.93299866    0.31999999    2.86999989
   18.26972198  150.55099487    0.30000001    2.86999989
   18.27277756  158.29899597    0.31999999    2.86999989
   18.27611160  148.55000305    0.30000001    2.86999989
   18.27944374  148.97000122    0.30000001    2.86999989
   18.28249931  144.74400330    0.30000001    2.86999989
   18.28583336  157.02200317    0.30000001    2.86999989
   18.28916550  171.77200317    0.30000001    2.86999989
   18.29222107  154.41799927    0.30000001    2.86999989
   18.29555511  159.86999512    0.30000001    2.86999989
   18.29888916  149.72900391    0.30000001    2.86999989
   18.29944420  156.07400513    0.30000001    2.86999989
   18.30277634  148.80400085    0.30000001    2.86999989
   18.30833244  148.80400085    0.30000001    2.86999989
   18.31250000  168.72099304    0.30000001    2.86999989
   18.31583214  160.43899536    0.28000000    2.86999989
   18.31916809  182.82000732    0.28000000    2.86999989
   18.32222366  165.37399292    0.28000000    2.86999989
   18.32555580  186.01100159    0.30000001    2.86999989
   18.32861137  175.46800232    0.30000001    2.86999989
   18.33194542  179.39799500    0.31999999    2.86999989
   18.33277893  160.33700562    0.31999999    2.86999989
   18.33555603  144.81599426    0.31999999    2.86999989
   18.33889008  175.79899597    0.31999999    2.86999989
   18.34194565  149.57200623    0.31999999    2.86999989
   18.34527779  196.33000183    0.34000000    2.86999989
   18.35111237  196.33000183    0.34000000    2.86999989
   18.35527802  166.29699707    0.34000000    2.86999989
   18.35861206  189.55599976    0.34000000    2.86999989
   18.36194420  172.75199890    0.34000000    2.86999989
   18.36499977  173.22700500    0.34000000    2.86999989
   18.36611176  186.35400391    0.34000000    2.86999989
   18.36861038  193.37600708    0.34000000    2.86999989
   18.37194443  160.37899780    0.34000000    2.86999989
   18.37527847  139.83799744    0.31999999    2.84999990
   18.37833405  156.86300659    0.34000000    2.86999989
   18.38166618  160.78700256    0.31999999    2.84999990
   18.38472176  161.81300354    0.31999999    2.84999990
   18.38805580  170.18400574    0.31999999    2.89000010
   18.39416695  170.18400574    0.31999999    2.86999989
   18.39833260  163.46699524    0.31999999    2.86999989
   18.39944458  153.22399902    0.31999999    2.86999989
   18.40166664  155.02799988    0.31999999    2.86999989
   18.40499878  153.81900024    0.31999999    2.86999989
   18.40805435  158.30799866    0.34000000    2.86999989
   18.41138840  174.79299927    0.36000001    2.86999989
   18.41472244  158.53100586    0.34000000    2.84999990
   18.41777802  188.45599365    0.36000001    2.86999989
   18.42111015  165.50700378    0.34000000    2.86999989
   18.42444420  143.93200684    0.34000000    2.86999989
   18.42749977  167.78199768    0.34000000    2.86999989
   18.43083191  151.48399353    0.34000000    2.86999989
   18.43277740  161.67199707    0.34000000    2.86999989
   18.43694305  161.67199707    0.36000001    2.86999989
   18.44111061  165.22700500    0.36000001    2.86999989
   18.44444275  166.88200378    0.36000001    2.86999989
   18.44749832  145.76400757    0.36000001    2.86999989
   18.45083427  145.37800598    0.36000001    2.86999989
   18.45388985  161.10899353    0.36000001    2.86999989
   18.45722389  153.43499756    0.36000001    2.86999989
   18.46055603  141.48800659    0.36000001    2.84999990
   18.46361160  156.22700500    0.36000001    2.86999989
   18.46611214  173.94799805    0.36000001    2.86999989
   18.46722221  154.03900146    0.38000000    2.86999989
   18.47055626  179.99200439    0.36000001    2.84999990
   18.47361183  169.07200623    0.36000001    2.86999989
   18.47972298  169.07200623    0.34000000    2.86999989
   18.48388863  164.03599548    0.34000000    2.86999989
   18.48722267  144.83700562    0.34000000    2.84999990
   18.49027824  169.22900391    0.38000000    2.86999989
   18.49361229  173.55299377    0.38000000    2.84999990
   18.49694443  155.44500732    0.40000001    2.84999990
   18.49944496  175.00700378    0.40000001    2.84999990
   18.50055504  170.39900208    0.38000000    2.84999990
   18.50388908  148.33799744    0.38000000    2.84999990
   18.50694466  153.66799927    0.36000001    2.86999989
   18.51027870  161.61099243    0.36000001    2.86999989
   18.51361084  156.57200623    0.36000001    2.86999989
   18.51666641  163.44500732    0.34000000    2.86999989
   18.52277756  163.44500732    0.34000000    2.86999989
   18.52666664  144.64900208    0.34000000    2.86999989
   18.53000069  163.95599365    0.34000000    2.84999990
   18.53277779  167.51699829    0.34000000    2.84999990
   18.53361130  163.00799561    0.34000000    2.84999990
   18.53694344  172.26899719    0.34000000    2.84999990
   18.53999901  146.89599609    0.34000000    2.84999990
   18.54333305  165.97700500    0.36000001    2.86999989
   18.54666710  152.40899658    0.36000001    2.86999989
   18.54972076  170.75900269    0.34000000    2.84999990
   18.55305481  138.80499268    0.31999999    2.86999989
   18.55638885  149.91200256    0.31999999    2.86999989
   18.55944443  162.69000244    0.31999999    2.86999989
   18.56555557  162.69000244    0.30000001    2.84999990
   18.58388901  150.52000427    0.28000000    2.86999989
   18.58722305  144.47300720    0.28000000    2.84999990
   18.59027863  157.35099792    0.28000000    2.86999989
   18.59361267  169.25300598    0.30000001    2.86999989
   18.59666824  156.32800293    0.31999999    2.86999989
   18.60000038  158.88099670    0.31999999    2.86999989
   18.60333443  166.78799438    0.36000001    2.84999990
   18.60861206  166.78799438    0.34000000    2.84999990
   18.61277771  155.85099792    0.36000001    2.84999990
   18.61583328  163.10699463    0.36000001    2.84999990
   18.61722183  146.00399780    0.36000001    2.84999990
   18.61972237  164.93899536    0.36000001    2.84999990
   18.62305641  166.18400574    0.34000000    2.84999990
   18.62611198  164.64100647    0.36000001    2.86999989
   18.62944412  155.22999573    0.34000000    2.84999990
   18.63277817  164.30999756    0.36000001    2.86999989
   18.63583374  168.85800171    0.34000000    2.84999990
   18.63916588  149.83399963    0.34000000    2.84999990
   18.64249992  149.32099915    0.34000000    2.86999989
   18.64555550  145.89100647    0.34000000    2.86999989
   18.65138817  145.89100647    0.34000000    2.86999989
   18.65555573  133.16299438    0.34000000    2.86999989
   18.65888786  158.93499756    0.34000000    2.84999990
   18.66194344  168.07800293    0.34000000    2.84999990
   18.66527748  149.76100159    0.34000000    2.84999990
   18.66860962  145.71499634    0.34000000    2.84999990
   18.67166519  165.30599976    0.34000000    2.84999990
   18.67499924  141.48699951    0.34000000    2.84999990
   18.67805481  156.53700256    0.34000000    2.84999990
   18.68138885  125.81900024    0.36000001    2.84999990
   18.68361092  133.57400513    0.38000000    2.84999990
   18.68527603  139.96200562    0.38000000    2.84999990
   18.68833160  140.93800354    0.38000000    2.84999990
   18.69416618  140.93800354    0.38000000    2.84999990
   18.69833183  147.81799316    0.40000001    2.84999990
   18.70166779  136.91200256    0.40000001    2.84999990
   18.70499992  156.62199402    0.40000001    2.84999990
   18.70805550  144.76699829    0.38000000    2.84999990
   18.71138954  153.60099792    0.38000000    2.86999989
   18.71444511  141.78399658    0.40000001    2.86999989
   18.71694565  150.06900024    0.38000000    2.86999989
   18.71833420  154.21400452    0.38000000    2.86999989
   18.72138977  145.25300598    0.40000001    2.84999990
   18.72472191  146.72999573    0.38000000    2.84999990
   18.72805595  158.63200378    0.40000001    2.84999990
   18.73111153  148.00100708    0.40000001    2.84999990
   18.73722267  148.00100708    0.38000000    2.84999990
   18.74138832  147.50000000    0.36000001    2.84999990
   18.74444389  143.82600403    0.34000000    2.84999990
   18.74777794  156.54499817    0.31999999    2.84999990
   18.75027847  153.60000610    0.31999999    2.84999990
   18.75138855  143.07899475    0.31999999    2.84999990
   18.75444412  168.86599731    0.31999999    2.86999989
   18.75777817  146.19299316    0.31999999    2.86999989
   18.76111031  152.21600342    0.31999999    2.84999990
   18.76416588  147.98899841    0.31999999    2.84999990
   18.76749992  140.53300476    0.30000001    2.86999989
   18.77055550  176.15699768    0.30000001    2.84999990
   18.77388954  153.24200439    0.30000001    2.84999990
   18.78000069  153.24200439    0.28000000    2.84999990
   18.78416634  147.31500244    0.28000000    2.84999990
   18.78722191  145.47799683    0.28000000    2.84999990
   18.79055595  146.16099548    0.28000000    2.84999990
   18.79388809  148.51899719    0.28000000    2.84999990
   18.79694366  152.28799438    0.28000000    2.84999990
   18.80027771  162.84399414    0.25999999    2.84999990
   18.80333328  167.40400696    0.25999999    2.84999990
   18.80666542  149.14599609    0.28000000    2.84999990
   18.80999947  151.58399963    0.25999999    2.84999990
   18.81305504  145.20700073    0.28000000    2.84999990
   18.81638718  138.69599915    0.28000000    2.84999990
   18.81694603  144.69200134    0.28000000    2.84999990
   18.82277870  144.69200134    0.28000000    2.84999990
   18.82694626  144.02600098    0.28000000    2.84999990
   18.83027840  150.76499939    0.28000000    2.84999990
   18.83333397  148.71600342    0.28000000    2.84999990
   18.83694458  151.43499756    0.28000000    2.84999990
   18.84000015  162.44599915    0.28000000    2.84999990
   18.84333420  152.53500366    0.28000000    2.84999990
   18.84638977  144.62199402    0.28000000    2.84999990
   18.84972191  147.31799316    0.28000000    2.84999990
   18.85027885  166.37100220    0.28000000    2.84999990
   18.85333443  156.27499390    0.28000000    2.84999990
   18.85639000  143.21899414    0.30000001    2.84999990
   18.85972214  143.07800293    0.30000001    2.82999992
   18.86555672  143.07800293    0.31999999    2.84999990
   18.86972237  144.88000488    0.31999999    2.84999990
   18.87305641  145.60299683    0.30000001    2.84999990
   18.87611198  153.68099976    0.30000001    2.84999990
   18.87944412  148.28500366    0.30000001    2.84999990
   18.88277817  161.16700745    0.30000001    2.84999990
   18.88361168  163.07899475    0.30000001    2.84999990
   18.88638878  145.95199585    0.28000000    2.84999990
   18.88944435  134.10299683    0.28000000    2.84999990
   18.89277840  137.92199707    0.28000000    2.84999990
   18.89611053  151.36399841    0.28000000    2.84999990
   18.89916611  151.12100220    0.28000000    2.84999990
   18.90250015  147.70599365    0.28000000    2.84999990
   18.90861130  147.70599365    0.28000000    2.84999990
   18.91250038  150.41000366    0.28000000    2.84999990
   18.91583252  136.53500366    0.28000000    2.84999990
   18.91694450  141.04499817    0.28000000    2.84999990
   18.91944313  155.94400024    0.28000000    2.84999990
   18.92249870  149.03500366    0.28000000    2.84999990
   18.92583275  146.42300415    0.28000000    2.84999990
   18.92916679  149.18099976    0.28000000    2.84999990
   18.93222237  141.63299561    0.28000000    2.84999990
   18.93555450  145.71600342    0.28000000    2.84999990
   18.93888855  129.79600525    0.30000001    2.82999992
   18.94194412  161.01199341    0.30000001    2.82999992
   18.94527626  152.15699768    0.30000001    2.84999990
   18.95138931  152.15699768    0.31999999    2.84999990
   18.95555687  139.05200195    0.34000000    2.84999990
   18.95861244  148.89999390    0.31999999    2.84999990
   18.96194458  151.44900513    0.31999999    2.82999992
   18.96527863  149.99899292    0.31999999    2.84999990
   18.96833420  135.71800232    0.34000000    2.82999992
   18.97166634  148.08099365    0.34000000    2.84999990
   18.97472191  142.33500671    0.36000001    2.84999990
   18.97805595  147.27499390    0.34000000    2.84999990
   18.98139000  150.36799622    0.34000000    2.84999990
   18.98361206  137.72599792    0.34000000    2.84999990
   18.98500061  139.67999268    0.34000000    2.84999990
   18.98805618  149.19700623    0.31999999    2.84999990
   18.99416733  149.19700623    0.31999999    2.84999990
   18.99833298  139.65100098    0.31999999    2.82999992
   19.00166702  140.67799377    0.30000001    2.84999990
   19.00472260  149.13900757    0.30000001    2.84999990
   19.00805473  135.96800232    0.30000001    2.84999990
   19.01138878  145.66799927    0.30000001    2.84999990
   19.01444435  140.89900208    0.30000001    2.84999990
   19.01694489  133.82800293    0.30000001    2.84999990
   19.01833344  152.75900269    0.30000001    2.84999990
   19.02138901  144.50799561    0.31999999    2.84999990
   19.02472115  140.01300049    0.31999999    2.84999990
   19.02805519  169.91700745    0.31999999    2.84999990
   19.03111076  141.72999573    0.31999999    2.82999992
   19.03694344  141.72999573    0.31999999    2.82999992
   19.04111099  147.09599304    0.31999999    2.82999992
   19.04444313  145.63299561    0.31999999    2.84999990
   19.04749870  151.70399475    0.31999999    2.82999992
   19.05027771  146.94400024    0.31999999    2.82999992
   19.05138779  146.94000244    0.30000001    2.82999992
   19.05444336  140.44599915    0.30000001    2.82999992
   19.05777740  141.32600403    0.30000001    2.82999992
   19.06110954  147.86900330    0.30000001    2.82999992
   19.06416512  159.30900574    0.30000001    2.82999992
   19.06750107  145.48199463    0.31999999    2.82999992
   19.07083511  157.56500244    0.31999999    2.82999992
   19.07389069  147.10499573    0.31999999    2.82999992
   19.08000183  147.10499573    0.31999999    2.82999992
   19.08388901  146.76400757    0.31999999    2.82999992
   19.08722305  148.85800171    0.31999999    2.82999992
   19.09055710  141.43699646    0.30000001    2.82999992
   19.09361267  147.27099609    0.30000001    2.82999992
   19.09694481  155.51600647    0.30000001    2.82999992
   19.10027885  148.86300659    0.30000001    2.82999992
   19.10333443  143.38200378    0.30000001    2.82999992
   19.10666656  140.66900635    0.28000000    2.82999992
   19.11000061  149.03999329    0.28000000    2.82999992
   19.11305618  153.03599548    0.28000000    2.84999990
   19.11638832  147.92799377    0.30000001    2.82999992
   19.11694527  148.74299622    0.30000001    2.82999992
   19.12277794  148.74299622    0.28000000    2.82999992
   19.12694550  140.41000366    0.28000000    2.82999992
   19.13000107  140.67300415    0.28000000    2.80999994
   19.13333321  139.05799866    0.30000001    2.84999990
   19.13666725  144.79800415    0.30000001    2.82999992
   19.13972282  154.11099243    0.31999999    2.82999992
   19.14305496  143.95500183    0.31999999    2.82999992
   19.14611053  147.17300415    0.31999999    2.82999992
   19.14944458  139.67599487    0.31999999    2.82999992
   19.15027809  143.05299377    0.31999999    2.82999992
   19.15305519  148.45300293    0.31999999    2.82999992
   19.15611076  150.20500183    0.34000000    2.82999992
   19.15944481  134.07499695    0.34000000    2.82999992
   19.16583252  134.07499695    0.36000001    2.82999992
   19.17000008  143.62199402    0.36000001    2.82999992
   19.17305565  143.97000122    0.36000001    2.82999992
   19.17638779  146.39399719    0.36000001    2.82999992
   19.17944336  150.67100525    0.36000001    2.82999992
   19.18277740  147.35499573    0.36000001    2.82999992
   19.18361092  141.30099487    0.36000001    2.82999992
   19.18638802  155.05799866    0.36000001    2.82999992
   19.18972206  149.38999939    0.34000000    2.82999992
   19.19277763  150.59599304    0.31999999    2.80999994
   19.19610977  158.74299622    0.30000001    2.82999992
   19.19916534  144.37800598    0.30000001    2.80999994
   19.20250130  143.71800232    0.30000001    2.82999992
   19.20833397  143.71800232    0.31999999    2.80999994
   19.21250153  140.18499756    0.30000001    2.80999994
   19.21583366  149.46800232    0.31999999    2.80999994
   19.21694565  151.36500549    0.30000001    2.82999992
   19.21944427  158.09800720    0.30000001    2.80999994
   19.22249985  141.91299438    0.30000001    2.82999992
   19.22583389  154.02499390    0.30000001    2.80999994
   19.22916794  150.71600342    0.30000001    2.82999992
   19.23222351  145.12199402    0.30000001    2.82999992
   19.23555565  145.53599548    0.30000001    2.82999992
   19.23888969  146.46899414    0.25999999    2.82999992
   19.24194527  146.50999451    0.25999999    2.80999994
   19.24527740  144.73599243    0.25999999    2.80999994
   19.25138855  144.73599243    0.28000000    2.80999994
   19.25527763  160.71299744    0.25999999    2.80999994
   19.25861168  151.29499817    0.25999999    2.80999994
   19.26194382  145.67500305    0.28000000    2.80999994
   19.26499939  150.52999878    0.28000000    2.80999994
   19.26833344  147.97500610    0.28000000    2.82999992
   19.27166557  158.09199524    0.28000000    2.82999992
   19.27472115  139.03700256    0.28000000    2.82999992
   19.27805519  146.42199707    0.28000000    2.82999992
   19.28111076  140.15600586    0.28000000    2.80999994
   19.28361130  155.02900696    0.28000000    2.80999994
   19.28499985  148.86700439    0.28000000    2.80999994
   19.28833199  155.00700378    0.28000000    2.80999994
   19.29416656  155.00700378    0.30000001    2.80999994
   19.29833221  148.85600281    0.30000001    2.80999994
   19.30138779  144.42599487    0.30000001    2.80999994
   19.30472183  153.32600403    0.30000001    2.80999994
   19.30805397  146.89300537    0.30000001    2.82999992
   19.31110954  144.29200745    0.30000001    2.82999992
   19.31444359  146.58900452    0.30000001    2.82999992
   19.31694603  146.47799683    0.30000001    2.82999992
   19.31805611  150.80200195    0.31999999    2.80999994
   19.32139015  148.48699951    0.31999999    2.80999994
   19.32444572  146.11099243    0.31999999    2.80999994
   19.32777786  152.57000732    0.31999999    2.80999994
   19.33083344  146.54800415    0.34000000    2.82999992
   19.33694458  146.54800415    0.36000001    2.80999994
   19.34111214  154.56399536    0.34000000    2.80999994
   19.34444427  148.79299927    0.34000000    2.80999994
   19.34749985  143.17300415    0.34000000    2.80999994
   19.35027885  153.03999329    0.31999999    2.78999996
   19.35138893  152.81300354    0.31999999    2.78999996
   19.35472298  148.21000671    0.34000000    2.80999994
   19.35777855  144.04699707    0.36000001    2.80999994
   19.36111069  138.92399597    0.34000000    2.80999994
   19.36416626  144.31799316    0.36000001    2.80999994
   19.36750031  148.94799805    0.36000001    2.80999994
   19.37083435  138.39399719    0.36000001    2.78999996
   19.37388992  165.34100342    0.36000001    2.80999994
   19.37972260  165.34100342    0.38000000    2.80999994
   19.38388824  158.34700012    0.36000001    2.80999994
   19.38722229  162.33999634    0.36000001    2.80999994
   19.39027786  161.33999634    0.36000001    2.80999994
   19.39361191  148.85099792    0.38000000    2.78999996
   19.39694405  144.58000183    0.40000001    2.80999994
   19.39999962  149.63900757    0.40000001    2.80999994
   19.40333366  150.30000305    0.38000000    2.80999994
   19.40666580  146.83500671    0.38000000    2.78999996
   19.40972137  144.78799438    0.38000000    2.78999996
   19.41305542  150.99600220    0.38000000    2.78999996
   19.41611099  183.43899536    0.38000000    2.78999996
   19.41694450  157.47900391    0.38000000    2.78999996
   19.42277718  157.47900391    0.38000000    2.80999994
   19.42694473  151.92300415    0.38000000    2.80999994
   19.43000031  164.47099304    0.38000000    2.80999994
   19.43333244  151.08299255    0.38000000    2.78999996
   19.43638802  156.42999268    0.38000000    2.78999996
   19.43972206  150.61799622    0.36000001    2.80999994
   19.44305420  139.16000366    0.36000001    2.78999996
   19.44638824  150.91700745    0.38000000    2.78999996
   19.44944382  148.53300476    0.36000001    2.80999994
   19.45027924  152.47599792    0.36000001    2.80999994
   19.45305634  142.10200500    0.36000001    2.80999994
   19.45639038  147.38600159    0.36000001    2.80999994
   19.45944595  143.63999939    0.36000001    2.78999996
   19.46555710  143.63999939    0.31999999    2.78999996
   19.46972275  153.61000061    0.34000000    2.78999996
   19.47277832  158.31199646    0.31999999    2.78999996
   19.47611237  151.78100586    0.30000001    2.78999996
   19.47916794  147.24899292    0.30000001    2.78999996
   19.48250008  152.75799561    0.30000001    2.78999996
   19.48361206  155.58900452    0.30000001    2.78999996
   19.48611069  147.09199524    0.30000001    2.78999996
   19.48944473  150.28999329    0.30000001    2.78999996
   19.49250031  144.57400513    0.30000001    2.78999996
   19.49583435  158.67199707    0.30000001    2.78999996
   19.49888992  155.23599243    0.30000001    2.78999996
   19.50222206  156.15600586    0.28000000    2.80999994
   19.50833321  156.15600586    0.28000000    2.78999996
   19.51250076  143.99000549    0.28000000    2.78999996
   19.51583290  151.22700500    0.30000001    2.78999996
   19.51694489  144.51899719    0.28000000    2.78999996
   19.51944351  145.07000732    0.30000001    2.78999996
   19.52277756  154.47099304    0.28000000    2.78999996
   19.52583313  147.87100220    0.30000001    2.80999994
   19.52916718  151.48800659    0.30000001    2.80999994
   19.53249931  157.41299438    0.25999999    2.78999996
   19.53555489  154.63099670    0.28000000    2.78999996
   19.53888893  154.65600586    0.28000000    2.78999996
   19.54194450  157.39599609    0.28000000    2.78999996
   19.54527664  149.57400513    0.28000000    2.78999996
   19.55111122  149.57400513    0.28000000    2.78999996
   19.55527687  145.55900574    0.25999999    2.78999996
   19.55861092  146.19999695    0.25999999    2.80999994
   19.56166649  147.85800171    0.25999999    2.80999994
   19.56499863  160.18800354    0.28000000    2.78999996
   19.56833458  145.53700256    0.28000000    2.78999996
   19.57139015  148.88699341    0.25999999    2.78999996
   19.57472229  144.41200256    0.28000000    2.78999996
   19.57777786  148.38900757    0.36000001    2.78999996
   19.58111191  148.35800171    0.36000001    2.78999996
   19.58361244  148.14199829    0.36000001    2.78999996
   19.60444450  148.14199829    0.41999999    2.78999996
   19.60861206  142.98800659    0.41999999    2.78999996
   19.61166763  147.30799866    0.44000000    2.76999998
   19.61499977  154.32800293    0.44000000    2.78999996
   19.61694527  146.28399658    0.44000000    2.78999996
   19.61861038  144.10800171    0.44000000    2.78999996
   19.62194443  150.79200745    0.47999999    2.76999998
   19.62500000  140.98399353    0.47999999    2.78999996
   19.62833405  151.99000549    0.46000001    2.78999996
   19.63166618  151.24299622    0.44000000    2.78999996
   19.63472176  143.25999451    0.44000000    2.78999996
   19.63805580  142.41099548    0.41999999    2.76999998
   19.64138794  144.95599365    0.41999999    2.78999996
   19.64722252  144.95599365    0.41999999    2.76999998
   19.65111160  141.56799316    0.44000000    2.78999996
   19.65444374  144.37500000    0.44000000    2.78999996
   19.65777779  146.70199585    0.46000001    2.76999998
   19.66083336  139.04200745    0.46000001    2.78999996
   19.66416550  158.25900269    0.46000001    2.76999998
   19.66722107  149.36199951    0.46000001    2.76999998
   19.67055511  150.79499817    0.46000001    2.76999998
   19.67388916  141.15899658    0.46000001    2.76999998
   19.67694473  139.50599670    0.46000001    2.78999996
   19.68027687  149.54200745    0.44000000    2.76999998
   19.68361092  148.33200073    0.41999999    2.76999998
   19.68416595  150.71299744    0.41999999    2.76999998
   19.68999863  150.71299744    0.41999999    2.76999998
   19.69416618  144.80799866    0.41999999    2.78999996
   19.69722176  149.42500305    0.40000001    2.78999996
   19.70055580  137.47999573    0.40000001    2.78999996
   19.70388985  140.25300598    0.38000000    2.76999998
   19.70694542  145.49499512    0.36000001    2.76999998
   19.71027946  154.03399658    0.36000001    2.76999998
   19.71361160  150.20899963    0.36000001    2.76999998
   19.71666718  146.59399414    0.38000000    2.76999998
   19.71750069  147.74499512    0.38000000    2.76999998
   19.72027779  142.87600708    0.38000000    2.76999998
   19.72361183  149.89300537    0.36000001    2.76999998
   19.72694588  154.52400208    0.36000001    2.76999998
   19.73277855  154.52400208    0.36000001    2.76999998
   19.73694420  150.14500427    0.34000000    2.76999998
   19.73999977  156.71299744    0.34000000    2.76999998
   19.74333382  162.19599915    0.34000000    2.76999998
   19.74666786  155.69000244    0.31999999    2.75000000
   19.74972153  157.86300659    0.31999999    2.76999998
   19.75083351  146.47799683    0.31999999    2.76999998
   19.75333405  149.30700684    0.31999999    2.76999998
   19.75666618  148.08099365    0.31999999    2.76999998
   19.76000023  140.38200378    0.31999999    2.76999998
   19.76305580  146.26300049    0.30000001    2.78999996
   19.76638794  145.00999451    0.30000001    2.76999998
   19.76944351  156.33099365    0.30000001    2.76999998
   19.77555466  156.33099365    0.31999999    2.75000000
   19.77972221  153.85499573    0.31999999    2.76999998
   19.78305435  149.34500122    0.30000001    2.76999998
   19.78416634  151.01199341    0.30000001    2.76999998
   19.78638840  147.97799683    0.30000001    2.75000000
   19.78972244  147.75300598    0.30000001    2.75000000
   19.79305458  152.27099609    0.30000001    2.75000000
   19.79611015  151.71200562    0.30000001    2.76999998
   19.79944420  145.49600220    0.30000001    2.75000000
   19.80277634  146.93899536    0.30000001    2.76999998
   19.80583191  147.49800110    0.30000001    2.76999998
   19.80916595  147.79100037    0.30000001    2.76999998
   19.81222153  149.22700500    0.30000001    2.75000000
   19.81861115  149.22700500    0.30000001    2.76999998
   19.82277870  148.60400391    0.30000001    2.75000000
   19.82611275  141.88299561    0.30000001    2.75000000
   19.82916832  141.38800049    0.31999999    2.76999998
   19.83250046  145.22599792    0.31999999    2.76999998
   19.83583450  148.13400269    0.31999999    2.76999998
   19.83889008  145.36999512    0.31999999    2.76999998
   19.84222221  150.98899841    0.31999999    2.75000000
   19.84527779  148.32400513    0.31999999    2.75000000
   19.84861183  149.81100464    0.31999999    2.75000000
   19.85083389  149.19500732    0.31999999    2.75000000
   19.85222244  139.29100037    0.31999999    2.75000000
   19.85555649  152.17700195    0.31999999    2.75000000
   19.86138916  152.17700195    0.31999999    2.75000000
   19.86555672  146.73899841    0.31999999    2.75000000
   19.86861038  150.53300476    0.31999999    2.75000000
   19.87194443  154.60000610    0.31999999    2.75000000
   19.87527847  153.57400513    0.31999999    2.75000000
   19.87833405  145.67599487    0.34000000    2.75000000
   19.88166618  143.23699951    0.34000000    2.75000000
   19.88416672  146.94299316    0.31999999    2.75000000
   19.88527679  150.07299805    0.31999999    2.75000000
   19.88861084  144.88800049    0.31999999    2.75000000
   19.89194489  146.87899780    0.34000000    2.75000000
   19.89500046  150.79499817    0.31999999    2.75000000
   19.89833260  142.45799255    0.34000000    2.75000000
   19.90416718  142.45799255    0.34000000    2.73000002
   19.90833282  147.58999634    0.34000000    2.75000000
   19.91138840  146.64199829    0.34000000    2.75000000
   19.91472244  154.52499390    0.34000000    2.75000000
   19.91749954  161.80900574    0.34000000    2.75000000
   19.91833305  146.55900574    0.34000000    2.75000000
   19.92166519  148.42700195    0.34000000    2.75000000
   19.92499924  149.38299561    0.34000000    2.73000002
   19.92805481  159.59899902    0.34000000    2.75000000
   19.93138885  157.68800354    0.34000000    2.75000000
   19.93444443  149.59899902    0.34000000    2.75000000
   19.93777657  148.41099548    0.36000001    2.75000000
   19.94111061  147.33700562    0.36000001    2.75000000
   19.94694328  147.33700562    0.36000001    2.75000000
   19.95111275  150.06300354    0.34000000    2.73000002
   19.95444489  150.30900574    0.36000001    2.75000000
   19.95750046  149.40299988    0.40000001    2.75000000
   19.96083450  152.16900635    0.40000001    2.75000000
   19.96416664  141.94200134    0.44000000    2.73000002
   19.96722221  150.50500488    0.50000000    2.73000002
   19.97055626  140.17100525    0.55000001    2.73000002
   19.97389030  147.37899780    0.47999999    2.73000002
   19.97694588  147.07600403    0.47999999    2.73000002
   19.98027802  152.84100342    0.40000001    2.73000002
   19.98333359  151.06799316    0.40000001    2.73000002
   19.98416710  149.56100464    0.40000001    2.73000002
   19.98999977  149.56100464    0.40000001    2.73000002
   19.99388885  146.52900696    0.41999999    2.71000004
   19.99722290  144.29899597    0.41999999    2.73000002
   20.00055504  147.40600586    0.40000001    2.73000002
   20.00361061  153.11900330    0.40000001    2.73000002
   20.00694466  143.49600220    0.40000001    2.73000002
   20.01000023  148.58500671    0.40000001    2.73000002
   20.01333427  147.48399353    0.38000000    2.73000002
   20.01666641  148.31399536    0.38000000    2.73000002
   20.01749992  151.50599670    0.38000000    2.73000002
   20.02000046  155.10299683    0.38000000    2.73000002
   20.02333260  153.93200684    0.40000001    2.73000002
   20.02666664  150.74499512    0.38000000    2.73000002
   20.03277779  150.74499512    0.38000000    2.71000004
   20.03694344  150.16299438    0.38000000    2.73000002
   20.03999901  147.36700439    0.38000000    2.73000002
   20.04333305  150.10000610    0.38000000    2.73000002
   20.04638863  149.20799255    0.38000000    2.71000004
   20.04972076  160.56599426    0.40000001    2.73000002
   20.05083275  143.51499939    0.40000001    2.73000002
   20.05333328  148.32200623    0.38000000    2.73000002
   20.05666542  154.69700623    0.38000000    2.73000002
   20.05999947  156.20399475    0.38000000    2.71000004
   20.06305504  151.52999878    0.38000000    2.71000004
   20.06638718  146.27999878    0.38000000    2.73000002
   20.06972313  151.23699951    0.38000000    2.73000002
   20.07555580  151.23699951    0.38000000    2.71000004
   20.07972336  149.85099792    0.38000000    2.71000004
   20.08277893  149.79499817    0.38000000    2.71000004
   20.08416748  148.72399902    0.38000000    2.73000002
   20.08638954  145.07299805    0.38000000    2.71000004
   20.08972359  143.03700256    0.38000000    2.71000004
   20.09305573  151.22599792    0.38000000    2.71000004
   20.09611130  147.69099426    0.38000000    2.71000004
   20.09944534  144.02900696    0.38000000    2.71000004
   20.10277748  145.84899902    0.40000001    2.71000004
   20.10583305  147.80999756    0.40000001    2.71000004
   20.10916710  146.51600647    0.40000001    2.71000004
   20.11222267  145.31700134    0.40000001    2.71000004
   20.11833382  145.31700134    0.40000001    2.71000004
   20.12249947  154.13499451    0.38000000    2.71000004
   20.12583351  155.71899414    0.38000000    2.71000004
   20.12888908  155.90600586    0.38000000    2.71000004
   20.13222313  150.97200012    0.40000001    2.71000004
   20.13555527  152.76899719    0.40000001    2.69000006
   20.13861084  154.72099304    0.38000000    2.71000004
   20.14194489  154.18299866    0.38000000    2.71000004
   20.14500046  147.46200562    0.38000000    2.69000006
   20.14833260  153.68499756    0.38000000    2.69000006
   20.15083313  153.10699463    0.38000000    2.71000004
   20.15194321  160.24200439    0.38000000    2.71000004
   20.15527725  153.96000671    0.38000000    2.71000004
   20.16110992  153.96000671    0.40000001    2.71000004
   20.16527748  151.44999695    0.40000001    2.71000004
   20.16860962  158.80299377    0.40000001    2.71000004
   20.17194366  152.88499451    0.40000001    2.69000006
   20.17499924  152.55499268    0.40000001    2.69000006
   20.17833328  154.81799316    0.40000001    2.71000004
   20.18138885  153.02999878    0.40000001    2.69000006
   20.18416595  160.53999329    0.40000001    2.71000004
   20.18527603  158.46899414    0.40000001    2.71000004
   20.18833160  161.36199951    0.38000000    2.71000004
   20.19166565  153.91499329    0.36000001    2.71000004
   20.19472122  165.99200439    0.38000000    2.71000004
   20.19805527  152.41900635    0.36000001    2.71000004
   20.20416832  152.41900635    0.38000000    2.69000006
   20.20833397  157.70100403    0.38000000    2.69000006
   20.21138954  156.78799438    0.40000001    2.71000004
   20.21472359  146.71200562    0.40000001    2.69000006
   20.21750069  155.98199463    0.40000001    2.71000004
   20.21805573  160.09500122    0.40000001    2.69000006
   20.22138977  157.25900269    0.40000001    2.69000006
   20.22472191  160.21899414    0.40000001    2.69000006
   20.22805595  150.07000732    0.40000001    2.69000006
   20.23111153  155.47900391    0.40000001    2.71000004
   20.23444557  149.44500732    0.40000001    2.71000004
   20.23750114  150.42900085    0.40000001    2.71000004
   20.24083328  145.39300537    0.40000001    2.69000006
   20.24694443  145.39300537    0.40000001    2.69000006
   20.25111198  148.02000427    0.40000001    2.67000008
   20.25416756  147.03799438    0.40000001    2.69000006
   20.25749969  149.54600525    0.40000001    2.69000006
   20.26083374  148.34899902    0.40000001    2.69000006
   20.26388931  147.32800293    0.38000000    2.69000006
   20.26722145  153.38099670    0.40000001    2.69000006
   20.27055550  153.82400513    0.38000000    2.69000006
   20.27361107  166.57099915    0.40000001    2.69000006
   20.27694511  165.69799805    0.40000001    2.69000006
   20.28000069  169.85699463    0.40000001    2.69000006
   20.28333282  180.42300415    0.38000000    2.69000006
   20.28416634  177.19000244    0.38000000    2.69000006
   20.28972244  177.19000244    0.38000000    2.69000006
   20.29388809  279.00201416    0.38000000    2.67000008
   20.29722214  295.72100830    0.38000000    2.69000006
   20.30027771  133.01899719    0.38000000    2.67000008
   20.30360985   43.51940155    0.38000000    2.67000008
   20.30694389   -1.00000000    0.38000000    2.67000008
   20.30999947   -1.00000000    0.38000000    2.69000006
   20.31333351   -1.00000000    0.38000000    2.69000006
   20.31666756   -1.00000000    0.40000001    2.69000006
   20.32000160   -1.00000000    0.40000001    2.69000006
   20.32333374   -1.00000000    0.40000001    2.69000006
   20.32666779   -1.00000000    0.40000001    2.69000006
   20.33666801   -1.00000000    0.41999999    2.67000008
   20.34000015   -1.00000000    0.41999999    2.67000008
   20.34305573   -1.00000000    0.41999999    2.67000008
