    HOUR (UT)   FLARE FACTOR    SKY TESTER    SUN TESTER
   12.17833328   -1.00000000   -1.00000000   -1.00000000
   13.13666630  159.38299561    1.94000006    2.21000004
   13.14000034  164.47900391    1.94000006    2.21000004
   13.14305496  161.47300720    1.94000006    2.21000004
   13.14638901  164.48699951    1.94000006    2.21000004
   13.14944458  154.56500244    1.91999996    2.21000004
   13.15277767  167.94299316    1.91999996    2.21000004
   13.15694427  167.94299316    1.91999996    2.21000004
   13.16111088  169.28900146    1.91999996    2.21000004
   13.16444397  177.66099548    1.91999996    2.21000004
   13.16750050  170.80499268    1.91999996    2.21000004
   13.17000008  159.08900452    1.91999996    2.21000004
   13.17111111  165.19099426    1.91999996    2.21000004
   13.17444515  164.27600098    1.89999998    2.21000004
   13.17777824  170.59300232    1.88000000    2.21000004
   13.18083382  162.39799500    1.86000001    2.23000002
   13.18416691  167.75399780    1.86000001    2.21000004
   13.18750000  160.60200500    1.86000001    2.21000004
   13.19083309  156.44700623    1.83000004    2.23000002
   13.19388866  165.61999512    1.80999994    2.25000000
   13.19972229  165.61999512    1.78999996    2.23000002
   13.20388889  153.00000000    1.78999996    2.23000002
   13.20722198  161.00999451    1.76999998    2.25000000
   13.21027756  174.92300415    1.76999998    2.23000002
   13.21361065  158.15400696    1.76999998    2.25000000
   13.21694374  153.61000061    1.76999998    2.25000000
   13.21999931  166.33999634    1.78999996    2.25000000
   13.22333336  156.15600586    1.76999998    2.25000000
   13.22638798  168.71299744    1.76999998    2.25000000
   13.22972202  153.52799988    1.76999998    2.25000000
   13.23305511  156.95300293    1.75000000    2.23000002
   13.23611164  167.95199585    1.75000000    2.25000000
   13.23666668  165.10699463    1.75000000    2.25000000
   13.24277782  165.10699463    1.75000000    2.25000000
   13.24666691  160.66600037    1.76999998    2.25000000
   13.25000000  167.26800537    1.76999998    2.25000000
   13.25333309  164.26600647    1.76999998    2.26999998
   13.25638866  161.65499878    1.76999998    2.26999998
   13.25972176  170.43899536    1.76999998    2.25000000
   13.26277733  158.62699890    1.76999998    2.25000000
   13.26611137  165.25799561    1.75000000    2.26999998
   13.26944447  157.90499878    1.76999998    2.25000000
   13.26999950  160.15199280    1.76999998    2.25000000
   13.27305508  172.53599548    1.75000000    2.26999998
   13.27638817  164.43600464    1.75000000    2.25000000
   13.27944374  155.84899902    1.76999998    2.28999996
   13.28555584  155.84899902    1.75000000    2.26999998
   13.28972244  167.70500183    1.75000000    2.26999998
   13.29277802  170.21299744    1.73000002    2.26999998
   13.29611111  168.34700012    1.73000002    2.26999998
   13.29944515  168.02600098    1.71000004    2.26999998
   13.30249977  167.10000610    1.71000004    2.26999998
   13.30333328  172.27299500    1.71000004    2.26999998
   13.30611134  167.25500488    1.69000006    2.26999998
   13.30944443  162.09800720    1.69000006    2.26999998
   13.31250000  158.89500427    1.66999996    2.28999996
   13.31583309  171.00700378    1.64999998    2.28999996
   13.31888866  162.45899963    1.64999998    2.26999998
   13.32222176  159.80499268    1.64999998    2.28999996
   13.32833290  159.80499268    1.63000000    2.28999996
   13.33249950  154.63299561    1.63000000    2.28999996
   13.33555508  161.30400085    1.63000000    2.28999996
   13.33666611  155.26899719    1.63000000    2.28999996
   13.33944416  150.34300232    1.61000001    2.28999996
   13.34277725  166.08099365    1.60000002    2.28999996
   13.34583282  166.49000549    1.61000001    2.28999996
   13.34916592  156.21600342    1.60000002    2.28999996
   13.35222244  163.84399414    1.60000002    2.28999996
   13.35555553  167.21099854    1.60000002    2.30999994
   13.35888958  157.64199829    1.60000002    2.28999996
   13.36194515  168.01699829    1.60000002    2.30999994
   13.36527824  157.12399292    1.60000002    2.30999994
   13.37111092  157.12399292    1.61000001    2.28999996
   13.37527752  167.13900757    1.61000001    2.30999994
   13.37861156  161.33799744    1.63000000    2.28999996
   13.38166714  167.40499878    1.63000000    2.30999994
   13.38500023  160.89900208    1.60000002    2.30999994
   13.38833332  165.56300354    1.60000002    2.30999994
   13.39138889  159.52999878    1.60000002    2.30999994
   13.39472198  153.00100708    1.58000004    2.32999992
   13.39777756  163.94299316    1.58000004    2.30999994
   13.40111065  156.06599426    1.60000002    2.30999994
   13.40333271  168.06700134    1.60000002    2.30999994
   13.40472221  156.86900330    1.60000002    2.30999994
   13.40805531  158.09199524    1.60000002    2.30999994
   13.41388893  158.09199524    1.55999994    2.32999992
   13.41805553  154.61999512    1.55999994    2.30999994
   13.42138958  158.85299683    1.55999994    2.30999994
   13.42472267  159.28300476    1.55999994    2.32999992
   13.42777824  154.42799377    1.55999994    2.30999994
   13.43111134  159.50000000    1.53999996    2.32999992
   13.43416691  168.51300049    1.53999996    2.30999994
   13.43666649  151.69999695    1.53999996    2.30999994
   13.43805599  155.37899780    1.53999996    2.32999992
   13.44138908  160.35499573    1.53999996    2.32999992
   13.44444466  156.78999329    1.53999996    2.30999994
   13.44777775  154.50300598    1.53999996    2.30999994
   13.45083332  164.56900024    1.53999996    2.32999992
   13.45694447  164.56900024    1.53999996    2.32999992
   13.46111107  157.59199524    1.53999996    2.32999992
   13.46416664  157.59399414    1.53999996    2.32999992
   13.46749973  168.87300110    1.53999996    2.32999992
   13.46999931  167.29600525    1.55999994    2.32999992
   13.47111034  166.73899841    1.55999994    2.32999992
   13.47444439  172.18400574    1.55999994    2.32999992
   13.47749996  157.03100586    1.55999994    2.34999990
   13.48083305  154.19900513    1.53999996    2.34999990
   13.48416710  164.53500366    1.53999996    2.32999992
   13.48722267  159.63800049    1.53999996    2.32999992
   13.49055576  157.76100159    1.53999996    2.32999992
   13.49361134  159.69400024    1.53999996    2.32999992
   13.49972248  159.69400024    1.53999996    2.32999992
   13.50388908  160.24800110    1.51999998    2.32999992
   13.50694466  152.42799377    1.51999998    2.32999992
   13.51027775  152.14100647    1.51999998    2.34999990
   13.51361084  149.36099243    1.51999998    2.34999990
   13.51666641  147.95500183    1.51999998    2.34999990
   13.51999950  150.08700562    1.51999998    2.34999990
   13.52333355  149.90800476    1.51999998    2.32999992
   13.52638817  147.96000671    1.51999998    2.34999990
   13.52972221  152.18699646    1.51999998    2.34999990
   13.53277779  163.27099609    1.51999998    2.34999990
   13.53611183  158.67799377    1.51999998    2.36999989
   13.53666687  156.30000305    1.51999998    2.36999989
   13.54250050  156.30000305    1.51999998    2.34999990
   13.54666710  152.45599365    1.51999998    2.34999990
   13.55000019  157.73300171    1.51999998    2.34999990
   13.55305576  158.94599915    1.51999998    2.34999990
   13.55638885  151.05700684    1.51999998    2.34999990
   13.55972195  152.94900513    1.51999998    2.34999990
   13.56277752  158.12100220    1.48000002    2.36999989
   13.56611156  157.72599792    1.48000002    2.34999990
   13.56916618  156.47900391    1.48000002    2.36999989
   13.56999969  156.11000061    1.48000002    2.34999990
   13.57277775  155.72500610    1.48000002    2.36999989
   13.57611084  155.30599976    1.48000002    2.34999990
   13.57916641  155.44599915    1.48000002    2.36999989
   13.58555508  155.44599915    1.48000002    2.36999989
   13.58944416  152.74699402    1.48000002    2.34999990
   13.59277725  152.89300537    1.48000002    2.36999989
   13.59611034  159.93099976    1.48000002    2.36999989
   13.59944439  148.78799438    1.46000004    2.36999989
   13.60249996  150.60400391    1.46000004    2.36999989
   13.60333347  155.98100281    1.46000004    2.36999989
   13.60611153  146.91099548    1.46000004    2.36999989
   13.60944462  151.69599915    1.44000006    2.36999989
   13.61250019  154.79499817    1.44000006    2.39000010
   13.61583328  154.22200012    1.44000006    2.36999989
   13.61916637  163.58399963    1.46000004    2.36999989
   13.62222195  157.84399414    1.46000004    2.36999989
   13.62833309  157.84399414    1.44000006    2.39000010
   13.63249969  152.28100586    1.46000004    2.36999989
   13.63555527  165.36399841    1.46000004    2.39000010
   13.63666630  159.12500000    1.46000004    2.39000010
   13.63916683  164.17999268    1.44000006    2.36999989
   13.64249992  155.12500000    1.46000004    2.39000010
   13.64555550  161.17999268    1.46000004    2.36999989
   13.64888859  154.82499695    1.46000004    2.36999989
   13.65222168  155.81199646    1.44000006    2.39000010
   13.65527725  156.59599304    1.46000004    2.39000010
   13.65861034  153.41200256    1.44000006    2.39000010
   13.66166592  151.90199280    1.44000006    2.39000010
   13.66499996  159.39300537    1.44000006    2.39000010
   13.67111111  159.39300537    1.41999996    2.39000010
   13.67527771  152.44999695    1.41999996    2.39000010
   13.67833328  152.29200745    1.41999996    2.39000010
   13.68166733  147.22300720    1.41999996    2.40000010
   13.68500042  147.56700134    1.41999996    2.39000010
   13.68805599  148.00000000    1.41999996    2.39000010
   13.69138908  156.09500122    1.39999998    2.39000010
   13.69472218  154.58099365    1.39999998    2.39000010
   13.69777775  159.30299377    1.39999998    2.39000010
   13.70111084  154.46699524    1.39999998    2.39000010
   13.70333290  152.90699768    1.39999998    2.40000010
   13.70472240  153.16099548    1.39999998    2.40000010
   13.70805550  153.88099670    1.39999998    2.39000010
   13.71388912  153.88099670    1.38000000    2.39000010
   13.71805477  156.84800720    1.39999998    2.39000010
   13.72138882  153.30999756    1.38000000    2.40000010
   13.72444439  149.99099731    1.38000000    2.39000010
   13.72777748  160.77200317    1.38000000    2.40000010
   13.73111057  159.87199402    1.36000001    2.39000010
   13.73416710  154.58900452    1.36000001    2.39000010
   13.73666668  162.56399536    1.36000001    2.40000010
   13.73777771  152.11999512    1.36000001    2.40000010
   13.74111176  157.55000305    1.36000001    2.39000010
   13.74416733  155.43899536    1.36000001    2.40000010
   13.74750042  155.41600037    1.36000001    2.40000010
   13.75083351  150.86900330    1.36000001    2.40000010
   13.75666714  150.86900330    1.36000001    2.39000010
   13.76083374  151.63200378    1.36000001    2.40000010
   13.76416683  154.00500488    1.34000003    2.40000010
   13.76749992  151.21400452    1.34000003    2.40000010
   13.76999950  155.56300354    1.34000003    2.40000010
   13.77111053  156.67999268    1.34000003    2.40000010
   13.77444458  151.40899658    1.34000003    2.40000010
   13.77750015  149.07899475    1.33000004    2.40000010
   13.78083324  155.25399780    1.33000004    2.42000008
   13.78416729  150.73899841    1.33000004    2.40000010
   13.78722286  146.38099670    1.34000003    2.40000010
   13.79055595  153.09700012    1.34000003    2.42000008
   13.79361153  155.60299683    1.34000003    2.40000010
   13.79972267  155.60299683    1.34000003    2.40000010
   13.80388927  156.65100098    1.34000003    2.40000010
   13.80694485  151.07600403    1.34000003    2.40000010
   13.81027794  157.85400391    1.36000001    2.40000010
   13.81333351  150.69000244    1.34000003    2.40000010
   13.81666660  153.83200073    1.34000003    2.40000010
   13.81999969  152.90899658    1.34000003    2.40000010
   13.82333374  155.87199402    1.33000004    2.42000008
   13.82638836  151.29600525    1.33000004    2.40000010
   13.82972240  157.43600464    1.33000004    2.42000008
   13.83277798  147.67599487    1.34000003    2.42000008
   13.83611107  153.74600220    1.33000004    2.40000010
   13.83694458  159.48800659    1.33000004    2.42000008
   13.84249973  159.48800659    1.30999994    2.42000008
   13.84666634  150.80599976    1.30999994    2.42000008
   13.84972191  154.43600464    1.30999994    2.42000008
   13.85305595  158.61000061    1.30999994    2.42000008
   13.85638905  151.15199280    1.30999994    2.42000008
   13.85944462  155.01100159    1.30999994    2.42000008
   13.86277771  152.77600098    1.30999994    2.42000008
   13.86611176  153.96299744    1.30999994    2.44000006
   13.86916637  152.35699463    1.30999994    2.44000006
   13.87027836  152.49699402    1.30999994    2.44000006
   13.87277794  163.05599976    1.30999994    2.42000008
   13.87611103  160.72900391    1.30999994    2.44000006
   13.87916660  152.73800659    1.30999994    2.44000006
   13.88527775  152.73800659    1.30999994    2.42000008
   13.88944435  156.23300171    1.30999994    2.42000008
   13.89277744  161.75999451    1.30999994    2.42000008
   13.89583302  151.36000061    1.30999994    2.42000008
   13.89916611  155.04400635    1.33000004    2.42000008
   13.90249920  159.59800720    1.33000004    2.42000008
   13.90361118  154.58200073    1.33000004    2.42000008
   13.90611076  154.97500610    1.33000004    2.42000008
   13.90944386  153.17500305    1.33000004    2.42000008
   13.91249943  156.40299988    1.30999994    2.44000006
   13.91583252  148.27099609    1.30999994    2.42000008
   13.91916656  153.25599670    1.30999994    2.42000008
   13.92222214  155.51199341    1.33000004    2.42000008
   13.92805576  155.51199341    1.33000004    2.44000006
   13.93222237  158.78900146    1.30999994    2.44000006
   13.93555546  151.67599487    1.30999994    2.44000006
   13.93694496  160.84199524    1.30999994    2.44000006
   13.93916702  156.49400330    1.30999994    2.42000008
   13.94250011  158.02499390    1.30999994    2.44000006
   13.94555569  160.38000488    1.33000004    2.44000006
   13.94888878  155.58200073    1.30999994    2.42000008
   13.95222187  155.62199402    1.30999994    2.42000008
   13.95527744  155.23699951    1.30999994    2.44000006
   13.95861053  157.98699951    1.33000004    2.44000006
   13.96194458  160.26699829    1.28999996    2.42000008
   13.96500015  156.10699463    1.28999996    2.44000006
   13.97111034  156.10699463    1.30999994    2.42000008
   13.97527695  156.94400024    1.28999996    2.44000006
   13.97833252  152.95100403    1.30999994    2.44000006
   13.98166656  154.39100647    1.30999994    2.44000006
   13.98472214  154.23199463    1.30999994    2.44000006
   13.98805618  156.24899292    1.28999996    2.46000004
   13.99138927  152.14700317    1.28999996    2.44000006
   13.99444485  152.27499390    1.28999996    2.46000004
   13.99777794  151.92799377    1.30999994    2.44000006
   14.00111103  154.29200745    1.30999994    2.44000006
   14.00361156  153.25199890    1.30999994    2.44000006
   14.00444412  155.76499939    1.30999994    2.46000004
   14.00777817  152.41400146    1.30999994    2.46000004
   14.01388931  152.41400146    1.28999996    2.46000004
   14.01805496  154.42700195    1.28999996    2.46000004
   14.02111053  149.45799255    1.30999994    2.46000004
   14.02444458  149.07800293    1.28999996    2.44000006
   14.02777767  148.64900208    1.30999994    2.46000004
   14.03083324  154.10299683    1.28999996    2.44000006
   14.03416729  154.50599670    1.28999996    2.46000004
   14.03694534  155.22900391    1.26999998    2.46000004
   14.03777790  150.08000183    1.26999998    2.46000004
   14.04111195  153.91999817    1.28999996    2.46000004
   14.04416752  149.44700623    1.28999996    2.46000004
   14.04750061  157.63400269    1.30999994    2.46000004
   14.05111122  159.14999390    1.28999996    2.42000008
   14.05666733  159.14999390    1.28999996    2.46000004
   14.06083393  154.04499817    1.28999996    2.46000004
   14.06416702  150.68200684    1.28999996    2.46000004
   14.06722260  159.35699463    1.28999996    2.46000004
   14.07027817  149.58399963    1.28999996    2.46000004
   14.07083321  150.91499329    1.28999996    2.46000004
   14.07416630  153.01100159    1.26999998    2.46000004
   14.07722187  156.21200562    1.28999996    2.46000004
   14.08055592  153.75199890    1.28999996    2.46000004
   14.08388901  158.34300232    1.28999996    2.46000004
   14.08694458  152.85499573    1.28999996    2.46000004
   14.09027767  153.20100403    1.28999996    2.46000004
   14.09361076  158.27299500    1.26999998    2.46000004
   14.09944439  158.27299500    1.25000000    2.46000004
   14.10361195  152.67399597    1.25000000    2.46000004
   14.10694504  153.09700012    1.23000002    2.46000004
   14.11027813  157.05299377    1.23000002    2.48000002
   14.11333370  148.95199585    1.23000002    2.48000002
   14.11666679  157.17300415    1.23000002    2.48000002
   14.11972237  152.09300232    1.23000002    2.46000004
   14.12305546  160.04200745    1.23000002    2.46000004
   14.12638855  151.79100037    1.21000004    2.46000004
   14.12944412  147.59399414    1.21000004    2.48000002
   14.13277817  153.86399841    1.21000004    2.46000004
   14.13611126  154.45899963    1.21000004    2.46000004
   14.13694477  151.31799316    1.21000004    2.46000004
   14.15749931  151.31799316    1.16999996    2.48000002
   14.16166592  158.28100586    1.16999996    2.48000002
   14.16499996  150.33900452    1.14999998    2.48000002
   14.16805553  146.41700745    1.16999996    2.48000002
   14.17027855  149.17900085    1.16999996    2.48000002
   14.17166710  147.62699890    1.16999996    2.48000002
   14.17500019  145.58500671    1.16999996    2.48000002
   14.17833328  144.04100037    1.16999996    2.48000002
   14.18138885  146.26400757    1.16999996    2.50000000
   14.18472195  146.18200684    1.16999996    2.48000002
   14.18777752  149.08099365    1.16999996    2.48000002
   14.19111156  144.29100037    1.14999998    2.48000002
   14.19444466  149.53700256    1.14999998    2.48000002
   14.20027733  149.53700256    1.14999998    2.50000000
   14.20444393  152.99800110    1.13000000    2.50000000
   14.20777798  142.01699829    1.13000000    2.50000000
   14.21083355  146.70300293    1.13000000    2.50000000
   14.21416664  150.21099854    1.13000000    2.50000000
   14.21722221  153.68299866    1.13000000    2.50000000
   14.22055531  147.63000488    1.13000000    2.48000002
   14.22388840  154.05400085    1.13000000    2.50000000
   14.22694397  148.25399780    1.11000001    2.50000000
   14.23027706  160.70899963    1.11000001    2.50000000
   14.23361111  144.59800720    1.11000001    2.50000000
   14.23666668  145.43800354    1.11000001    2.50000000
   14.23722267  146.09100342    1.11000001    2.50000000
   14.24305534  146.09100342    1.11000001    2.50000000
   14.24722290  148.25900269    1.11000001    2.50000000
   14.25083351  146.11000061    1.11000001    2.50000000
   14.25416660  148.42999268    1.11000001    2.50000000
   14.25722218  149.11099243    1.11000001    2.50000000
   14.26055527  150.66299438    1.11000001    2.51999998
   14.26388931  146.10800171    1.09000003    2.50000000
   14.26694393  150.49200439    1.11000001    2.50000000
   14.27027798  151.66499329    1.11000001    2.50000000
   14.27083302  150.70199585    1.11000001    2.50000000
   14.27416611  153.36300659    1.11000001    2.50000000
   14.27722168  155.18200684    1.11000001    2.50000000
   14.28055573  150.08599854    1.11000001    2.50000000
   14.28611183  150.08599854    1.09000003    2.50000000
   14.29000092  144.16000366    1.11000001    2.50000000
   14.29333401  146.92199707    1.11000001    2.50000000
   14.29666710  149.27999878    1.11000001    2.50000000
   14.29972267  152.05999756    1.13000000    2.50000000
   14.30305576  148.99899292    1.11000001    2.50000000
   14.30416679  145.13999939    1.11000001    2.50000000
   14.30666733  148.08700562    1.11000001    2.50000000
   14.31000042  144.52699280    1.11000001    2.51999998
   14.31333351  142.20799255    1.09000003    2.51999998
   14.31638908  145.94999695    1.11000001    2.50000000
   14.31972218  145.43200684    1.09000003    2.51999998
   14.32305527  148.51199341    1.09000003    2.51999998
   14.32888889  148.51199341    1.09000003    2.51999998
   14.33305550  148.23699951    1.09000003    2.50000000
   14.33611107  149.64300537    1.09000003    2.50000000
   14.33749962  143.83700562    1.09000003    2.50000000
   14.33972168  146.99400330    1.09000003    2.51999998
   14.34305477  146.18400574    1.09000003    2.51999998
   14.34638882  144.95700073    1.09000003    2.51999998
   14.34944439  152.13600159    1.07000005    2.51999998
   14.35277843  148.33399963    1.07000005    2.51999998
   14.35611153  154.20500183    1.05999994    2.51999998
   14.35916710  143.88499451    1.05999994    2.51999998
   14.36250019  148.49000549    1.07000005    2.51999998
   14.36555576  141.22799683    1.07000005    2.51999998
   14.37166691  141.22799683    1.05999994    2.50000000
   14.37583351  142.84300232    1.05999994    2.51999998
   14.37916660  142.45899963    1.05999994    2.51999998
   14.38222218  140.04899597    1.05999994    2.51999998
   14.38555527  142.16299438    1.05999994    2.51999998
   14.38888836  144.14199829    1.05999994    2.53999996
   14.39194393  141.41600037    1.05999994    2.51999998
   14.39527798  144.63800049    1.05999994    2.53999996
   14.39833355  141.14300537    1.07000005    2.51999998
   14.40166664  144.82299805    1.05999994    2.51999998
   14.40416622  140.16700745    1.05999994    2.51999998
   14.40527725  142.08200073    1.05999994    2.51999998
   14.40861034  143.90899658    1.05999994    2.51999998
   14.41444397  143.90899658    1.05999994    2.53999996
   14.41861153  147.13600159    1.03999996    2.51999998
   14.42194462  154.81300354    1.03999996    2.53999996
   14.42500019  146.64599609    1.05999994    2.51999998
   14.42833328  152.99099731    1.03999996    2.53999996
   14.43166733  148.53999329    1.05999994    2.53999996
   14.43472195  142.86900330    1.03999996    2.53999996
   14.43750000  146.48100281    1.03999996    2.51999998
   14.43861103  152.20399475    1.03999996    2.51999998
   14.44166660  151.93899536    1.03999996    2.51999998
   14.44499969  149.45799255    1.03999996    2.50000000
   14.44805527  148.17900085    1.03999996    2.50000000
   14.45138836  145.84300232    1.05999994    2.51999998
   14.45749950  145.84300232    1.05999994    2.53999996
   14.46138859  148.75000000    1.05999994    2.53999996
   14.46472168  151.91400146    1.05999994    2.53999996
   14.46805477  156.17399597    1.05999994    2.53999996
   14.47083282  154.15499878    1.05999994    2.53999996
   14.47166634  145.81399536    1.05999994    2.53999996
   14.47472191  152.86500549    1.07000005    2.51999998
   14.47805500  146.71000671    1.09000003    2.51999998
   14.48111057  143.79100037    1.07000005    2.53999996
   14.48444462  146.29299927    1.07000005    2.53999996
   14.48777771  148.23300171    1.07000005    2.53999996
   14.49083328  146.57200623    1.09000003    2.53999996
   14.49416733  144.16000366    1.09000003    2.53999996
   14.50027752  144.16000366    1.09000003    2.53999996
   14.50444412  141.89300537    1.07000005    2.53999996
   14.50749969  148.97200012    1.07000005    2.53999996
   14.51083374  147.09800720    1.07000005    2.53999996
   14.51416683  144.92900085    1.07000005    2.53999996
   14.51722240  144.35000610    1.07000005    2.53999996
   14.52055550  148.38499451    1.07000005    2.53999996
   14.52388859  143.01499939    1.07000005    2.53999996
   14.52694416  146.22700500    1.05999994    2.55999994
   14.53027725  141.14199829    1.05999994    2.53999996
   14.53333378  145.67500305    1.05999994    2.53999996
   14.53666687  136.74000549    1.05999994    2.53999996
   14.53750038  143.15899658    1.03999996    2.53999996
   14.54305553  143.15899658    1.03999996    2.53999996
   14.54722309  144.46000671    1.01999998    2.53999996
   14.55055618  144.86000061    1.01999998    2.53999996
   14.55361176  150.99499512    1.01999998    2.53999996
   14.55694485  151.40299988    1.01999998    2.53999996
   14.56000042  141.62899780    1.01999998    2.53999996
   14.56333351  140.96299744    1.01999998    2.53999996
   14.56666660  144.05700684    1.05999994    2.53999996
   14.56972218  146.42700195    1.05999994    2.53999996
   14.57083321  141.35899353    1.05999994    2.53999996
   14.57361126  137.98399353    1.01999998    2.55999994
   14.57666683  144.80200195    1.01999998    2.53999996
   14.57999992  146.03500366    1.05999994    2.53999996
   14.58583260  146.03500366    1.09000003    2.53999996
   14.59000015  144.89100647    1.03999996    2.55999994
   14.59333324  142.20399475    1.05999994    2.53999996
   14.59638882  144.41700745    1.07000005    2.53999996
   14.59972191  139.94599915    1.07000005    2.55999994
   14.60305595  145.44599915    1.07000005    2.55999994
   14.60416698  145.06100464    1.07000005    2.53999996
   14.60666752  145.13400269    1.05999994    2.53999996
   14.60972214  142.77999878    1.05999994    2.53999996
   14.61305618  139.40600586    1.05999994    2.53999996
   14.61638927  148.99800110    1.05999994    2.53999996
   14.61944485  145.20300293    1.05999994    2.53999996
   14.62277794  140.70899963    1.07000005    2.55999994
   14.62861156  140.70899963    1.05999994    2.51999998
   14.63277817  141.03700256    1.05999994    2.53999996
   14.63611126  144.83799744    1.05999994    2.53999996
   14.63749981  140.81900024    1.05999994    2.53999996
   14.64000034  139.97200012    1.07000005    2.55999994
   14.64305496  135.43400574    1.07000005    2.55999994
   14.64638901  142.83000183    1.05999994    2.53999996
   14.64972210  136.24400330    1.05999994    2.55999994
   14.65277767  140.36599731    1.03999996    2.53999996
   14.65611076  139.11599731    1.01999998    2.53999996
   14.65916634  139.76300049    1.01999998    2.55999994
   14.66249943  143.72900391    1.01999998    2.55999994
   14.66583252  140.20899963    1.03999996    2.55999994
   14.67166710  140.20899963    1.01999998    2.55999994
   14.67583370  144.27299500    1.03999996    2.55999994
   14.67888927  142.63200378    1.05999994    2.55999994
   14.68222237  142.10800171    1.05999994    2.55999994
   14.68555546  142.46899414    1.05999994    2.55999994
   14.68861103  142.91999817    1.05999994    2.53999996
   14.69194412  142.34199524    1.03999996    2.55999994
   14.69499969  139.87100220    1.03999996    2.55999994
   14.69833374  145.34899902    1.05999994    2.55999994
   14.70166683  139.04899597    1.07000005    2.55999994
   14.70416641  145.49299622    1.05999994    2.55999994
   14.70527744  142.16499329    1.05999994    2.55999994
   14.70833302  142.51800537    1.05999994    2.51999998
   14.71444416  142.51800537    1.03999996    2.55999994
   14.71861076  143.94400024    1.03999996    2.55999994
   14.72166634  145.46200562    1.01999998    2.55999994
   14.72499943  142.93699646    1.01999998    2.57999992
   14.72833252  151.60200500    1.01999998    2.57999992
   14.73138809  148.52699280    1.00000000    2.55999994
   14.73472214  147.16700745    0.98000002    2.55999994
   14.73750019  138.57899475    0.98000002    2.55999994
   14.73833370  145.26400757    0.98000002    2.55999994
   14.74138927  154.37300110    0.95999998    2.55999994
   14.74472237  138.12600708    0.95999998    2.55999994
   14.74805546  141.01499939    0.94000000    2.57999992
   14.75111103  141.00399780    0.95999998    2.55999994
   14.75722218  141.00399780    0.98000002    2.57999992
   14.76138878  147.80799866    0.95999998    2.57999992
   14.76472187  140.55200195    0.95999998    2.57999992
   14.76777744  140.50700378    0.98000002    2.55999994
   14.77083302  139.56700134    0.98000002    2.57999992
   14.77166653  154.85899353    0.98000002    2.57999992
   14.77472210  142.98599243    0.98000002    2.57999992
   14.77805519  149.89700317    0.98000002    2.57999992
   14.78138828  149.19200134    1.00000000    2.57999992
   14.78444481  138.32899475    1.00000000    2.57999992
   14.78777790  144.29800415    1.00000000    2.55999994
   14.79083347  144.58799744    1.01999998    2.55999994
   14.79416752  144.66099548    1.01999998    2.57999992
   14.80000019  144.66099548    1.00000000    2.55999994
   14.80416679  139.64399719    0.98000002    2.57999992
   14.80749989  144.07200623    0.98000002    2.57999992
   14.81083393  145.72700500    1.00000000    2.57999992
   14.81388950  147.06300354    1.00000000    2.55999994
   14.81722260  145.18499756    1.00000000    2.55999994
   14.82027817  142.58099365    0.98000002    2.57999992
   14.82361126  147.25700378    0.98000002    2.57999992
   14.82694435  148.18699646    0.98000002    2.57999992
   14.82999992  145.66200256    0.98000002    2.57999992
   14.83333302  150.04200745    1.00000000    2.57999992
   14.83666611  146.27400208    1.00000000    2.57999992
   14.83749962  149.67500305    1.00000000    2.57999992
   14.84305477  149.67500305    1.00000000    2.57999992
   14.84722233  140.41099548    0.98000002    2.57999992
   14.85027790  136.28799438    0.98000002    2.57999992
   14.85361195  135.53900146    0.94000000    2.57999992
   14.85666752  129.41600037    0.94000000    2.57999992
   14.86000061  132.91099548    0.94000000    2.57999992
   14.86333370  135.89500427    0.94000000    2.57999992
   14.86638927  159.48899841    0.94000000    2.55999994
   14.86972237  143.85000610    0.94000000    2.57999992
   14.87083340  139.80900574    0.94000000    2.57999992
   14.87333393  144.90199280    0.94000000    2.57999992
   14.87638855  139.80599976    0.94000000    2.59999990
   14.87972260  142.58799744    0.95999998    2.57999992
   14.88583279  142.58799744    0.98000002    2.57999992
   14.89000034  145.99200439    0.98000002    2.57999992
   14.89333344  141.01100159    1.00000000    2.55999994
   14.89638901  140.73100281    1.00000000    2.59999990
   14.89972210  145.12300110    0.98000002    2.57999992
   14.90277767  149.01899719    0.98000002    2.57999992
   14.90416622  166.98699951    0.98000002    2.59999990
   14.90666676  158.25500488    1.00000000    2.57999992
   14.90972137  145.68800354    0.98000002    2.59999990
   14.91305542  146.83799744    1.00000000    2.57999992
   14.91638851  141.13999939    1.00000000    2.57999992
   14.91944504  167.27600098    1.00000000    2.57999992
   14.92277813  146.47500610    1.00000000    2.57999992
   14.92861176  146.47500610    1.00000000    2.59999990
   14.93277836  156.69200134    0.98000002    2.59999990
   14.93611145  166.30499268    0.98000002    2.59999990
   14.93750000  157.92999268    0.98000002    2.59999990
   14.93972206  152.30700684    0.95999998    2.59999990
   14.94277763  141.86099243    0.94000000    2.59999990
   14.94611073  176.09899902    0.94000000    2.59999990
   14.94944477  146.82200623    0.95999998    2.59999990
   14.95249939  166.68400574    0.98000002    2.57999992
   14.95583344  143.43899536    0.98000002    2.59999990
   14.95916653  152.60899353    0.98000002    2.57999992
   14.96222210  143.11900330    0.98000002    2.57999992
   14.96555519  135.50100708    0.98000002    2.57999992
   14.97138882  135.50100708    0.98000002    2.59999990
   14.97555542  138.69799805    0.98000002    2.59999990
   14.97888851  135.46800232    1.00000000    2.57999992
   14.98222160  141.59899902    1.00000000    2.59999990
   14.98527813  139.39300537    1.00000000    2.59999990
   14.98861122  134.30000305    1.00000000    2.59999990
   14.99194431  135.49400330    1.00000000    2.59999990
   14.99499989  139.53199768    0.98000002    2.59999990
   14.99833393  141.90499878    1.00000000    2.59999990
   15.00138855  140.83900452    1.00000000    2.59999990
   15.00416660  144.59700012    1.00000000    2.59999990
   15.00527763  141.28799438    1.00000000    2.59999990
   15.00861073  146.54299927    1.00000000    2.59999990
   15.01444435  146.54299927    0.98000002    2.59999990
   15.01861095  142.00500488    0.98000002    2.57999992
   15.02166653  138.09300232    1.00000000    2.59999990
   15.02499962  138.95599365    1.00000000    2.59999990
   15.02805519  144.10299683    1.00000000    2.59999990
   15.03138828  143.17399597    1.00000000    2.57999992
   15.03472233  137.95899963    1.00000000    2.55999994
   15.03750038  135.81900024    1.00000000    2.55999994
   15.03833389  137.38200378    0.98000002    2.59999990
   15.04138947  144.04200745    0.98000002    2.59999990
   15.04472256  138.79200745    0.98000002    2.59999990
   15.04805565  141.94799805    1.00000000    2.57999992
   15.05111122  138.10800171    1.00000000    2.59999990
   15.05722237  138.10800171    0.95999998    2.59999990
   15.06138897  132.15899658    0.94000000    2.59999990
   15.06444454  139.09500122    0.94000000    2.61999989
   15.06777763  140.43699646    1.00000000    2.57999992
   15.07083321  137.66299438    1.00000000    2.59999990
   15.07138920  138.38499451    1.00000000    2.59999990
   15.07444477  137.87300110    0.95999998    2.59999990
   15.07777786  140.22500610    0.98000002    2.59999990
   15.08111095  145.58500671    0.95999998    2.59999990
   15.08416653  143.33299255    0.95999998    2.59999990
   15.08749962  144.23800659    0.95999998    2.59999990
   15.09083271  148.67999268    0.95999998    2.59999990
   15.09388828  142.52000427    0.98000002    2.59999990
   15.10000038  142.52000427    0.95999998    2.61999989
   15.10416698  147.18800354    0.95999998    2.59999990
   15.10750008  146.64300537    0.95999998    2.59999990
   15.11055565  139.22999573    0.95999998    2.59999990
   15.11388969  137.25500488    0.98000002    2.59999990
   15.11722279  141.72300720    0.98000002    2.59999990
   15.21777725   -1.00000000   -1.00000000   -1.00000000
   15.32333374   -1.00000000   -1.00000000   -1.00000000
   15.47833252   -1.00000000   -1.00000000   -1.00000000
   15.74611092   -1.00000000   -1.00000000   -1.00000000
   15.94083309   79.37449646    0.94000000    2.64000010
   15.94416714  129.80700684    0.94000000    2.64000010
   15.94750023  134.95100403    0.94000000    2.64000010
   15.95055580  133.14900208    0.94000000    2.64000010
   15.95388889  131.12300110    0.94000000    2.64000010
   15.95722198  132.86000061    0.95999998    2.64000010
   15.96138859  132.86000061    0.95999998    2.64000010
   15.96527767  136.53799438    0.94000000    2.64000010
   15.96861076  134.41799927    0.95999998    2.64000010
   15.97194386  136.64599609    0.95999998    2.64000010
   15.97416592  130.38400269    0.95999998    2.64000010
   15.97555542  130.83000183    0.95999998    2.64000010
   15.97888851  131.90899658    0.95999998    2.64000010
   15.98194408  132.38699341    0.94000000    2.64000010
   15.98527813  136.79600525    0.94000000    2.64000010
   15.98833370  134.38900757    0.94000000    2.64000010
   15.99166679  137.94999695    0.94000000    2.64000010
   15.99499989  134.78599548    0.95999998    2.64000010
   15.99805546  136.27799988    0.95999998    2.64000010
   16.00416756  136.27799988    0.95999998    2.64000010
   16.00833321  138.36799622    0.95999998    2.64000010
   16.01138878  134.38499451    0.95999998    2.64000010
   16.01472282  134.08599854    0.95999998    2.64000010
   16.01777840  132.40400696    0.95999998    2.66000009
   16.02111053  134.44400024    0.95999998    2.64000010
   16.02444458  131.50399780    0.95999998    2.64000010
   16.02750015  136.42300415    0.95999998    2.64000010
   16.03083229  135.81900024    0.94000000    2.66000009
   16.03416634  134.19999695    0.94000000    2.64000010
   16.03722191  133.15299988    0.94000000    2.66000009
   16.04055595  133.00900269    0.94000000    2.64000010
   16.04111099  138.13600159    0.94000000    2.64000010
   16.04694366  138.13600159    0.92000002    2.64000010
   16.05111122  135.05200195    0.92000002    2.66000009
   16.05416679  135.29100037    0.92000002    2.66000009
   16.05749893  135.61700439    0.89999998    2.64000010
   16.06083298  140.26400757    0.92000002    2.64000010
   16.06388855  137.78700256    0.92000002    2.66000009
   16.06722260  137.88299561    0.92000002    2.66000009
   16.07055664  138.61599731    0.94000000    2.61999989
   16.07361221  133.23699951    0.94000000    2.66000009
   16.07444572  137.92999268    0.94000000    2.66000009
   16.07750130  132.87699890    0.94000000    2.64000010
   16.08055687  134.25799561    0.94000000    2.64000010
   16.08388901  138.28900146    0.94000000    2.66000009
   16.08972359  138.28900146    0.94000000    2.66000009
   16.09388924  135.93499756    0.94000000    2.64000010
   16.09722328  140.57200623    0.94000000    2.64000010
   16.10027885  136.92900085    0.95999998    2.66000009
   16.10361099  136.16799927    0.95999998    2.66000009
   16.10694504  138.84199524    0.95999998    2.64000010
   16.10777855  137.00399780    0.95999998    2.64000010
   16.11055565  137.14399719    0.95999998    2.66000009
   16.11361122  132.78900146    0.95999998    2.64000010
   16.11694527  135.34199524    0.98000002    2.64000010
   16.12027740  139.95199585    0.95999998    2.66000009
   16.12333298  137.91400146    0.98000002    2.64000010
   16.12666702  136.97500610    0.98000002    2.69000006
   16.13249969  136.97500610    0.95999998    2.64000010
   16.13666725  137.81199646    0.95999998    2.66000009
   16.13999939  147.22799683    0.95999998    2.66000009
   16.14111137  139.58999634    0.95999998    2.66000009
   16.14361191  136.03700256    0.98000002    2.66000009
   16.14666748  131.24899292    0.95999998    2.64000010
   16.14999962  139.13200378    0.95999998    2.64000010
   16.15305519  135.55200195    0.95999998    2.66000009
   16.15638924  139.01300049    0.95999998    2.66000009
   16.15972137  138.53799438    0.95999998    2.64000010
   16.16277695  132.19400024    0.95999998    2.64000010
   16.16611099  136.17999268    0.95999998    2.64000010
   16.16944313  134.02799988    0.95999998    2.64000010
   16.17555428  134.02799988    0.98000002    2.64000010
   16.17972183  140.98599243    0.98000002    2.64000010
   16.18277740  132.99699402    0.98000002    2.64000010
   16.18610954  139.79899597    0.98000002    2.64000010
   16.18944359  135.18200684    0.98000002    2.66000009
   16.19249916  137.79600525    0.95999998    2.64000010
   16.19583321  133.67199707    0.95999998    2.66000009
   16.19916534  137.78599548    0.95999998    2.64000010
   16.20222282  138.69299316    0.98000002    2.64000010
   16.20555687  139.12699890    0.98000002    2.64000010
   16.20777893  139.08299255    0.98000002    2.64000010
   16.20916748  140.27299500    0.98000002    2.66000009
   16.21222305  132.87899780    0.98000002    2.64000010
   16.21833420  132.87899780    0.98000002    2.64000010
   16.22249985  137.86099243    0.98000002    2.61999989
   16.22583389  134.68200684    0.98000002    2.64000010
   16.22888947  130.67700195    0.98000002    2.66000009
   16.23222351  135.93499756    0.98000002    2.66000009
   16.23527718  133.61399841    0.98000002    2.64000010
   16.23861122  139.12500000    0.98000002    2.64000010
   16.24111176  129.48800659    0.98000002    2.64000010
   16.24250031  135.56500244    0.98000002    2.66000009
   16.24555588  144.48399353    0.98000002    2.64000010
   16.24888992  137.25799561    0.98000002    2.64000010
   16.25194359  147.05400085    0.98000002    2.64000010
   16.25527763  138.52000427    1.00000000    2.61999989
   16.26111031  138.52000427    1.00000000    2.66000009
   16.26527786  138.36799622    0.98000002    2.64000010
   16.26861000  141.34399414    1.00000000    2.66000009
   16.27166557  143.03500366    1.00000000    2.64000010
   16.27444458  146.29800415    1.00000000    2.64000010
   16.27555466  140.90699768    1.01999998    2.64000010
   16.27861023  138.57400513    1.00000000    2.64000010
   16.28194427  137.83299255    1.01999998    2.64000010
   16.28527641  137.40800476    1.01999998    2.64000010
   16.28833199  139.16999817    1.00000000    2.64000010
   16.29166603  133.24499512    1.00000000    2.64000010
   16.29500008  134.82099915    1.00000000    2.64000010
   16.29805565  131.68200684    0.98000002    2.64000010
   16.30416679  131.68200684    1.00000000    2.64000010
   16.30833244  132.34399414    0.98000002    2.66000009
   16.31138802  135.19500732    0.98000002    2.64000010
   16.31472206  134.00300598    0.98000002    2.64000010
   16.31777954  138.40299988    0.98000002    2.64000010
   16.32111168  135.96200562    0.98000002    2.64000010
   16.32444572  140.26400757    0.95999998    2.64000010
   16.32750130  137.44799805    0.98000002    2.64000010
   16.33083344  137.96000671    0.98000002    2.64000010
   16.33388901  138.45100403    0.98000002    2.64000010
   16.33722305  137.74200439    0.98000002    2.64000010
   16.34055710  137.09500122    0.98000002    2.64000010
   16.34111214  136.56199646    1.00000000    2.64000010
   16.34694481  136.56199646    1.01999998    2.64000010
   16.35111237  142.26199341    1.01999998    2.64000010
   16.35416794  132.64300537    1.01999998    2.64000010
   16.35750008  135.21499634    1.01999998    2.64000010
   16.36055565  138.68499756    1.01999998    2.64000010
   16.36388969  138.57299805    1.01999998    2.64000010
   16.36722183  138.46299744    1.01999998    2.64000010
   16.37027740  130.66999817    1.01999998    2.64000010
   16.37361145  136.66600037    1.01999998    2.66000009
   16.37444496  134.64199829    1.01999998    2.64000010
   16.37722206  138.17799377    1.00000000    2.64000010
   16.38027763  134.88600159    1.00000000    2.64000010
   16.38361168  134.13099670    1.00000000    2.64000010
   16.38972282  134.13099670    1.00000000    2.64000010
   16.39388847  141.76300049    1.00000000    2.64000010
   16.39694405  137.71200562    1.00000000    2.66000009
   16.40027809  135.41499329    1.00000000    2.64000010
   16.40361023  140.10000610    1.00000000    2.64000010
   16.40666580  146.02400208    1.00000000    2.64000010
   16.40777779  137.71499634    1.00000000    2.64000010
   16.41055489  141.66400146    1.00000000    2.64000010
   16.41361046  142.94599915    1.00000000    2.64000010
   16.41694450  147.51899719    1.01999998    2.64000010
   16.42027664  142.50000000    1.00000000    2.64000010
   16.42333221  139.38200378    1.01999998    2.64000010
   16.42666626  145.07299805    1.00000000    2.64000010
   16.43249893  145.07299805    1.00000000    2.64000010
   16.43666649  140.33799744    1.00000000    2.66000009
   16.43999863  140.90400696    0.98000002    2.64000010
   16.44111061  132.33200073    0.98000002    2.64000010
   16.44361115  136.35200500    0.98000002    2.64000010
   16.44666672  141.85800171    0.98000002    2.64000010
   16.45000076  137.30299377    1.00000000    2.66000009
   16.45333481  140.93400574    1.00000000    2.64000010
   16.45639038  136.85000610    0.98000002    2.66000009
   16.45972252  143.01300049    0.98000002    2.66000009
   16.46277809  141.70500183    1.00000000    2.66000009
   16.46611214  139.76300049    1.00000000    2.64000010
   16.46944427  140.70599365    0.98000002    2.61999989
   16.47527885  140.70599365    0.98000002    2.66000009
   16.47944450  139.62899780    1.01999998    2.66000009
   16.48277855  139.97500610    1.01999998    2.66000009
   16.48611069  143.93299866    1.00000000    2.64000010
   16.48916626  134.10000610    1.00000000    2.64000010
   16.49250031  139.58599854    1.01999998    2.64000010
   16.49583435  137.69200134    1.00000000    2.64000010
   16.49888992  144.04299927    1.00000000    2.64000010
   16.50222206  136.98599243    1.01999998    2.64000010
   16.50527763  138.94799805    1.01999998    2.64000010
   16.50777817  139.27099609    1.01999998    2.64000010
   16.50916672  144.05200195    1.00000000    2.64000010
   16.51222229  141.69200134    1.00000000    2.64000010
   16.51833344  141.69200134    1.00000000    2.64000010
   16.52249908  139.59399414    1.01999998    2.64000010
   16.52555466  136.46600342    1.01999998    2.64000010
   16.52888870  137.11199951    1.01999998    2.64000010
   16.53194427  137.79899597    1.03999996    2.64000010
   16.53527641  137.65899658    1.01999998    2.64000010
   16.53861046  139.53199768    1.01999998    2.64000010
   16.54111099  132.19700623    1.01999998    2.61999989
   16.54222107  141.36900330    1.01999998    2.61999989
   16.54527664  136.16000366    1.01999998    2.64000010
   16.54861069  138.05400085    1.01999998    2.66000009
   16.55194283  136.49400330    1.01999998    2.64000010
   16.55499840  132.35899353    1.01999998    2.64000010
   16.56110954  132.35899353    1.03999996    2.64000010
   16.56527710  138.56500244    1.01999998    2.64000010
   16.56833458  142.16099548    1.01999998    2.64000010
   16.57166672  143.43899536    1.01999998    2.64000010
   16.57444572  145.16799927    1.01999998    2.64000010
   16.57527924  139.68699646    1.00000000    2.64000010
   16.57833481  144.22300720    1.00000000    2.66000009
   16.58166695  137.16400146    0.98000002    2.64000010
   16.58500099  140.90299988    1.00000000    2.66000009
   16.58805656  143.52799988    1.00000000    2.64000010
   16.59138870  144.36000061    1.00000000    2.64000010
   16.59472275  139.68200684    1.01999998    2.66000009
   16.59777832  141.12600708    1.00000000    2.66000009
   16.60388947  141.12600708    1.00000000    2.66000009
   16.60805511  143.80200195    1.00000000    2.64000010
   16.61138916  145.50999451    1.01999998    2.64000010
   16.61444473  147.94200134    1.00000000    2.64000010
   16.61777878  144.59500122    1.00000000    2.64000010
   16.62111092  138.15699768    1.01999998    2.64000010
   16.62416649  133.95199585    1.01999998    2.64000010
   16.62750053  140.71499634    1.01999998    2.64000010
   16.63083267  138.93299866    1.03999996    2.64000010
   16.63388824  136.69400024    1.03999996    2.66000009
   16.63722229  137.70399475    1.03999996    2.64000010
   16.64027786  137.13600159    1.03999996    2.64000010
   16.64111137  133.58500671    1.03999996    2.64000010
   16.64666748  133.58500671    1.03999996    2.64000010
   16.65083313  139.28799438    1.03999996    2.61999989
   16.65416718  137.81300354    1.03999996    2.64000010
   16.65749931  138.62699890    1.03999996    2.64000010
   16.66055489  141.75000000    1.05999994    2.64000010
   16.66388893  138.97300720    1.05999994    2.64000010
   16.66694450  135.56700134    1.05999994    2.64000010
   16.67027664  141.50300598    1.05999994    2.66000009
   16.67361069  136.52000427    1.05999994    2.66000009
   16.67444420  139.69999695    1.05999994    2.64000010
   16.67722130  133.03900146    1.05999994    2.66000009
   16.68027687  133.76800537    1.05999994    2.64000010
   16.68361092  137.24299622    1.05999994    2.64000010
   16.68972206  137.24299622    1.03999996    2.64000010
   16.69388771  136.14900208    1.03999996    2.61999989
   16.69694328  135.03199768    1.03999996    2.61999989
   16.70027924  141.80999756    1.03999996    2.66000009
   16.70361137  139.27600098    1.05999994    2.66000009
   16.70666695  152.75799561    1.05999994    2.64000010
   16.70777893  141.78599548    1.05999994    2.64000010
   16.71027946  138.85400391    1.01999998    2.66000009
   16.71333504  145.71899414    1.01999998    2.64000010
   16.71666718  142.70700073    1.00000000    2.66000009
   16.72000122  148.03100586    1.00000000    2.66000009
   16.72305679  156.12300110    1.00000000    2.64000010
   16.72638893  145.48300171    1.00000000    2.64000010
   16.73250008  145.48300171    1.00000000    2.66000009
   16.73666763  141.29899597    1.00000000    2.64000010
   16.73972321  172.89900208    0.98000002    2.64000010
   16.74111176  159.46200562    1.00000000    2.64000010
   16.74361229  134.85600281    1.00000000    2.64000010
   16.74666786  146.14300537    1.00000000    2.64000010
   16.75000000  138.41999817    1.00000000    2.64000010
   16.75333405  132.82000732    1.00000000    2.64000010
   16.75638962  137.95599365    0.95999998    2.66000009
   16.75972176  151.97200012    0.95999998    2.66000009
   16.76305580  132.20100403    0.98000002    2.64000010
   16.76611137  135.95500183    0.98000002    2.64000010
   16.76944351  133.43099976    0.98000002    2.64000010
   16.77555466  133.43099976    0.98000002    2.64000010
   16.77972221  167.36999512    0.98000002    2.66000009
   16.78305435  154.92300415    1.00000000    2.66000009
   16.78610992  163.77499390    0.95999998    2.64000010
   16.78944397  145.90899658    0.95999998    2.66000009
   16.79277802  165.64399719    0.95999998    2.66000009
   16.79611015  135.80299377    0.95999998    2.64000010
   16.79916573  149.32600403    0.95999998    2.66000009
   16.80249977  140.53900146    1.00000000    2.64000010
   16.80555534  137.30599976    1.00000000    2.66000009
   16.80777740  141.36700439    1.00000000    2.64000010
   16.80944443  167.48899841    1.01999998    2.64000010
   16.81277657  155.95199585    1.01999998    2.66000009
   16.81805611  155.95199585    1.01999998    2.66000009
   16.82222366  144.32600403    1.01999998    2.64000010
   16.82555580  141.25000000    1.03999996    2.64000010
   16.82888985  137.13499451    1.03999996    2.66000009
   16.83194542  133.34899902    1.03999996    2.66000009
   16.83527756  136.97099304    1.05999994    2.64000010
   16.83833313  151.36799622    1.05999994    2.66000009
   16.84111214  143.69900513    1.07000005    2.64000010
   16.84222221  140.32099915    1.07000005    2.66000009
   16.84555626  136.10499573    1.07000005    2.64000010
   16.84861183  137.46499634    1.07000005    2.64000010
   16.85194397  129.13099670    1.07000005    2.64000010
   16.85499954  135.14399719    1.05999994    2.64000010
   16.86111069  135.14399719    1.05999994    2.64000010
   16.86527824  135.46000671    1.05999994    2.64000010
   16.86833382  134.31100464    1.05999994    2.64000010
   16.87166595  137.17500305    1.05999994    2.66000009
   16.87444496  154.82600403    1.05999994    2.64000010
   16.87527847  133.32299805    1.05999994    2.64000010
   16.87861061  136.82499695    1.05999994    2.66000009
   16.88166618  142.90600586    1.05999994    2.64000010
   16.88500023  137.96800232    1.05999994    2.64000010
   16.88805580  142.49899292    1.05999994    2.66000009
   16.89138794  134.67500305    1.05999994    2.64000010
   16.89472198  136.94900513    1.01999998    2.66000009
   16.89777756  134.84599304    1.01999998    2.64000010
   16.90388870  134.84599304    1.03999996    2.64000010
   16.90805435  133.27200317    1.03999996    2.64000010
   16.91110992  139.14399719    1.07000005    2.64000010
   16.91444397  138.64999390    1.07000005    2.64000010
   16.91777802  141.20300293    1.09000003    2.66000009
   16.92083359  140.39900208    1.13000000    2.64000010
   16.92416573  136.19200134    1.14999998    2.64000010
   16.92749977  137.19000244    1.14999998    2.64000010
   16.93055534  138.73800659    1.13000000    2.64000010
   16.93388748  131.37199402    1.13000000    2.64000010
   16.93694305  139.91400146    1.11000001    2.64000010
   16.94027710  142.82000732    1.11000001    2.64000010
   16.94138718  140.68099976    1.11000001    2.64000010
   16.96194458  140.68099976    1.05999994    2.64000010
   16.96611214  139.02699280    1.03999996    2.64000010
   16.96944427  137.46099854    1.05999994    2.64000010
   16.97277832  139.45100403    1.05999994    2.64000010
   16.97472191  139.30799866    1.05999994    2.64000010
   16.97611237  140.29400635    1.03999996    2.66000009
   16.97944450  135.59300232    1.05999994    2.66000009
   16.98277855  140.25700378    1.03999996    2.61999989
   16.98583412  136.30999756    1.03999996    2.66000009
   16.98916626  146.15199280    1.01999998    2.64000010
   16.99250031  146.04600525    1.03999996    2.64000010
   16.99555588  141.55099487    1.03999996    2.64000010
   16.99888992  137.89500427    1.03999996    2.64000010
   17.00472260  137.89500427    1.03999996    2.66000009
   17.00888824  137.40699768    1.03999996    2.64000010
   17.01222229  140.53399658    1.03999996    2.64000010
   17.01527786  132.68299866    1.05999994    2.66000009
   17.01861000  138.53399658    1.09000003    2.64000010
   17.02194405  140.79299927    1.09000003    2.64000010
   17.02499962  141.75100708    1.09000003    2.64000010
   17.02861023  135.30099487    1.09000003    2.64000010
   17.03166580  137.34700012    1.09000003    2.64000010
   17.03499985  138.58799744    1.09000003    2.64000010
   17.03805542  138.83299255    1.07000005    2.64000010
   17.04138756  142.34300232    1.09000003    2.66000009
   17.04166603  143.28599548    1.09000003    2.64000010
   17.04777718  143.28599548    1.09000003    2.64000010
   17.05166626  140.42999268    1.09000003    2.64000010
   17.05499840  135.17500305    1.09000003    2.64000010
   17.05833244  139.55900574    1.09000003    2.64000010
   17.06138802  138.92199707    1.09000003    2.64000010
   17.06472206  144.52699280    1.09000003    2.64000010
   17.06805611  139.47599792    1.09000003    2.61999989
   17.07111168  140.47399902    1.09000003    2.61999989
   17.07444572  144.52000427    1.09000003    2.64000010
   17.07500076  136.08700562    1.09000003    2.64000010
   17.07805634  140.97300720    1.09000003    2.66000009
   17.08139038  140.59800720    1.09000003    2.64000010
   17.08472252  141.84700012    1.09000003    2.64000010
   17.09055710  141.84700012    1.07000005    2.64000010
   17.09472275  143.20100403    1.05999994    2.64000010
   17.09777832  136.30799866    1.05999994    2.64000010
   17.10111237  142.14300537    1.01999998    2.64000010
   17.10444450  141.42999268    1.01999998    2.64000010
   17.10750008  136.24400330    1.07000005    2.64000010
   17.10833359  145.87399292    1.07000005    2.64000010
   17.11111069  137.63800049    1.09000003    2.64000010
   17.11444473  138.63200378    1.09000003    2.64000010
   17.11777878  146.89799500    1.11000001    2.61999989
   17.12083435  144.64700317    1.05999994    2.66000009
   17.12416649  136.14100647    1.05999994    2.64000010
   17.12750053  146.20399475    1.05999994    2.64000010
   17.13333321  146.20399475    1.05999994    2.61999989
   17.13750076  139.03100586    1.05999994    2.64000010
   17.14083290  140.89100647    1.07000005    2.64000010
   17.14166641  144.37199402    1.07000005    2.64000010
   17.14416695  137.91900635    1.07000005    2.64000010
   17.14749908  135.09100342    1.09000003    2.64000010
   17.15083313  137.83799744    1.07000005    2.64000010
   17.15388870  141.72999573    1.07000005    2.64000010
   17.15722275  142.36500549    1.09000003    2.64000010
   17.16055489  140.53999329    1.09000003    2.64000010
   17.16361046  143.01199341    1.09000003    2.64000010
   17.16694450  140.20300293    1.09000003    2.64000010
   17.17000008  138.93800354    1.11000001    2.64000010
   17.17611122  138.93800354    1.09000003    2.64000010
   17.18027687  141.55099487    1.07000005    2.64000010
   17.18361092  137.56900024    1.01999998    2.64000010
   17.18666649  144.09399414    1.01999998    2.64000010
   17.18999863  140.32400513    1.00000000    2.64000010
   17.19333267  139.19099426    1.00000000    2.64000010
   17.19638824  136.40600586    1.00000000    2.64000010
   17.19972038  139.46099854    1.01999998    2.64000010
   17.20305634  137.81100464    1.00000000    2.64000010
   17.20611191  137.41000366    1.01999998    2.64000010
   17.20833397  141.09399414    1.01999998    2.64000010
   17.20972252  144.60899353    1.00000000    2.64000010
   17.21305656  143.82400513    1.01999998    2.64000010
   17.21916771  143.82400513    1.01999998    2.64000010
   17.22305679  138.79800415    1.01999998    2.64000010
   17.22638893  134.98300171    1.01999998    2.64000010
   17.22972298  145.99200439    1.03999996    2.66000009
   17.23277855  147.67399597    1.03999996    2.64000010
   17.23611069  141.53700256    1.03999996    2.64000010
   17.23944473  147.00799561    1.03999996    2.64000010
   17.24166679  141.01800537    1.03999996    2.64000010
   17.24277878  148.03500366    1.03999996    2.64000010
   17.24611092  143.67199707    1.03999996    2.64000010
   17.24944496  141.43600464    1.03999996    2.64000010
   17.25250053  143.39700317    1.03999996    2.64000010
   17.25583267  146.17799377    1.03999996    2.64000010
   17.26194382  146.17799377    1.05999994    2.64000010
   17.26611137  139.96899414    1.07000005    2.64000010
   17.26916695  142.38299561    1.05999994    2.64000010
   17.27249908  141.37600708    1.07000005    2.64000010
   17.27499962  136.67999268    1.05999994    2.61999989
   17.27611160  141.87100220    1.05999994    2.64000010
   17.27944374  135.51899719    1.05999994    2.64000010
   17.28277779  138.81799316    1.05999994    2.64000010
   17.28583336  143.17700195    1.05999994    2.64000010
   17.28916550  146.36700439    1.05999994    2.61999989
   17.29249954  142.77400208    1.05999994    2.64000010
   17.29555511  141.10400391    1.05999994    2.64000010
   17.29888916  140.63200378    1.05999994    2.64000010
   17.30472183  140.63200378    1.05999994    2.64000010
   17.30888748  137.94900513    1.05999994    2.64000010
   17.31222153  139.63800049    1.05999994    2.64000010
   17.31527710  141.92500305    1.05999994    2.64000010
   17.31861115  137.21499634    1.03999996    2.61999989
   17.32166672  144.97399902    1.05999994    2.64000010
   17.32500076  136.50199890    1.05999994    2.64000010
   17.32833481  140.35800171    1.05999994    2.64000010
   17.33139038  144.26499939    1.05999994    2.64000010
   17.33472252  141.14999390    1.05999994    2.64000010
   17.33805656  139.17399597    1.05999994    2.64000010
   17.34111214  143.83299255    1.05999994    2.64000010
   17.34166718  136.03700256    1.05999994    2.64000010
   17.34749985  136.03700256    1.05999994    2.61999989
   17.35166740  138.21400452    1.07000005    2.64000010
   17.35499954  137.96800232    1.07000005    2.64000010
   17.35805511  144.67100525    1.09000003    2.64000010
   17.36138916  148.84300232    1.07000005    2.64000010
   17.36472321  140.86900330    1.07000005    2.64000010
   17.36777878  137.41700745    1.07000005    2.64000010
   17.37111092  136.24000549    1.05999994    2.64000010
   17.37444496  140.51499939    1.05999994    2.64000010
   17.37500000  133.10499573    1.05999994    2.64000010
   17.37805557  139.48599243    1.07000005    2.61999989
   17.38111115  136.93200684    1.07000005    2.64000010
   17.38444519  138.79200745    1.05999994    2.64000010
   17.39027786  138.79200745    1.03999996    2.64000010
   17.39444351  144.68299866    1.03999996    2.64000010
   17.39777756  142.86000061    1.03999996    2.61999989
   17.40111160  137.78500366    1.05999994    2.64000010
   17.40416718  137.97500610    1.05999994    2.64000010
   17.40749931  141.38099670    1.05999994    2.64000010
   17.40833282  137.46299744    1.03999996    2.64000010
   17.41110992  147.38299561    1.03999996    2.64000010
   17.41416550  144.72900391    1.03999996    2.61999989
   17.41749954  142.94099426    1.03999996    2.61999989
   17.42083359  144.08200073    1.03999996    2.64000010
   17.42388916  139.17199707    1.03999996    2.64000010
   17.42722130  136.22399902    1.03999996    2.64000010
   17.43333244  136.22399902    1.01999998    2.64000010
   17.43750000  139.64100647    1.01999998    2.61999989
   17.44055557  139.73599243    1.01999998    2.61999989
   17.44166565  132.52999878    1.01999998    2.61999989
   17.44444275  139.56300354    1.03999996    2.64000010
   17.44749832  142.67100525    1.03999996    2.61999989
   17.45083427  145.42599487    1.03999996    2.64000010
   17.45416832  140.55400085    1.01999998    2.64000010
   17.45722389  141.36799622    1.01999998    2.64000010
   17.46055603  139.64300537    1.01999998    2.64000010
   17.46389008  141.86700439    1.01999998    2.66000009
   17.46722221  145.22399902    1.01999998    2.66000009
   17.47027779  139.58700562    1.01999998    2.61999989
   17.47611237  139.58700562    1.03999996    2.64000010
   17.48027802  136.60800171    1.01999998    2.64000010
   17.48333359  143.37399292    1.01999998    2.64000010
   17.48666763  138.10200500    1.01999998    2.64000010
   17.48999977  139.46299744    1.01999998    2.61999989
   17.49305534  138.25300598    1.03999996    2.64000010
   17.49638939  143.77900696    1.03999996    2.61999989
   17.49972153  141.03999329    1.03999996    2.64000010
   17.50277710  135.67799377    1.03999996    2.64000010
   17.50611115  139.70599365    1.03999996    2.64000010
   17.50833321  136.16099548    1.03999996    2.61999989
   17.50972176  141.50399780    1.03999996    2.61999989
   17.51277733  139.67199707    1.03999996    2.64000010
   17.51888847  139.67199707    1.03999996    2.61999989
   17.52305603  146.45399475    1.03999996    2.61999989
   17.52638817  144.15199280    1.03999996    2.61999989
   17.52944374  143.96499634    1.01999998    2.61999989
   17.53277779  142.76199341    1.01999998    2.64000010
   17.53610992  146.13200378    1.03999996    2.64000010
   17.53916550  140.23300171    1.03999996    2.64000010
   17.54166603  143.87899780    1.03999996    2.64000010
   17.54277802  142.23500061    1.03999996    2.64000010
   17.54583359  144.82800293    1.03999996    2.64000010
   17.54916573  141.97399902    1.03999996    2.64000010
   17.55249977  139.61999512    1.03999996    2.61999989
   17.55555534  146.38999939    1.03999996    2.64000010
   17.56166649  146.38999939    1.03999996    2.64000010
   17.56583214  141.87399292    1.03999996    2.64000010
   17.56916809  156.68899536    1.03999996    2.61999989
   17.57250023  150.70300293    1.03999996    2.61999989
   17.57500076  127.79299927    1.03999996    2.61999989
   17.57611275  146.20199585    1.05999994    2.64000010
   17.57916832  149.98199463    1.05999994    2.61999989
   17.58250046  137.94900513    1.05999994    2.61999989
   17.58583450  145.88800049    1.05999994    2.61999989
   17.58889008  147.11099243    1.05999994    2.64000010
   17.59222221  141.85299683    1.05999994    2.61999989
   17.59555626  140.50999451    1.05999994    2.61999989
   17.59861183  145.33099365    1.05999994    2.61999989
   17.60472298  145.33099365    1.05999994    2.61999989
   17.60888863  143.18499756    1.05999994    2.59999990
   17.61194420  143.94000244    1.05999994    2.61999989
   17.61527824  145.74400330    1.05999994    2.61999989
   17.61833382  145.93200684    1.05999994    2.61999989
   17.62166595  145.24499512    1.05999994    2.64000010
   17.62500000  145.95100403    1.05999994    2.61999989
   17.62805557  147.15800476    1.05999994    2.61999989
   17.63138962  142.72700500    1.05999994    2.61999989
   17.63472176  140.16600037    1.05999994    2.61999989
   17.63777733  141.70199585    1.05999994    2.61999989
   17.64111137  140.86300659    1.05999994    2.61999989
   17.64166641  141.54299927    1.05999994    2.61999989
   17.64749908  141.54299927    1.07000005    2.61999989
   17.65166664  143.30999756    1.07000005    2.61999989
   17.65472221  141.80400085    1.09000003    2.61999989
   17.65805435  139.60899353    1.09000003    2.61999989
   17.66138840  145.40699768    1.09000003    2.61999989
   17.66444397  140.53300476    1.09000003    2.61999989
   17.66777802  141.21200562    1.09000003    2.61999989
   17.67111015  137.32400513    1.07000005    2.64000010
   17.67416573  140.27400208    1.07000005    2.61999989
   17.67499924  140.74800110    1.09000003    2.61999989
   17.67777634  142.76600647    1.07000005    2.61999989
   17.68111038  143.24899292    1.07000005    2.61999989
   17.68416595  142.58900452    1.07000005    2.61999989
   17.69027710  142.58900452    1.05999994    2.61999989
   17.69444275  141.33200073    1.05999994    2.61999989
   17.69777679  146.46899414    1.05999994    2.61999989
   17.70083427  145.18400574    1.05999994    2.61999989
   17.70416832  147.74299622    1.03999996    2.61999989
   17.70750046  146.38699341    1.05999994    2.61999989
   17.70833397  142.14999390    1.05999994    2.61999989
   17.71111107  141.94500732    1.05999994    2.61999989
   17.71444511  142.88900757    1.05999994    2.61999989
   17.71750069  138.44799805    1.05999994    2.61999989
   17.72083473  145.44200134    1.05999994    2.64000010
   17.72389030  144.42399597    1.03999996    2.61999989
   17.72722244  141.46699524    1.03999996    2.61999989
   17.73305511  141.46699524    1.03999996    2.61999989
   17.73722267  147.46800232    1.03999996    2.59999990
   17.74055672  146.87500000    1.03999996    2.61999989
   17.74166679  146.15800476    1.05999994    2.61999989
   17.74416733  139.15499878    1.07000005    2.61999989
   17.74749947  139.65199280    1.05999994    2.61999989
   17.75055504  147.69299316    1.05999994    2.61999989
   17.75388908  140.86199951    1.05999994    2.61999989
   17.75694466  142.35000610    1.05999994    2.61999989
   17.76027870  144.59500122    1.05999994    2.61999989
   17.76361084  147.78900146    1.05999994    2.61999989
   17.76666641  140.43899536    1.05999994    2.61999989
   17.77000046  138.21400452    1.05999994    2.61999989
   17.77611160  138.21400452    1.07000005    2.61999989
   17.78027725  140.41200256    1.05999994    2.61999989
   17.78333282  142.45199585    1.05999994    2.61999989
   17.78666687  145.60499573    1.05999994    2.61999989
   17.78972244  144.59100342    1.05999994    2.61999989
   17.79305458  143.23899841    1.03999996    2.61999989
   17.79638863  145.51199341    1.05999994    2.61999989
   17.79944420  140.30099487    1.05999994    2.61999989
   17.80277634  138.12800598    1.05999994    2.61999989
   17.80611038  140.69400024    1.05999994    2.61999989
   17.80861092  140.99699402    1.07000005    2.61999989
   17.80999947  144.71400452    1.07000005    2.61999989
   17.81305504  140.33799744    1.05999994    2.59999990
   17.81888962  140.33799744    1.05999994    2.61999989
   17.82305717  141.60600281    1.05999994    2.61999989
   17.82611275  139.72099304    1.05999994    2.61999989
   17.82944489  142.82600403    1.05999994    2.61999989
   17.83277893  141.24600220    1.05999994    2.61999989
   17.83583450  143.82200623    1.05999994    2.61999989
   17.83916664  143.76400757    1.05999994    2.61999989
   17.84166718  141.52699280    1.05999994    2.61999989
   17.84277916  136.76600647    1.05999994    2.59999990
   17.84611130  144.27600098    1.03999996    2.61999989
   17.84916687  143.64500427    1.01999998    2.64000010
   17.85250092  145.27499390    1.01999998    2.61999989
   17.85555649  145.53199768    1.01999998    2.61999989
   17.86166763  145.53199768    1.01999998    2.61999989
   17.86583328  137.49000549    1.01999998    2.61999989
   17.86916733  138.42199707    1.01999998    2.59999990
   17.87249947  144.50799561    1.03999996    2.61999989
   17.87500000  144.64500427    1.03999996    2.61999989
   17.87611198  130.51300049    1.01999998    2.59999990
   17.87944412  142.68899536    1.01999998    2.59999990
   17.88249969  137.97999573    1.03999996    2.59999990
   17.88583374  142.63000488    1.05999994    2.59999990
   17.88916588  150.04499817    1.03999996    2.61999989
   17.89222145  150.20199585    1.01999998    2.61999989
   17.89555550  142.86700439    1.01999998    2.61999989
   17.89861107  141.82200623    1.01999998    2.61999989
   17.90444374  141.82200623    1.01999998    2.61999989
   17.90861130  141.89199829    1.00000000    2.61999989
   17.91194344  138.94799805    1.01999998    2.61999989
   17.91527748  141.23300171    0.98000002    2.61999989
   17.91833305  143.45599365    0.98000002    2.61999989
   17.92166519  144.17900085    0.98000002    2.61999989
   17.92472076  142.65699768    1.00000000    2.59999990
   17.92805481  139.53900146    1.00000000    2.61999989
   17.93138885  141.55099487    1.00000000    2.61999989
   17.93444443  145.94599915    1.00000000    2.61999989
   17.93777657  141.92500305    1.00000000    2.61999989
   17.94111061  137.67500305    1.00000000    2.61999989
   17.94166565  141.53599548    1.00000000    2.61999989
   17.94749832  141.53599548    1.01999998    2.59999990
   17.95166779  144.58500671    1.01999998    2.61999989
   17.95472336  138.12800598    1.01999998    2.61999989
   17.95805550  145.51300049    1.01999998    2.61999989
   17.97555542  150.77099609    1.01999998    2.61999989
   17.97805595  138.57400513    1.01999998    2.59999990
   17.98111153  143.85099792    1.01999998    2.61999989
   17.98444557  144.03199768    1.01999998    2.61999989
   17.99055672  144.03199768    1.00000000    2.59999990
   17.99444389  159.23699951    1.00000000    2.61999989
   17.99777794  164.86000061    1.00000000    2.59999990
   18.00111198  176.75599670    1.01999998    2.61999989
   18.00416756  178.49000549    1.00000000    2.61999989
   18.00749969  148.60099792    1.01999998    2.61999989
   18.00888824  155.99400330    1.01999998    2.61999989
   18.01111031  147.61700439    1.00000000    2.61999989
   18.01444435  161.05299377    1.00000000    2.61999989
   18.01777840  158.96800232    1.00000000    2.59999990
   18.02083397  153.91999817    1.01999998    2.61999989
   18.02416611  161.39399719    1.03999996    2.61999989
   18.02750015  160.28700256    1.03999996    2.59999990
   18.03333282  160.28700256    1.05999994    2.59999990
   18.03750038  139.00599670    1.03999996    2.61999989
   18.04055595  143.44000244    1.05999994    2.61999989
   18.04222107  139.28599548    1.05999994    2.61999989
   18.04416656  141.92100525    1.03999996    2.59999990
   18.04749870  151.26199341    1.01999998    2.59999990
   18.05083275  141.72999573    1.01999998    2.61999989
   18.05388832  139.49400330    1.01999998    2.59999990
   18.05722237  158.15699768    1.01999998    2.59999990
   18.06055450  140.86700439    1.01999998    2.59999990
   18.06361008  143.88600159    1.01999998    2.59999990
   18.06694603  152.72000122    1.01999998    2.59999990
   18.07027817  142.19900513    1.01999998    2.61999989
   18.07611275  142.19900513    1.01999998    2.59999990
   18.08027840  150.46000671    1.05999994    2.59999990
   18.08333397  144.12600708    1.05999994    2.59999990
   18.08666801  142.97000122    1.05999994    2.59999990
   18.09000015  145.47700500    1.05999994    2.59999990
   18.09305573  142.80299377    1.03999996    2.59999990
   18.09638977  142.78300476    1.01999998    2.61999989
   18.09972191  146.32200623    1.01999998    2.59999990
   18.10277748  141.08700562    1.01999998    2.59999990
   18.10611153  144.86099243    1.01999998    2.59999990
   18.10888863  142.13299561    1.01999998    2.59999990
   18.10972214  140.78599548    1.01999998    2.59999990
   18.11305618  143.77900696    1.00000000    2.59999990
   18.11888885  143.77900696    1.00000000    2.61999989
   18.12305641  137.50799561    1.01999998    2.61999989
   18.12638855  146.90699768    1.00000000    2.59999990
   18.12944412  145.12500000    1.00000000    2.59999990
   18.13277817  146.55400085    1.00000000    2.59999990
   18.13611031  147.32600403    1.00000000    2.59999990
   18.13916588  144.65600586    1.01999998    2.59999990
   18.14222145  145.42100525    1.01999998    2.59999990
   18.14305496  142.43400574    1.01999998    2.59999990
   18.14611053  143.27400208    1.01999998    2.59999990
   18.14944458  144.34300232    1.01999998    2.59999990
   18.15277672  148.65699768    1.01999998    2.59999990
   18.15583229  148.99000549    1.01999998    2.61999989
   18.16194344  148.99000549    1.01999998    2.59999990
   18.16583252  143.32800293    1.01999998    2.59999990
   18.16916656  150.55900574    1.03999996    2.59999990
   18.17249870  147.28799438    1.03999996    2.59999990
   18.17555428  145.88900757    1.03999996    2.59999990
   18.17583275  142.32699585    1.03999996    2.59999990
   18.17916679  155.29400635    1.01999998    2.57999992
   18.18249893  141.61300659    1.00000000    2.59999990
   18.18555450  148.78999329    1.00000000    2.59999990
   18.18888855  143.33999634    1.01999998    2.59999990
   18.19222069  140.82000732    1.01999998    2.59999990
   18.19527626  144.40100098    1.01999998    2.59999990
   18.19861031  142.52200317    1.01999998    2.61999989
   18.20472336  142.52200317    1.01999998    2.59999990
   18.20888901  143.37800598    1.03999996    2.59999990
   18.20944595  146.92399597    1.01999998    2.59999990
   18.21250153  143.71899414    1.01999998    2.59999990
   18.21583366  141.70100403    1.03999996    2.61999989
   18.21888924  146.02299500    1.01999998    2.59999990
   18.22222328  139.02099609    1.01999998    2.59999990
   18.22555542  150.65899658    1.01999998    2.61999989
   18.22861099  143.63600159    1.03999996    2.59999990
   18.23194504  138.93699646    1.03999996    2.59999990
   18.23527718  152.37500000    1.03999996    2.57999992
   18.23833275  148.28199768    1.05999994    2.59999990
   18.24166679  146.42199707    1.05999994    2.59999990
   18.24222183  149.50300598    1.05999994    2.59999990
   18.24749947  149.50300598    1.03999996    2.59999990
   18.25166702  149.59599304    1.03999996    2.59999990
   18.25499916  148.95899963    1.03999996    2.59999990
   18.25805473  145.61900330    1.03999996    2.59999990
   18.26138878  150.36399841    1.03999996    2.59999990
   18.26472282  146.33700562    1.05999994    2.59999990
   18.26777840  149.81900024    1.07000005    2.59999990
   18.27111053  145.69900513    1.07000005    2.59999990
   18.27416611  143.42500305    1.09000003    2.57999992
   18.27555466  144.16999817    1.07000005    2.59999990
   18.27805519  152.05799866    1.09000003    2.57999992
   18.28111076  152.87800598    1.09000003    2.57999992
   18.28444481  147.51899719    1.09000003    2.59999990
   18.29027748  147.51899719    1.11000001    2.57999992
   18.29444313  143.30900574    1.11000001    2.59999990
   18.29777718  145.49699402    1.11000001    2.57999992
   18.30111122  150.15699768    1.11000001    2.57999992
   18.30416679  148.71400452    1.09000003    2.57999992
   18.30749893  146.74600220    1.09000003    2.59999990
   18.30888748  146.08200073    1.09000003    2.59999990
   18.31110954  152.45100403    1.09000003    2.57999992
   18.31416512  138.01600647    1.09000003    2.57999992
   18.31750107  145.05999756    1.09000003    2.57999992
   18.32083511  149.58700562    1.09000003    2.57999992
   18.32389069  146.72799683    1.07000005    2.57999992
   18.32722282  150.19799805    1.07000005    2.57999992
   18.33333397  150.19799805    1.07000005    2.57999992
   18.33722305  145.39700317    1.05999994    2.59999990
   18.34055710  151.45500183    1.05999994    2.59999990
   18.34222221  148.17700195    1.05999994    2.59999990
   18.34444427  148.65100098    1.05999994    2.57999992
   18.34749985  145.84100342    1.05999994    2.57999992
   18.35083389  146.13400269    1.07000005    2.57999992
   18.35388947  153.39300537    1.07000005    2.57999992
   18.35722351  142.41700745    1.07000005    2.57999992
   18.36055565  146.83000183    1.07000005    2.59999990
   18.36361122  157.31599426    1.07000005    2.59999990
   18.36694527  144.89700317    1.07000005    2.59999990
   18.37027740  152.77600098    1.09000003    2.57999992
   18.37611198  152.77600098    1.09000003    2.57999992
   18.38027763  151.94700623    1.09000003    2.59999990
   18.38333321  145.32000732    1.09000003    2.59999990
   18.38666725  149.29800415    1.09000003    2.59999990
   18.38972282  151.13800049    1.09000003    2.59999990
   18.39305496  150.87600708    1.09000003    2.57999992
   18.39638901  152.46000671    1.09000003    2.57999992
   18.39944458  146.88600159    1.13000000    2.59999990
   18.40277672  144.29600525    1.14999998    2.57999992
   18.40611076  147.49800110    1.14999998    2.57999992
   18.40888786  151.40400696    1.14999998    2.57999992
   18.40972137  147.88600159    1.14999998    2.57999992
   18.41277695  147.54699707    1.11000001    2.57999992
   18.41888809  147.54699707    1.09000003    2.57999992
   18.42305565  147.96099854    1.07000005    2.57999992
   18.42611122  152.02499390    1.09000003    2.55999994
   18.42944336  144.82400513    1.11000001    2.55999994
   18.43277740  142.37600708    1.11000001    2.57999992
   18.43583298  146.92100525    1.11000001    2.57999992
   18.43916512  147.03599548    1.11000001    2.57999992
   18.44222069  151.90199280    1.11000001    2.57999992
   18.44277763  142.26899719    1.11000001    2.57999992
   18.44583321  149.76800537    1.09000003    2.57999992
   18.44916534  144.91400146    1.09000003    2.57999992
   18.45250130  148.70100403    1.09000003    2.57999992
   18.45555687  153.63299561    1.13000000    2.57999992
   18.46166801  153.63299561    1.14999998    2.57999992
   18.46583366  148.30000305    1.14999998    2.57999992
   18.46916771  142.42700195    1.21000004    2.57999992
   18.47222328  153.55900574    1.19000006    2.57999992
   18.47555542  153.08900452    1.19000006    2.57999992
   18.47611237  152.85899353    1.19000006    2.57999992
   18.47916794  151.23399353    1.14999998    2.57999992
   18.48250008  151.48899841    1.19000006    2.57999992
   18.48583412  143.89999390    1.19000006    2.57999992
   18.48888969  153.06100464    1.16999996    2.57999992
   18.49222183  153.64700317    1.13000000    2.57999992
   18.49527740  151.17799377    1.11000001    2.57999992
   18.49861145  152.48599243    1.13000000    2.57999992
   18.50472260  152.48599243    1.13000000    2.57999992
   18.50861168  145.88200378    1.16999996    2.57999992
   18.50916672  141.16299438    1.16999996    2.57999992
   18.51250076  142.76499939    1.16999996    2.57999992
   18.51583290  146.88299561    1.16999996    2.57999992
   18.51888847  145.75000000    1.14999998    2.55999994
   18.52222252  138.94500732    1.16999996    2.57999992
   18.52527809  149.69200134    1.25000000    2.57999992
   18.52861023  143.45399475    1.38000000    2.57999992
   18.53194427  148.86900330    1.46000004    2.57999992
   18.53499985  141.40400696    1.48000002    2.55999994
   18.53833199  142.29699707    1.48000002    2.55999994
   18.54166603  149.83200073    1.46000004    2.57999992
   18.54249954  148.74200439    1.46000004    2.57999992
   18.54749870  148.74200439    1.48000002    2.55999994
   18.55166626  152.75799561    1.48000002    2.55999994
   18.55472183  142.05000305    1.39999998    2.57999992
   18.55805397  143.67900085    1.38000000    2.55999994
   18.56110954  149.54600525    1.30999994    2.57999992
   18.56444359  149.81700134    1.26999998    2.55999994
   18.56777954  157.33000183    1.26999998    2.57999992
   18.57111168  146.11099243    1.26999998    2.57999992
   18.57416725  152.16299438    1.28999996    2.55999994
   18.57583427  147.37399292    1.28999996    2.55999994
   18.57777786  149.98699951    1.28999996    2.55999994
   18.58111191  142.23599243    1.19000006    2.55999994
   18.58416748  143.01400757    1.21000004    2.55999994
   18.59027863  143.01400757    1.21000004    2.55999994
   18.59444427  143.72999573    1.21000004    2.57999992
   18.59749985  141.95500183    1.21000004    2.55999994
   18.60083389  145.41999817    1.19000006    2.57999992
   18.60416794  134.92700195    1.19000006    2.57999992
   18.60722351  139.34399414    1.21000004    2.57999992
   18.60916710  141.80099487    1.23000002    2.55999994
   18.61083412  147.62600708    1.23000002    2.57999992
   18.61416626  145.93699646    1.21000004    2.55999994
   18.61722183  149.99400330    1.21000004    2.55999994
   18.62055588  147.96299744    1.19000006    2.55999994
   18.62388992  158.38400269    1.16999996    2.57999992
   18.62694550  140.76600647    1.14999998    2.57999992
   18.63305473  140.76600647    1.13000000    2.57999992
   18.63722229  155.20100403    1.13000000    2.55999994
   18.64055634  151.71600342    1.11000001    2.57999992
   18.64249992  146.83200073    1.11000001    2.59999990
   18.64416695  146.16999817    1.11000001    2.59999990
   18.64749908  148.23199463    1.13000000    2.57999992
   18.65055466  151.85299683    1.14999998    2.57999992
   18.65388870  162.00000000    1.14999998    2.55999994
   18.65722275  148.31100464    1.13000000    2.55999994
   18.66027832  146.94700623    1.14999998    2.55999994
   18.66361046  144.07099915    1.13000000    2.55999994
   18.66666603  152.74800110    1.13000000    2.55999994
   18.67000008  151.90299988    1.14999998    2.55999994
   18.67611122  151.90299988    1.13000000    2.55999994
   18.68000031  145.80900574    1.13000000    2.55999994
   18.68333244  146.57200623    1.14999998    2.55999994
   18.68666649  155.60299683    1.13000000    2.55999994
   18.68972206  150.72099304    1.13000000    2.55999994
   18.69305420  149.95500183    1.13000000    2.55999994
   18.69638824  143.25700378    1.13000000    2.55999994
   18.69944382  148.91700745    1.14999998    2.55999994
   18.70277786  140.25599670    1.14999998    2.55999994
   18.70583344  146.10299683    1.14999998    2.55999994
   18.70916748  146.68499756    1.21000004    2.55999994
   18.70972252  148.65400696    1.21000004    2.55999994
   18.71277809  147.11999512    1.33000004    2.55999994
   18.71888924  147.11999512    1.28999996    2.55999994
   18.72305679  156.28599548    1.25000000    2.55999994
   18.72611237  145.83200073    1.25000000    2.55999994
   18.72944450  144.66099548    1.21000004    2.55999994
   18.73277855  144.30200195    1.13000000    2.55999994
   18.73583412  144.77900696    1.14999998    2.55999994
   18.73916626  145.30200195    1.14999998    2.55999994
   18.74222183  143.77699280    1.13000000    2.55999994
   18.74305534  141.37800598    1.13000000    2.55999994
   18.74611092  142.23599243    1.13000000    2.55999994
   18.74916649  141.27900696    1.13000000    2.55999994
   18.75250053  138.84500122    1.13000000    2.55999994
   18.75583267  135.65600586    1.14999998    2.55999994
   18.76166725  135.65600586    1.16999996    2.53999996
   18.76583290  140.53700256    1.19000006    2.55999994
   18.76888847  137.11300659    1.21000004    2.53999996
   18.77222252  135.68099976    1.21000004    2.53999996
   18.77555466  140.75999451    1.21000004    2.55999994
   18.77638817  137.07600403    1.21000004    2.55999994
   18.77916718  137.74499512    1.21000004    2.55999994
   18.78222275  142.41600037    1.23000002    2.55999994
   18.78555489  143.03700256    1.28999996    2.55999994
   18.78888893  147.06900024    1.30999994    2.53999996
   18.79194450  148.00900269    1.30999994    2.53999996
   18.79527664  147.48899841    1.30999994    2.55999994
   18.79833221  141.55099487    1.28999996    2.53999996
   18.80444336  141.55099487    1.33000004    2.55999994
   18.80861092  149.84100342    1.28999996    2.55999994
   18.80972099  144.85600281    1.28999996    2.55999994
   18.81250000  138.55299377    1.28999996    2.55999994
   18.81555557  146.62800598    1.30999994    2.53999996
   18.81888962  147.10899353    1.30999994    2.53999996
   18.82194519  147.50399780    1.30999994    2.53999996
   18.82527924  133.23599243    1.28999996    2.53999996
   18.82861137  138.52999878    1.25000000    2.53999996
   18.83166695  138.51899719    1.25000000    2.53999996
   18.83500099  142.85699463    1.25000000    2.53999996
   18.83833313  146.90699768    1.25000000    2.55999994
   18.84138870  147.86099243    1.25000000    2.55999994
   18.84305573  143.87699890    1.25000000    2.55999994
   18.84722328  143.87699890    1.25000000    2.55999994
   18.85138893  146.40100098    1.25000000    2.55999994
   18.85472298  146.62899780    1.25000000    2.53999996
   18.85805511  152.92900085    1.28999996    2.53999996
   18.86111069  148.19299316    1.33000004    2.53999996
   18.86444473  147.68200684    1.28999996    2.53999996
   18.86750031  151.67500305    1.28999996    2.53999996
   18.87083435  149.53599548    1.28999996    2.53999996
   18.87416649  148.08099365    1.26999998    2.53999996
   18.87638855  147.25199890    1.26999998    2.53999996
   18.87777710  153.67199707    1.26999998    2.53999996
   18.88083267  152.31100464    1.30999994    2.53999996
   18.88416672  153.46099854    1.33000004    2.53999996
   18.89027786  153.46099854    1.30999994    2.53999996
   18.89444351  144.32099915    1.28999996    2.53999996
   18.89749908  144.24600220    1.28999996    2.53999996
   18.90083313  145.96600342    1.28999996    2.51999998
   18.90416718  145.02799988    1.26999998    2.53999996
   18.90722275  144.92599487    1.26999998    2.53999996
   18.90972137  155.49800110    1.26999998    2.53999996
   18.91110992  144.93699646    1.26999998    2.53999996
   18.91416550  153.91900635    1.28999996    2.53999996
   18.91749954  152.88299561    1.30999994    2.51999998
   18.92055511  148.38400269    1.30999994    2.51999998
   18.92388916  146.03999329    1.30999994    2.51999998
   18.92722130  152.04299927    1.33000004    2.51999998
   18.93305397  152.04299927    1.33000004    2.51999998
   18.93722153  155.11599731    1.33000004    2.51999998
   18.94027710  148.64500427    1.33000004    2.51999998
   18.94305420  145.96600342    1.33000004    2.51999998
   18.94416618  149.99000549    1.33000004    2.51999998
   18.94722176  150.32499695    1.33000004    2.51999998
   18.95055580  144.11099243    1.33000004    2.53999996
   18.95361137  148.80999756    1.25000000    2.51999998
   18.95694542  153.09800720    1.23000002    2.51999998
   18.96027946  138.37300110    1.23000002    2.51999998
   18.96333504  153.49200439    1.23000002    2.51999998
   18.96666718  150.76199341    1.23000002    2.51999998
   18.97000122  152.20399475    1.23000002    2.51999998
   18.97611237  152.20399475    1.25000000    2.51999998
   18.99444389  149.03500366    1.30999994    2.51999998
   18.99777794  142.33399963    1.33000004    2.51999998
   19.00083351  148.59100342    1.30999994    2.51999998
   19.00416756  150.19000244    1.33000004    2.53999996
   19.00722313  152.90299988    1.34000003    2.50000000
   19.01055527  147.38499451    1.34000003    2.50000000
   19.01388931  149.83999634    1.34000003    2.50000000
   19.01888847  149.83999634    1.36000001    2.51999998
   19.02305603  139.42900085    1.34000003    2.51999998
   19.02611160  136.54100037    1.34000003    2.51999998
   19.02750015  151.94299316    1.34000003    2.51999998
   19.03000069  144.69799805    1.34000003    2.51999998
   19.03305435  151.11599731    1.34000003    2.51999998
   19.03638840  150.08900452    1.36000001    2.50000000
   19.03972244  152.50799561    1.34000003    2.51999998
   19.04277802  145.00799561    1.36000001    2.51999998
   19.04611015  140.30599976    1.36000001    2.51999998
   19.04916573  139.79100037    1.36000001    2.50000000
   19.05249977  149.56199646    1.34000003    2.51999998
   19.05583191  149.26400757    1.30999994    2.51999998
   19.06166649  149.26400757    1.28999996    2.51999998
   19.06583214  153.04499817    1.30999994    2.51999998
   19.06916809  152.89199829    1.30999994    2.50000000
   19.07222366  147.78799438    1.30999994    2.50000000
   19.07555580  153.88699341    1.30999994    2.50000000
   19.07888985  144.63900757    1.30999994    2.50000000
   19.08194542  150.74000549    1.30999994    2.51999998
   19.08527756  151.47300720    1.30999994    2.51999998
   19.08833313  141.96600342    1.30999994    2.51999998
   19.09166718  148.52900696    1.33000004    2.50000000
   19.09416771  148.18299866    1.33000004    2.50000000
   19.09555626  148.40800476    1.33000004    2.50000000
   19.09861183  152.13099670    1.34000003    2.50000000
   19.10444450  152.13099670    1.33000004    2.48000002
   19.10861206  151.07899475    1.30999994    2.50000000
   19.11194420  145.71000671    1.30999994    2.48000002
   19.11499977  148.96099854    1.34000003    2.50000000
   19.11833382  149.56300354    1.36000001    2.48000002
   19.12166595  149.85600281    1.36000001    2.50000000
   19.12472153  146.80599976    1.36000001    2.48000002
   19.12750053  145.99400330    1.34000003    2.50000000
   19.12861061  147.31900024    1.34000003    2.50000000
   19.13166618  146.44599915    1.36000001    2.50000000
   19.13500023  145.06100464    1.34000003    2.50000000
   19.13805580  145.61399841    1.34000003    2.50000000
   19.14138794  141.50799561    1.36000001    2.50000000
   19.14749908  141.50799561    1.36000001    2.50000000
   19.15138817  148.11199951    1.34000003    2.50000000
   19.15472221  141.76499939    1.34000003    2.50000000
   19.15805435  146.61099243    1.33000004    2.46000004
   19.16083336  153.05200195    1.34000003    2.48000002
   19.16166687  149.90600586    1.34000003    2.48000002
   19.16472244  154.97399902    1.33000004    2.50000000
   19.16805458  149.46299744    1.33000004    2.50000000
   19.17138863  152.76600647    1.33000004    2.48000002
   19.17444420  154.56100464    1.30999994    2.48000002
   19.17777634  147.61000061    1.33000004    2.48000002
   19.18083191  147.47500610    1.33000004    2.48000002
   19.18416595  153.75100708    1.36000001    2.48000002
   19.19027710  153.75100708    1.63000000    2.50000000
   19.19444275  143.05599976    1.88000000    2.48000002
   19.19749832  145.58700562    2.07999992    2.48000002
   19.20083427  149.32499695    2.05999994    2.48000002
   19.20416832  142.42500305    2.01999998    2.48000002
   19.20722389  153.08700562    1.98000002    2.48000002
   19.21055603  145.05599976    1.98000002    2.48000002
   19.21361160  146.06599426    1.80999994    2.50000000
   19.21694565  156.69799805    1.80999994    2.50000000
   19.22027779  148.14599609    1.78999996    2.48000002
   19.22333336  150.17599487    1.75000000    2.48000002
   19.22666740  144.88400269    1.85000002    2.48000002
   19.22750092  153.36500549    1.85000002    2.48000002
   19.23305511  153.36500549    1.85000002    2.48000002
   19.23722267  142.38099670    1.78999996    2.48000002
   19.24055672  143.05799866    1.78999996    2.48000002
   19.24361229  150.52900696    1.78999996    2.48000002
   19.24694443  149.34399414    1.76999998    2.48000002
   19.25027847  145.75399780    1.80999994    2.48000002
   19.25333405  156.29299927    1.78999996    2.48000002
   19.25666618  156.01100159    1.75000000    2.46000004
   19.26000023  164.96800232    1.71000004    2.48000002
   19.26083374  154.84599304    1.71000004    2.48000002
   19.26361084  144.65199280    1.69000006    2.48000002
   19.26666641  149.16999817    1.69000006    2.48000002
   19.27000046  154.03399658    1.71000004    2.48000002
   19.27583313  154.03399658    1.66999996    2.46000004
   19.28000069  146.44400024    1.69000006    2.46000004
   19.28333282  148.73500061    1.69000006    2.46000004
   19.28638840  148.58599854    1.66999996    2.48000002
   19.28972244  149.01800537    1.64999998    2.48000002
   19.29305458  155.53300476    1.63000000    2.48000002
   19.29416656  157.24699402    1.63000000    2.48000002
   19.29666710  156.22399902    1.64999998    2.46000004
   19.29972076  146.48800659    1.66999996    2.48000002
   19.30305481  148.35499573    1.66999996    2.48000002
   19.30638885  145.05799866    1.66999996    2.48000002
   19.30944443  152.54100037    1.66999996    2.46000004
   19.31277657  154.41400146    1.66999996    2.46000004
   19.31888962  154.41400146    1.66999996    2.46000004
   19.32277870  153.55799866    1.66999996    2.46000004
   19.32611275  146.80000305    1.66999996    2.46000004
   19.32750130  145.55599976    1.64999998    2.46000004
   19.32972336  158.40699768    1.64999998    2.46000004
   19.33277893  164.88999939    1.64999998    2.46000004
   19.33611107  159.78399658    1.63000000    2.46000004
   19.33944511  147.99699402    1.63000000    2.46000004
   19.34250069  152.18699646    1.63000000    2.46000004
   19.34583473  144.17199707    1.61000001    2.48000002
   19.34916687  147.71699524    1.60000002    2.46000004
   19.35222244  150.02999878    1.55999994    2.46000004
   19.35555649  155.67300415    1.55999994    2.46000004
   19.36166763  155.67300415    1.55999994    2.46000004
   19.36583328  152.23399353    1.55999994    2.46000004
   19.36888885  148.75799561    1.55999994    2.46000004
   19.37222290  150.09599304    1.58000004    2.46000004
   19.37555504  157.99299622    1.55999994    2.46000004
   19.37861061  164.62600708    1.60000002    2.46000004
   19.38194466  154.15299988    1.60000002    2.46000004
   19.38500023  151.01100159    1.61000001    2.46000004
   19.38833237  151.68699646    1.61000001    2.46000004
   19.39166641  152.95500183    1.61000001    2.46000004
   19.39416695  156.11999512    1.63000000    2.46000004
   19.39527702  161.24299622    1.63000000    2.46000004
   19.39833260  166.16499329    1.64999998    2.46000004
   19.40444374  166.16499329    1.71000004    2.44000006
   19.40861130  150.30999756    1.73000002    2.46000004
   19.41194344  144.30000305    1.73000002    2.46000004
   19.41499901  146.67599487    1.73000002    2.44000006
   19.41833305  152.58700562    1.73000002    2.44000006
   19.42138863  147.62699890    1.73000002    2.44000006
   19.42472076  151.61599731    1.71000004    2.44000006
   19.42749977  154.11099243    1.71000004    2.46000004
   19.42833328  149.12199402    1.71000004    2.44000006
   19.43138885  148.56500244    1.71000004    2.44000006
   19.43472099  149.00999451    1.71000004    2.44000006
   19.43805504  157.11799622    1.71000004    2.44000006
   19.44111061  147.25999451    1.73000002    2.46000004
   19.44749832  147.25999451    1.76999998    2.42000008
   19.45166779  154.23599243    1.75000000    2.44000006
   19.45472336  165.34100342    1.71000004    2.42000008
   19.45805550  160.27900696    1.66999996    2.44000006
   19.46083450  146.38200378    1.66999996    2.44000006
   19.46166801  160.05900574    1.66999996    2.44000006
   19.46472359  154.82400513    1.66999996    2.42000008
   19.46805573  155.59399414    1.64999998    2.42000008
   19.47138977  158.15100098    1.64999998    2.44000006
   19.47444534  155.69599915    1.64999998    2.44000006
   19.47777748  156.27400208    1.64999998    2.44000006
   19.48111153  156.54899597    1.64999998    2.44000006
   19.48416710  153.53999329    1.64999998    2.44000006
   19.49027824  153.53999329    1.63000000    2.44000006
   19.49416733  141.42900085    1.61000001    2.44000006
   19.49749947  150.42500305    1.64999998    2.44000006
   19.50083351  156.69200134    1.63000000    2.42000008
   19.50388908  149.88200378    1.63000000    2.44000006
   19.50722313  151.80700684    1.63000000    2.44000006
   19.51055527  150.32099915    1.63000000    2.44000006
   19.51361084  154.08000183    1.64999998    2.44000006
   19.51694489  158.19400024    1.63000000    2.42000008
   19.52027702  149.87699890    1.63000000    2.42000008
   19.52333260  148.19299316    1.63000000    2.42000008
   19.52666664  148.51600647    1.61000001    2.42000008
   19.52750015  162.65299988    1.61000001    2.42000008
   19.53305435  162.65299988    1.61000001    2.42000008
   19.53722191  163.39399719    1.61000001    2.44000006
   19.54027748  160.15199280    1.58000004    2.42000008
   19.54361153  155.83099365    1.58000004    2.40000010
   19.54694366  163.98300171    1.58000004    2.42000008
   19.54999924  164.00799561    1.58000004    2.42000008
   19.55333328  160.43899536    1.58000004    2.42000008
   19.55638885  159.28300476    1.58000004    2.42000008
   19.55972099  157.17399597    1.58000004    2.42000008
   19.56083298  164.53900146    1.58000004    2.42000008
   19.56333351  156.82200623    1.60000002    2.42000008
   19.56638718  155.69900513    1.60000002    2.42000008
   19.56972313  157.27000427    1.58000004    2.40000010
   19.57583427  157.27000427    1.60000002    2.40000010
   19.58000183  154.19400024    1.60000002    2.42000008
   19.58333397  151.87899780    1.60000002    2.42000008
   19.58638954  161.35800171    1.61000001    2.40000010
   19.58972359  152.13999939    1.63000000    2.40000010
   19.59305573  152.15400696    1.61000001    2.40000010
   19.59416771  153.35699463    1.61000001    2.40000010
   19.59666824  154.58200073    1.61000001    2.40000010
   19.59972191  155.22300720    1.61000001    2.40000010
   19.60305595  154.07200623    1.61000001    2.40000010
   19.60639000  158.24299622    1.63000000    2.40000010
   19.60944557  153.95300293    1.63000000    2.40000010
   19.61277771  150.42999268    1.63000000    2.40000010
   19.61861038  150.42999268    1.64999998    2.40000010
   19.62277794  163.50599670    1.66999996    2.40000010
   19.62611198  161.33700562    1.66999996    2.40000010
   19.62750053  157.80999756    1.66999996    2.40000010
   19.62972260  167.03700256    1.66999996    2.40000010
   19.63305473  158.03100586    1.66999996    2.39000010
   19.63611031  167.06599426    1.66999996    2.39000010
   19.63944435  166.20199585    1.64999998    2.40000010
   19.64277840  160.47599792    1.64999998    2.40000010
   19.64583397  165.23399353    1.64999998    2.39000010
   19.64916611  177.62399292    1.64999998    2.39000010
   19.65222168  197.18299866    1.64999998    2.39000010
   19.65555573  203.91799927    1.63000000    2.39000010
   19.66166687  203.91799927    1.63000000    2.39000010
   19.66555595  268.93701172    1.64999998    2.39000010
   19.66888809  282.48300171    1.64999998    2.36999989
   19.67222214  153.96200562    1.66999996    2.36999989
   19.67527771  185.02499390    1.66999996    2.39000010
   19.67860985   -1.00000000    1.69000006    2.39000010
   19.68194389   -1.00000000    1.69000006    2.39000010
   19.68499947   -1.00000000    1.71000004    2.39000010
   19.68833160   -1.00000000    1.69000006    2.39000010
   19.69138718   -1.00000000    1.69000006    2.36999989
   19.69527626   -1.00000000    1.69000006    2.36999989
   19.69833183   -1.00000000    1.66999996    2.36999989
   19.70833397   -1.00000000    1.66999996    2.36999989
   19.71166801   -1.00000000    1.66999996    2.36999989
   19.71500015   -1.00000000    1.66999996    2.36999989
   19.71805573   -1.00000000    1.66999996    2.36999989
   19.72138977   -1.00000000    1.66999996    2.36999989
   19.72472191   -1.00000000    1.69000006    2.36999989
   19.72833443   -1.00000000    1.71000004    2.36999989
   19.73166656   -1.00000000    1.69000006    2.36999989
   19.73472214   -1.00000000    1.69000006    2.36999989
   19.73805618   -1.00000000    1.69000006    2.34999990
   19.74138832   -1.00000000    1.66999996    2.36999989
   19.75138855   -1.00000000    1.69000006    2.36999989
   19.75444412   -1.00000000    1.69000006    2.36999989
   19.75777817   -1.00000000    1.69000006    2.36999989
   19.76138878   -1.00000000    1.69000006    2.36999989
   19.76444435   -1.00000000    1.69000006    2.36999989
   19.76777840   -1.00000000    1.69000006    2.36999989
   19.77083397   -1.00000000    1.69000006    2.36999989
   19.77416611   -1.00000000    1.69000006    2.36999989
   19.77750015   -1.00000000    1.69000006    2.36999989
   19.78055573   -1.00000000    1.69000006    2.36999989
   19.78388786   -1.00000000    1.69000006    2.36999989
   19.79416656   -1.00000000    1.69000006    2.34999990
   19.79777718   -1.00000000    1.69000006    2.34999990
   19.80111122   -1.00000000    1.69000006    2.36999989
   19.80416679   -1.00000000    1.69000006    2.34999990
   19.80749893   -1.00000000    1.66999996    2.36999989
   19.81083298   -1.00000000    1.66999996    2.34999990
   19.81388855   -1.00000000    1.66999996    2.34999990
   19.81722260   -1.00000000    1.66999996    2.34999990
   19.82027817   -1.00000000    1.66999996    2.34999990
   19.82361221   -1.00000000    1.66999996    2.34999990
   19.82694626   -1.00000000    1.69000006    2.32999992
   19.83694458   -1.00000000    1.69000006    2.34999990
   19.84027863   -1.00000000    1.69000006    2.34999990
   19.84333420   -1.00000000    1.69000006    2.32999992
   19.84666824   -1.00000000    1.66999996    2.32999992
   19.85000038   -1.00000000    1.66999996    2.34999990
   19.85305595   -1.00000000    1.66999996    2.32999992
   19.85639000   -1.00000000    1.66999996    2.32999992
   19.85944557   -1.00000000    1.69000006    2.32999992
   19.86305618   -1.00000000    1.69000006    2.32999992
   19.86638832   -1.00000000    1.69000006    2.32999992
   19.86944389   -1.00000000    1.71000004    2.32999992
   19.87972260   -1.00000000    1.75000000    2.32999992
   19.88305473   -1.00000000    1.75000000    2.32999992
   19.88638878   -1.00000000    1.75000000    2.30999994
   19.88944435   -1.00000000    1.75000000    2.30999994
   19.89277840   -1.00000000    1.75000000    2.30999994
   19.89638901   -1.00000000    1.76999998    2.30999994
   19.89972115   -1.00000000    1.75000000    2.30999994
   19.90277672   -1.00000000    1.75000000    2.30999994
   19.90611076   -1.00000000    1.75000000    2.32999992
   19.90944481   -1.00000000    1.76999998    2.32999992
   19.91250038   -1.00000000    1.76999998    2.32999992
   19.92277718   -1.00000000    1.76999998    2.32999992
   19.92583275   -1.00000000    1.78999996    2.30999994
   19.92944336   -1.00000000    1.78999996    2.30999994
   19.93277740   -1.00000000    1.80999994    2.30999994
   19.93583298   -1.00000000    1.78999996    2.30999994
   19.93916512   -1.00000000    1.78999996    2.30999994
   19.94249916   -1.00000000    1.78999996    2.30999994
   19.94555473   -1.00000000    1.78999996    2.30999994
   19.94888878   -1.00000000    1.78999996    2.30999994
   19.95194435   -1.00000000    1.78999996    2.30999994
   19.95527840   -1.00000000    1.83000004    2.30999994
   19.96555710   -1.00000000    1.83000004    2.30999994
   19.96861076   -1.00000000    1.85000002    2.28999996
   19.97194481   -1.00000000    1.83000004    2.30999994
   19.97527885   -1.00000000    1.85000002    2.28999996
   19.97833443   -1.00000000    1.86000001    2.28999996
   19.98166656   -1.00000000    1.86000001    2.30999994
   19.98500061   -1.00000000    1.86000001    2.28999996
   19.98805618   -1.00000000    1.86000001    2.28999996
   19.99138832   -1.00000000    1.89999998    2.28999996
   19.99444389   -1.00000000    1.88000000    2.28999996
   20.01972198   -1.00000000    1.91999996    2.26999998
   20.02277756   -1.00000000    1.91999996    2.26999998
   20.02611160   -1.00000000    1.91999996    2.26999998
   20.02972221   -1.00000000    1.94000006    2.26999998
   20.03277779   -1.00000000    1.94000006    2.26999998
   20.03610992   -1.00000000    1.94000006    2.26999998
   20.03944397   -1.00000000    1.98000002    2.26999998
   20.04249954   -1.00000000    2.00000000    2.26999998
   20.04583359   -1.00000000    2.00000000    2.26999998
   20.04888916   -1.00000000    2.00000000    2.26999998
   20.05222130   -1.00000000    2.01999998    2.26999998
   20.06250000   -1.00000000    2.01999998    2.25000000
   20.06555557   -1.00000000    2.01999998    2.25000000
   20.06888962   -1.00000000    2.01999998    2.25000000
   20.07222366   -1.00000000    2.00000000    2.25000000
   20.07527924   -1.00000000    2.00000000    2.25000000
   20.07861137   -1.00000000    2.01999998    2.26999998
   20.08194542   -1.00000000    2.00000000    2.25000000
   20.08500099   -1.00000000    2.00000000    2.25000000
   20.08833313   -1.00000000    2.00000000    2.26999998
   20.09138870   -1.00000000    1.98000002    2.25000000
   20.09472275   -1.00000000    1.98000002    2.25000000
   20.10527802   -1.00000000    2.00000000    2.25000000
   20.10861206   -1.00000000    2.00000000    2.25000000
   20.11166763   -1.00000000    2.00000000    2.25000000
   20.11499977   -1.00000000    2.01999998    2.25000000
   20.11833382   -1.00000000    2.01999998    2.25000000
   20.12138939   -1.00000000    2.01999998    2.25000000
   20.12472153   -1.00000000    2.03999996    2.25000000
   20.12777710   -1.00000000    2.03999996    2.23000002
   20.13138962   -1.00000000    2.03999996    2.25000000
   20.13472176   -1.00000000    2.03999996    2.23000002
   20.13805580   -1.00000000    2.05999994    2.23000002
   20.14805603   -1.00000000    2.05999994    2.23000002
   20.15138817   -1.00000000    2.05999994    2.23000002
   20.15472221   -1.00000000    2.05999994    2.23000002
   20.15777779   -1.00000000    2.05999994    2.23000002
   20.16110992   -1.00000000    2.05999994    2.23000002
   20.16472244   -1.00000000    2.05999994    2.23000002
   20.16805458   -1.00000000    2.07999992    2.25000000
   20.17138863   -1.00000000    2.09999990    2.23000002
   20.17444420   -1.00000000    2.09999990    2.23000002
   20.17777634   -1.00000000    2.09999990    2.23000002
   20.18111038   -1.00000000    2.09999990    2.23000002
   20.19111061   -1.00000000    2.09999990    2.23000002
   20.19416618   -1.00000000    2.09999990    2.21000004
   20.19777679   -1.00000000    2.09999990    2.23000002
   20.20111275   -1.00000000    2.11999989    2.21000004
   20.20444489   -1.00000000    2.13000011    2.21000004
   20.20750046   -1.00000000    2.13000011    2.23000002
   20.21083450   -1.00000000    2.13000011    2.23000002
   20.21416664   -1.00000000    2.15000010    2.21000004
   20.21722221   -1.00000000    2.13000011    2.21000004
   20.22055626   -1.00000000    2.13000011    2.21000004
   20.22361183   -1.00000000    2.15000010    2.21000004
   20.23388863   -1.00000000    2.15000010    2.19000006
   20.23694420   -1.00000000    2.15000010    2.19000006
   20.24027824   -1.00000000    2.15000010    2.19000006
   20.24361229   -1.00000000    2.17000008    2.19000006
   20.24666786   -1.00000000    2.17000008    2.19000006
   20.25000000   -1.00000000    2.17000008    2.19000006
   20.25333405   -1.00000000    2.19000006    2.19000006
   20.25638962   -1.00000000    2.21000004    2.21000004
   20.25972176   -1.00000000    2.21000004    2.19000006
   20.26305580   -1.00000000    2.21000004    2.19000006
   20.26638794   -1.00000000    2.19000006    2.19000006
   20.27666664   -1.00000000    2.19000006    2.19000006
   20.28000069   -1.00000000    2.19000006    2.17000008
   20.28305435   -1.00000000    2.19000006    2.17000008
   20.28638840   -1.00000000    2.19000006    2.17000008
   20.28972244   -1.00000000    2.19000006    2.17000008
   20.29277802   -1.00000000    2.21000004    2.17000008
   20.29638863   -1.00000000    2.21000004    2.17000008
   20.29972076   -1.00000000    2.23000002    2.17000008
   20.30305481   -1.00000000    2.21000004    2.17000008
   20.30611038   -1.00000000    2.23000002    2.17000008
   20.30944443   -1.00000000    2.23000002    2.17000008
   20.31944466   -1.00000000    2.25000000    2.15000010
   20.32277870   -1.00000000    2.25000000    2.17000008
   20.32583427   -1.00000000    2.25000000    2.15000010
   20.32944489   -1.00000000    2.25000000    2.15000010
   20.33277893   -1.00000000    2.25000000    2.17000008
   20.33611107   -1.00000000    2.25000000    2.15000010
   20.33916664   -1.00000000    2.25000000    2.15000010
   20.34250069   -1.00000000    2.25000000    2.15000010
   20.34555626   -1.00000000    2.25000000    2.15000010
   20.34889030   -1.00000000    2.25000000    2.15000010
   20.35222244   -1.00000000    2.23000002    2.15000010
   20.36222267   -1.00000000    2.23000002    2.15000010
   20.36555672   -1.00000000    2.21000004    2.13000011
   20.36888885   -1.00000000    2.23000002    2.13000011
   20.37194443   -1.00000000    2.23000002    2.15000010
   20.37527847   -1.00000000    2.23000002    2.13000011
   20.37861061   -1.00000000    2.25000000    2.15000010
   20.38166618   -1.00000000    2.25000000    2.13000011
   20.38500023   -1.00000000    2.25000000    2.13000011
   20.38805580   -1.00000000    2.26999998    2.13000011
   20.39138794   -1.00000000    2.28999996    2.13000011
   20.39472198   -1.00000000    2.28999996    2.13000011
   20.40527725   -1.00000000    2.30999994    2.11999989
   20.40833282   -1.00000000    2.30999994    2.11999989
   20.41166687   -1.00000000    2.30999994    2.11999989
   20.41499901   -1.00000000    4.90999985    0.40000001
   20.41805458   -1.00000000    0.70999998    0.40000001
   20.42138863   -1.00000000    0.44000000    0.15000001
   20.42444420   -1.00000000    0.34000000    0.05000000
   20.42777634   -1.00000000    0.34000000    0.05000000
   20.43111038   -1.00000000    0.34000000    0.05000000
   20.43444443   -1.00000000    0.34000000    0.05000000
   20.43777657   -1.00000000    0.34000000    0.05000000
   20.44805527   -1.00000000    0.34000000    0.05000000
   20.45138931   -1.00000000    0.34000000    0.05000000
   20.45444489   -1.00000000    0.34000000    0.05000000
   20.45777893   -1.00000000    0.34000000    0.05000000
   20.46083450   -1.00000000    0.34000000    0.05000000
   20.46444511   -1.00000000    0.34000000    0.05000000
   20.46777916   -1.00000000    0.34000000    0.05000000
   20.47111130   -1.00000000    0.34000000    0.05000000
   20.47416687   -1.00000000    0.34000000    0.05000000
   20.47750092   -1.00000000    0.34000000    0.05000000
   20.48083305   -1.00000000    0.34000000    0.05000000
   20.49083328   -1.00000000    0.34000000    0.05000000
   20.49416733   -1.00000000    0.34000000    0.05000000
   20.49749947   -1.00000000    0.34000000    0.05000000
   20.50083351   -1.00000000    0.34000000    0.05000000
   20.50416756   -1.00000000    0.34000000    0.05000000
   20.50722313   -1.00000000    0.34000000    0.05000000
   20.51055527   -1.00000000    0.34000000    0.05000000
   20.51388931   -1.00000000    0.34000000    0.05000000
   20.51694489   -1.00000000    0.34000000    0.05000000
   20.52027702   -1.00000000    0.34000000    0.05000000
   20.52333260   -1.00000000    0.34000000    0.05000000
   20.53388786   -1.00000000    0.34000000    0.05000000
   20.53694344   -1.00000000    0.34000000    0.05000000
   20.54027748   -1.00000000    0.34000000    0.05000000
   20.54333305   -1.00000000    0.34000000    0.05000000
   20.54666710   -1.00000000    0.34000000    0.05000000
   20.54999924   -1.00000000    0.34000000    0.05000000
   20.55305481   -1.00000000    0.34000000    0.05000000
   20.55638885   -1.00000000    0.34000000    0.05000000
   20.55944443   -1.00000000    0.34000000    0.05000000
   20.56305504   -1.00000000    0.34000000    0.05000000
   20.56638718   -1.00000000    0.34000000    0.05000000
   20.57666779   -1.00000000    0.34000000    0.05000000
   20.57972336   -1.00000000    0.34000000    0.05000000
   20.58305550   -1.00000000    0.34000000    0.05000000
   20.58638954   -1.00000000    0.34000000    0.05000000
   20.58972359   -1.00000000    0.34000000    0.05000000
   20.59305573   -1.00000000    0.34000000    0.05000000
   20.59638977   -1.00000000    0.34000000    0.05000000
   20.59972191   -1.00000000    0.34000000    0.05000000
   20.60305595   -1.00000000    0.34000000    0.05000000
   20.60611153   -1.00000000    0.34000000    0.05000000
   20.60944557   -1.00000000    0.34000000    0.05000000
   20.61944389   -1.00000000    0.34000000    0.05000000
   20.62277794   -1.00000000    0.34000000    0.05000000
   20.62583351   -1.00000000    0.34000000    0.05000000
   20.62944412   -1.00000000    0.34000000    0.05000000
