    HOUR (UT)   FLARE FACTOR    SKY TESTER    SUN TESTER
   11.00305557   -1.00000000   -1.00000000   -1.00000000
   11.04583359  215.48599243    4.90999985    2.34999990
   11.04916668  199.68099976    4.90999985    2.26999998
   11.05222225  211.10400391    4.90999985    2.32999992
   11.05555534  220.78700256    4.90999985    2.25000000
   11.05888939  185.77200317    4.90999985    2.28999996
   11.06194496  193.42100525    4.90999985    2.39000010
   11.06611156  193.42100525    4.90999985    2.42000008
   11.07027817  200.85299683    4.90999985    2.34999990
   11.07361126  191.39599609    4.90999985    2.36999989
   11.07666683  185.62899780    4.90999985    2.36999989
   11.07916641  211.46600342    4.90999985    2.36999989
   11.08055592  197.90800476    4.90999985    2.40000010
   11.08361053  215.16799927    4.90999985    2.39000010
   11.08694458  207.69700623    4.90999985    2.32999992
   11.09000015  217.84899902    4.90999985    2.34999990
   11.09333324  194.42900085    4.90999985    2.36999989
   11.09666634  194.99200439    4.80000019    2.42000008
   11.09972191  222.58200073    4.21999979    2.44000006
   11.10305595  211.48800659    3.76999998    2.44000006
   11.10888958  211.48800659    3.75000000    2.44000006
   11.11305618  200.61500549    4.17999983    2.44000006
   11.11638927  194.27299500    4.61999989    2.39000010
   11.11999989  205.67500305    4.90999985    2.42000008
   11.12305546  203.71499634    4.90999985    2.34999990
   11.12638855  250.93299866    4.90999985    2.30999994
   11.12944412  263.41598511    4.90999985    2.30999994
   11.13277817  219.44200134    4.90999985    2.25000000
   11.13611126  226.75999451    4.90999985    2.28999996
   11.13916683  195.90299988    4.90999985    2.34999990
   11.14249992  223.05999756    4.90999985    2.42000008
   11.14583302  209.69099426    4.90999985    2.30999994
   11.14611053  213.39199829    4.90999985    2.30999994
   11.15194416  213.39199829    4.90999985    2.36999989
   11.15583324  217.88699341    4.90999985    2.44000006
   11.15916634  276.70098877    4.90999985    2.39000010
   11.16249943  230.08200073    4.90999985    2.23000002
   11.16555500  245.06300354    4.90999985    2.44000006
   11.16916656  224.31900024    4.90999985    2.39000010
   11.17250061  215.91999817    4.90999985    2.42000008
   11.17555618  207.02799988    4.90999985    2.40000010
   11.17888927  204.89999390    4.90999985    2.44000006
   11.17972279  200.43099976    4.90999985    2.44000006
   11.18249989  216.35400391    4.80000019    2.48000002
   11.18583298  196.83000183    4.80999994    2.36999989
   11.18888855  204.33399963    4.90999985    2.34999990
   11.19472218  204.33399963    4.90999985    2.46000004
   11.19888878  230.02099609    4.90999985    2.34999990
   11.20194435  208.88600159    4.90999985    2.30999994
   11.20527744  195.79200745    4.90999985    2.40000010
   11.20861053  211.36000061    4.90999985    2.46000004
   11.21166611  264.93798828    4.90999985    2.34999990
   11.21277714  295.45401001    4.90999985    2.36999989
   11.21527767  313.11898804    4.90999985    2.15000010
   11.21861076  309.65200806    4.90999985    2.19000006
   11.22166634  265.39999390    4.90999985    2.19000006
   11.22499943  282.67498779    4.90999985    2.17000008
   11.22833252  294.78201294    4.90999985    2.15000010
   11.23138809  263.02700806    4.90999985    2.05999994
   11.23750019  263.02700806    4.90999985    2.23000002
   11.24166679  241.43800354    4.90999985    2.34999990
   11.24499989  233.95599365    4.90999985    2.32999992
   11.24638939  232.35400391    4.90999985    2.36999989
   11.24833393  277.48001099    4.90999985    2.34999990
   11.25166702  277.83801270    4.90999985    2.21000004
   11.25472260  233.99000549    4.90999985    2.32999992
   11.25805569  206.50300598    4.90999985    2.42000008
   11.26138878  193.61000061    4.90999985    2.44000006
   11.26444435  233.32400513    4.90999985    2.30999994
   11.26777744  237.66900635    4.90999985    2.28999996
   11.27111053  308.30599976    4.90999985    2.21000004
   11.27416611  234.68099976    4.90999985    2.21000004
   11.28027725  234.68099976    4.90999985    2.28999996
   11.28444481  248.07499695    4.90999985    2.30999994
   11.28777790  226.21499634    4.90999985    2.32999992
   11.29083347  365.80099487    4.90999985    2.30999994
   11.29416752  181.17300415    4.90999985    2.15000010
   11.29750061  248.54499817    4.90999985    1.91999996
   11.30055618  276.57101440    4.90999985    2.05999994
   11.30388927  288.58801270    4.90999985    2.23000002
   11.30722237  301.29901123    4.90999985    2.09999990
   11.31027794  256.00201416    4.90999985    2.15000010
   11.31305599  229.49499512    4.90999985    2.25000000
   11.31388950  286.98001099    4.90999985    2.28999996
   11.31722260  211.33700562    4.90999985    2.32999992
   11.32333374  211.33700562    4.90999985    2.44000006
   11.32722187  210.16200256    4.90999985    2.44000006
   11.33055592  218.58799744    4.90999985    2.42000008
   11.33388901  206.99800110    4.90999985    2.42000008
   11.33694458  239.42799377    4.90999985    2.42000008
   11.34027767  243.72500610    4.90999985    2.32999992
   11.34361076  244.24600220    4.90999985    2.23000002
   11.34638882  251.40800476    4.90999985    2.28999996
   11.34694386  225.76199341    4.90999985    2.28999996
   11.35027790  215.83799744    4.90999985    2.46000004
   11.35388947  204.67399597    4.90999985    2.44000006
   11.35694504  209.29600525    4.90999985    2.48000002
   11.36027813  204.09899902    4.90999985    2.46000004
   11.36611176  204.09899902    4.90999985    2.50000000
   11.36999989  230.51600647    4.80999994    2.53999996
   11.37333393  232.00799561    4.55999994    2.46000004
   11.37666702  208.15199280    4.90999985    2.50000000
   11.37944412  225.13999939    4.90999985    2.51999998
   11.38027763  216.43200684    4.90999985    2.48000002
   11.38333321  234.78100586    4.90999985    2.50000000
   11.38666630  212.75000000    4.90999985    2.46000004
   11.39000034  198.42300415    4.90999985    2.50000000
   11.39305496  191.02900696    4.23999977    2.51999998
   11.39638901  192.33900452    3.28999996    2.55999994
   11.39972210  197.28300476    2.93000007    2.53999996
   11.40277767  221.52900696    3.50000000    2.53999996
   11.40888882  221.52900696    4.90999985    2.48000002
   11.41305542  203.06799316    4.90999985    2.42000008
   11.41611099  218.73800659    4.90999985    2.50000000
   11.41944504  199.56500244    4.90999985    2.46000004
   11.42250061  208.73399353    4.90999985    2.44000006
   11.42583370  197.70100403    4.88999987    2.55999994
   11.42916679  226.28999329    4.26000023    2.51999998
   11.43222237  208.28999329    4.01999998    2.46000004
   11.43555546  199.60099792    4.13999987    2.50000000
   11.43888855  190.90600586    3.41000009    2.55999994
   11.44194412  177.91600037    2.15000010    2.55999994
   11.44527817  198.09500122    1.76999998    2.57999992
   11.44611073  183.80299377    1.66999996    2.57999992
   11.45166683  183.80299377    1.09000003    2.57999992
   11.45583344  193.68299866    0.94000000    2.57999992
   11.45888901  192.13299561    0.95999998    2.57999992
   11.46222210  202.64599609    1.34000003    2.57999992
   11.46555519  201.53399658    1.46000004    2.55999994
   11.46861076  200.51699829    1.53999996    2.55999994
   11.47194386  196.29699707    1.39999998    2.59999990
   11.47527695  182.88099670    1.23000002    2.57999992
   11.47833252  206.00100708    1.23000002    2.59999990
   11.47944355  206.89700317    1.23000002    2.59999990
   11.48194408  193.50199890    1.26999998    2.59999990
   11.48527813  200.96800232    1.28999996    2.59999990
   11.48833370  195.85400391    1.38000000    2.59999990
   11.49444485  195.85400391    1.34000003    2.59999990
   11.49861145  189.31599426    1.66999996    2.59999990
   11.50194454  196.12100220    1.73000002    2.59999990
   11.50500011  180.34500122    1.91999996    2.59999990
   11.50833321  209.30700684    2.84999990    2.61999989
   11.51166630  191.11099243    3.39000010    2.50000000
   11.51277733  192.67999268    3.34999990    2.51999998
   11.51527786  188.37199402    3.30999994    2.53999996
   11.51861095  184.62800598    3.11999989    2.53999996
   11.52166653  186.44999695    3.26999998    2.59999990
   11.52499962  218.86900330    4.59999990    2.59999990
   11.52805519  190.09300232    4.80000019    2.51999998
   11.53138828  180.28199768    4.76000023    2.51999998
   11.53750038  180.28199768    2.89000010    2.53999996
   11.54166698  190.35299683    2.23000002    2.61999989
   11.54472256  183.29100037    2.21000004    2.61999989
   11.54611111  176.01199341    2.28999996    2.61999989
   11.54833412  189.67500305    2.46000004    2.61999989
   11.55166721  183.05099487    3.21000004    2.51999998
   11.55472279  211.63400269    3.80999994    2.55999994
   11.55805588  198.72700500    3.72000003    2.53999996
   11.56138897  182.73899841    3.26999998    2.57999992
   11.56444454  177.22399902    3.14000010    2.59999990
   11.56777763  171.50100708    2.98000002    2.61999989
   11.57111073  193.83999634    3.55999994    2.61999989
   11.57416630  203.04499817    4.17999983    2.57999992
   11.58027744  203.04499817    4.90999985    2.57999992
   11.58444405  186.69299316    4.90999985    2.50000000
   11.58749962  180.64700317    4.90999985    2.64000010
   11.59083271  180.88900757    4.78000021    2.64000010
   11.59416676  189.68299866    4.84999990    2.48000002
   11.59722233  197.50199890    4.90999985    2.55999994
   11.60055637  207.69599915    4.90999985    2.55999994
   11.60388947  177.91499329    4.82999992    2.55999994
   11.60694504  178.55400085    4.32999992    2.57999992
   11.61027813  180.22200012    3.45000005    2.64000010
   11.61305618  177.26899719    3.14000010    2.59999990
   11.61388969  172.74000549    3.01999998    2.61999989
   11.61722279  178.91799927    2.69000006    2.61999989
   11.62305546  178.91799927    2.69000006    2.64000010
   11.62722206  199.59899902    2.80999994    2.59999990
   11.63027763  170.96499634    3.11999989    2.53999996
   11.63361073  174.21400452    3.16000009    2.57999992
   11.63694477  173.25300598    3.75000000    2.61999989
   11.64000034  187.59399414    3.86999989    2.57999992
   11.64333344  183.52600098    3.97000003    2.50000000
   11.64611053  194.58000183    3.93000007    2.51999998
   11.64694405  187.80499268    3.78999996    2.55999994
   11.65027714  179.46600342    3.57999992    2.57999992
   11.65333271  190.91900635    3.68000007    2.61999989
   11.65666676  204.18800354    3.50000000    2.51999998
   11.65999985  172.69200134    3.57999992    2.59999990
   11.66583252  172.69200134    3.41000009    2.64000010
   11.67000008  182.97599792    3.11999989    2.59999990
   11.67333412  172.01499939    2.86999989    2.57999992
   11.67638874  182.43499756    2.59999990    2.64000010
   11.67972279  180.45799255    2.03999996    2.61999989
   11.68000031  172.10200500    1.89999998    2.61999989
   11.68333340  168.02400208    1.88000000    2.64000010
   11.68638897  171.43499756    1.51999998    2.64000010
   11.68972206  172.10800171    1.55999994    2.64000010
   11.69305515  176.57000732    1.44000006    2.66000009
   11.69611073  177.18899536    1.33000004    2.64000010
   11.69944477  173.28500366    1.38000000    2.66000009
   11.70249939  168.15899658    2.00000000    2.66000009
   11.70861053  168.15899658    2.50000000    2.59999990
   11.71305561  175.21400452    2.53999996    2.64000010
   11.71333313  183.75599670    2.53999996    2.64000010
   11.71666622  169.40499878    2.73000002    2.66000009
   11.71972179  180.34700012    3.59999990    2.67000008
   11.72305489  192.51400757    4.05999994    2.53999996
   11.72638798  166.20100403    3.97000003    2.61999989
   11.72944355  191.02099609    3.45000005    2.66000009
   11.73277760  189.96200562    3.01999998    2.57999992
   11.73583317  186.44599915    3.28999996    2.64000010
   11.73916721  182.49600220    2.91000009    2.61999989
   11.74250031  179.63099670    2.86999989    2.66000009
   11.74555588  178.63099670    2.86999989    2.59999990
   11.74638939  175.27699280    2.86999989    2.59999990
   11.75166702  175.27699280    4.82999992    2.57999992
   11.75555515  178.63800049    4.90999985    2.61999989
   11.75888920  176.22500610    4.71999979    2.53999996
   11.76222229  167.96499634    4.55999994    2.66000009
   11.76527786  175.75399780    4.07999992    2.67000008
   11.76861095  193.83599854    4.21999979    2.59999990
   11.77194405  192.83700562    4.11999989    2.61999989
   11.77499962  189.21800232    3.50000000    2.66000009
   11.77833271  183.21299744    2.51999998    2.67000008
   11.77972221  183.84300232    2.11999989    2.67000008
   11.78194427  181.20100403    2.32999992    2.66000009
   11.78527832  180.69500732    2.44000006    2.66000009
   11.78861141  174.86300659    2.82999992    2.61999989
   11.79444504  174.86300659    3.26999998    2.67000008
   11.79861164  182.91200256    3.76999998    2.59999990
   11.80166721  178.51699829    3.72000003    2.64000010
   11.80500031  182.39399719    3.09999990    2.61999989
   11.80833340  190.77200317    2.82999992    2.69000006
   11.81138897  177.35099792    2.91000009    2.64000010
   11.81305599  185.49499512    2.73000002    2.67000008
   11.81500053  179.56399536    2.69000006    2.66000009
   11.81833363  174.91900635    2.26999998    2.67000008
   11.82166672  178.80099487    1.83000004    2.66000009
   11.82472229  160.28900146    1.50000000    2.61999989
   11.82805538  165.21699524    1.46000004    2.69000006
   11.83111095  173.13999939    1.05999994    2.69000006
   11.83722210  173.13999939    1.05999994    2.67000008
   11.84138870  180.05700684    1.41999996    2.67000008
   11.84472179  174.80900574    1.51999998    2.69000006
   11.84638882  183.44299316    2.09999990    2.69000006
   11.84805489  175.50399780    2.78999996    2.69000006
   11.85138893  166.30499268    3.16000009    2.69000006
   11.85472298  186.44700623    2.78999996    2.50000000
   11.85777855  178.66499329    3.11999989    2.69000006
   11.86111164  183.31199646    3.05999994    2.69000006
   11.86444473  178.31300354    2.21000004    2.67000008
   11.86750031  175.38900757    1.50000000    2.67000008
   11.87083340  169.81199646    1.78999996    2.67000008
   11.87416649  185.39500427    1.89999998    2.71000004
   11.88027763  185.39500427    2.66000009    2.64000010
   11.88444424  168.59599304    2.66000009    2.61999989
   11.88749981  166.87699890    2.51999998    2.64000010
   11.89083290  164.84300232    2.25000000    2.67000008
   11.89388847  169.55200195    2.28999996    2.69000006
   11.89722252  177.42900085    2.25000000    2.67000008
   11.90055561  168.48899841    2.26999998    2.67000008
   11.90361118  160.93499756    1.86000001    2.71000004
   11.90694427  160.70199585    1.53999996    2.69000006
   11.91027737  157.11399841    1.53999996    2.69000006
   11.91305542  167.38200378    1.34000003    2.71000004
   11.91361046  163.96899414    1.34000003    2.71000004
   11.91694450  166.97000122    1.26999998    2.69000006
   11.92305565  166.97000122    1.53999996    2.71000004
   11.92722225  167.77900696    1.58000004    2.71000004
   11.93027782  166.41200256    2.32999992    2.69000006
   11.93361092  174.92300415    2.51999998    2.61999989
   11.93694496  173.23100281    2.94000006    2.71000004
   11.94000053  172.66299438    2.28999996    2.69000006
   11.94333363  176.81900024    2.53999996    2.66000009
   11.94638920  171.76199341    3.75000000    2.69000006
   11.94722271  172.47599792    4.15999985    2.69000006
   11.95027733  167.95300293    4.57999992    2.67000008
   11.95333290  174.61300659    4.73999977    2.69000006
   11.95666695  173.38499451    4.90999985    2.57999992
   11.96000004  188.00300598    4.90999985    2.66000009
   11.96583271  188.00300598    4.90999985    2.66000009
   11.96999931  170.70100403    4.90999985    2.53999996
   11.97305489  181.01100159    4.90999985    2.67000008
   11.97638798  197.77400208    4.90999985    2.69000006
   11.97972202  169.74899292    4.90999985    2.48000002
   11.97999954  172.13600159    4.90999985    2.48000002
   11.98333359  192.30900574    4.90999985    2.61999989
   11.98638916  168.00500488    4.90999985    2.42000008
   11.98972225  210.87600708    4.90999985    2.57999992
   11.99305534  181.10299683    4.90999985    2.64000010
   11.99611092  174.18699646    4.90999985    2.61999989
   11.99944496  168.00599670    4.90999985    2.69000006
   12.00277805  186.53300476    4.90999985    2.61999989
   12.00861073  186.53300476    4.90999985    2.53999996
   12.01277733  185.47599792    4.90999985    2.66000009
   12.01333332  193.24200439    4.90999985    2.46000004
   12.01638889  171.47599792    4.90999985    2.69000006
   12.01972198  165.30299377    3.82999992    2.69000006
   12.02305508  171.43699646    3.84999990    2.66000009
   12.02611065  164.70300293    2.32999992    2.64000010
   12.02944374  173.40600586    1.48000002    2.73000002
   12.03277779  163.39999390    0.94000000    2.75000000
   12.03583336  166.20100403    0.92000002    2.73000002
   12.03916740  164.62500000    1.01999998    2.73000002
   12.04222298  162.60800171    1.26999998    2.69000006
   12.04555607  164.54800415    2.26999998    2.71000004
   12.06305599  181.29699707    4.65999985    2.57999992
   12.06722260  181.29699707    4.90999985    2.66000009
   12.07111073  177.54899597    4.90999985    2.71000004
   12.07444477  188.16099548    4.90999985    2.64000010
   12.07777786  175.42799377    4.90999985    2.61999989
   12.08083344  175.20199585    4.90999985    2.69000006
   12.08416653  180.80700684    4.90999985    2.67000008
   12.08722210  171.42900085    4.90999985    2.67000008
   12.09055519  169.04499817    4.90999985    2.64000010
   12.09388828  179.50799561    4.82999992    2.69000006
   12.09611034  178.08500671    4.59999990    2.67000008
   12.09749985  160.54100037    4.15999985    2.69000006
   12.10083389  174.89999390    4.21999979    2.73000002
   12.10388947  171.33299255    3.50000000    2.66000009
   12.11000061  171.33299255    4.57999992    2.64000010
   12.11416721  163.42799377    3.23000002    2.71000004
   12.11722279  175.64199829    1.50000000    2.71000004
   12.12055588  170.39300537    1.73000002    2.75000000
   12.12361145  168.88400269    1.41999996    2.75000000
   12.12694454  166.32099915    1.73000002    2.73000002
   12.12944412  167.02499390    1.64999998    2.73000002
   12.13055611  161.89100647    1.75000000    2.75000000
   12.13361073  165.72799683    2.11999989    2.75000000
   12.13694477  175.17900085    2.89000010    2.75000000
   12.14027786  175.91200256    3.46000004    2.59999990
   12.14333344  171.43099976    3.91000009    2.75000000
   12.14666653  163.38699341    2.11999989    2.75000000
   12.15277767  163.38699341    1.01999998    2.76999998
   12.15694427  169.05299377    1.16999996    2.76999998
   12.16027737  159.69500732    1.05999994    2.71000004
   12.16277695  166.09599304    1.28999996    2.75000000
   12.16388893  166.33900452    1.28999996    2.75000000
   12.16722298  160.75799561    1.55999994    2.73000002
   12.17027855  167.50700378    1.26999998    2.75000000
   12.17361164  168.11500549    1.26999998    2.75000000
   12.17666721  165.38099670    1.38000000    2.69000006
   12.18000031  176.88999939    1.23000002    2.76999998
   12.18333340  166.55099487    0.80000001    2.75000000
   12.18666649  155.75300598    0.75000000    2.76999998
   12.18972206  166.69099426    0.58999997    2.76999998
   12.19555569  166.69099426    0.58999997    2.76999998
   12.19972229  152.80400085    0.92000002    2.76999998
   12.20305538  153.06199646    1.21000004    2.75000000
   12.20611095  158.56500244    0.95999998    2.76999998
   12.20944405  156.54400635    0.95999998    2.76999998
   12.21277714  169.02799988    0.98000002    2.76999998
   12.21583271  158.51199341    1.01999998    2.78999996
   12.21916580  160.21699524    0.86000001    2.76999998
   12.22222137  152.16799927    0.86000001    2.75000000
   12.22555542  158.80900574    0.86000001    2.76999998
   12.22888851  156.56599426    0.86000001    2.76999998
   12.23055553  157.05099487    0.79000002    2.76999998
   12.23249912  149.83700562    0.75000000    2.76999998
   12.23861122  149.83700562    0.83999997    2.76999998
   12.24250031  180.15899658    1.78999996    2.78999996
   12.24583340  162.49200439    4.90999985    2.40000010
   12.24916649  155.21499634    4.90999985    2.67000008
   12.25222206  152.68899536    3.20000005    2.76999998
   12.25555515  150.55299377    1.98000002    2.76999998
   12.25861073  167.15800476    2.39000010    2.71000004
   12.26194477  168.08900452    2.64000010    2.75000000
   12.26388931  159.91499329    2.44000006    2.75000000
   12.26555538  167.74499512    2.28999996    2.71000004
   12.26888847  167.29600525    2.44000006    2.75000000
   12.27194405  163.47999573    2.36999989    2.71000004
   12.27527714  172.90600586    2.26999998    2.76999998
   12.28138828  172.90600586    3.76999998    2.73000002
   12.28555584  154.17199707    3.28999996    2.66000009
   12.28861141  160.78999329    2.73000002    2.76999998
   12.29194450  150.40199280    2.50000000    2.75000000
   12.29500008  152.97000122    2.50000000    2.73000002
   12.29750061  157.66299438    3.45000005    2.73000002
   12.29888916  160.47200012    3.53999996    2.71000004
   12.30194473  157.74699402    2.86999989    2.73000002
   12.30527782  158.16600037    2.51999998    2.76999998
   12.30861092  156.66600037    2.42000008    2.76999998
   12.31166649  164.12899780    2.86999989    2.76999998
   12.31500053  161.87899780    4.15999985    2.73000002
   12.31833363  170.94500732    4.90999985    2.76999998
   12.32416630  170.94500732    4.76000023    2.73000002
   12.32833290  204.55999756    4.59999990    2.76999998
   12.33083344  167.97300720    4.26999998    2.61999989
   12.33194447  164.16999817    4.57999992    2.73000002
   12.33500004  152.36399841    3.95000005    2.73000002
   12.33833313  159.41299438    3.05999994    2.75000000
   12.34166622  165.19299316    2.57999992    2.76999998
   12.34472179  164.05400085    2.39000010    2.73000002
   12.34805489  155.02299500    2.28999996    2.76999998
   12.35138893  167.04800415    2.42000008    2.75000000
   12.35444450  161.62800598    3.70000005    2.73000002
   12.35777855  161.48800659    4.59999990    2.71000004
   12.36083412  171.52299500    4.90999985    2.59999990
   12.36694431  171.52299500    4.90999985    2.73000002
   12.37111092  171.60600281    4.26999998    2.73000002
   12.37444496  170.73699951    4.90999985    2.64000010
   12.37750053  167.81599426    4.90999985    2.75000000
   12.38083363  185.24299622    4.67999983    2.76999998
   12.38416672  157.79800415    3.25000000    2.64000010
   12.38722229  170.49400330    3.78999996    2.78999996
   12.39055538  174.37100220    4.17999983    2.64000010
   12.39388847  167.37399292    3.16000009    2.71000004
   12.39694405  163.66099548    2.80999994    2.73000002
   12.39805508  163.84300232    3.48000002    2.78999996
   12.40055561  174.32400513    4.61999989    2.71000004
   12.40388870  186.23599243    4.90999985    2.55999994
   12.40999985  186.23599243    4.90999985    2.73000002
   12.41388893  184.34300232    4.90999985    2.64000010
   12.41722298  173.95899963    4.90999985    2.71000004
   12.42055607  179.32899475    4.90999985    2.61999989
   12.42361164  180.55000305    4.90999985    2.59999990
   12.42694473  176.89199829    4.90999985    2.55999994
   12.43000031  162.57499695    4.90999985    2.51999998
   12.43138885  171.96299744    4.90999985    2.55999994
   12.43361092  164.39999390    4.90999985    2.67000008
   12.43694496  169.41799927    4.90999985    2.61999989
   12.44000053  167.27999878    4.90999985    2.66000009
   12.44333363  173.66099548    4.90999985    2.55999994
   12.44666672  175.56100464    4.90999985    2.61999989
   12.45277786  175.56100464    4.23999977    2.80999994
   12.45694447  160.68200684    3.07999992    2.73000002
   12.46000004  158.78199768    2.67000008    2.76999998
   12.46333313  161.14300537    1.80999994    2.78999996
   12.46472168  164.64300537    1.86000001    2.78999996
   12.46694374  157.80000305    1.86000001    2.76999998
   12.47027779  165.55000305    2.94000006    2.80999994
   12.47333336  158.93899536    3.21000004    2.69000006
   12.47666645  160.98899841    3.00000000    2.75000000
   12.47999954  168.20300293    3.00000000    2.76999998
   12.48305511  157.89500427    2.13000011    2.78999996
   12.48638916  165.23699951    2.25000000    2.80999994
   12.48944473  161.94099426    2.76999998    2.75000000
   12.49555588  161.94099426    2.34999990    2.78999996
   12.49972248  168.78399658    2.36999989    2.80999994
   12.50277805  158.22799683    2.44000006    2.80999994
   12.50611115  162.25900269    2.03999996    2.78999996
   12.50944424  165.53399658    1.91999996    2.78999996
   12.51249981  162.61700439    2.34999990    2.71000004
   12.51583290  162.87800598    2.11999989    2.78999996
   12.51916599  169.87100220    1.53999996    2.78999996
   12.52222157  162.49699402    1.03999996    2.80999994
   12.52555561  155.09599304    0.75000000    2.80999994
   12.52861118  157.44999695    0.47999999    2.82999992
   12.53138828  162.89100647    0.41999999    2.82999992
   12.53249931  159.45500183    0.44000000    2.82999992
   12.53833389  159.45500183    0.63000000    2.82999992
   12.54250050  162.36900330    0.67000002    2.80999994
   12.54583359  165.47799683    0.67000002    2.82999992
   12.54888916  155.90800476    0.67000002    2.82999992
   12.55222225  158.84100342    0.79000002    2.82999992
   12.55555534  164.52000427    0.79000002    2.82999992
   12.55861092  161.52900696    0.80000001    2.82999992
   12.56194496  158.64700317    0.83999997    2.82999992
   12.56472206  154.86599731    0.83999997    2.82999992
   12.56555557  163.49800110    1.09000003    2.80999994
   12.56888866  164.74200439    1.05999994    2.82999992
   12.57194424  172.49499512    1.00000000    2.82999992
   12.57527733  156.20599365    0.50000000    2.84999990
   12.58138847  156.20599365    0.50000000    2.82999992
   12.58527756  158.15899658    0.41999999    2.82999992
   12.58861065  169.21200562    0.41999999    2.82999992
   12.59194374  166.98399353    0.41999999    2.82999992
   12.59499931  159.40400696    0.40000001    2.82999992
   12.59805489  162.00399780    0.40000001    2.84999990
   12.59861088  163.92300415    0.40000001    2.82999992
   12.60194492  169.68200684    0.40000001    2.82999992
   12.60500050  155.92300415    0.40000001    2.82999992
   12.60833359  163.34399414    0.40000001    2.84999990
   12.61166668  152.27499390    0.41999999    2.82999992
   12.61472225  157.60200500    0.40000001    2.82999992
   12.61805534  157.85699463    0.40000001    2.82999992
   12.62416649  157.85699463    0.40000001    2.82999992
   12.62833309  154.23100281    0.41999999    2.84999990
   12.63166714  153.19900513    0.41999999    2.82999992
   12.63194466  160.24499512    0.41999999    2.82999992
   12.63527775  148.75599670    0.41999999    2.82999992
   12.63861084  153.60600281    0.41999999    2.82999992
   12.64166641  164.98500061    2.17000008    2.80999994
   12.64499950  164.41999817    2.39000010    2.80999994
   12.64833355  159.75300598    3.80999994    2.67000008
   12.65138817  180.40899658    4.90999985    2.71000004
   12.65472221  165.40499878    4.90999985    2.53999996
   12.65805531  160.82299805    4.90999985    2.75000000
   12.66111088  169.60699463    4.90999985    2.73000002
   12.66694450  169.60699463    4.90999985    2.61999989
   12.67111111  167.14399719    4.90999985    2.64000010
   12.67444515  172.56300354    4.90999985    2.66000009
   12.67750072  165.33099365    4.90999985    2.76999998
   12.68083382  161.90400696    3.95000005    2.80999994
   12.68388939  168.77999878    3.21000004    2.82999992
   12.68722248  180.33599854    3.32999992    2.78999996
   12.69055557  173.72300720    4.42999983    2.80999994
   12.69361115  161.70100403    4.90999985    2.73000002
   12.69694424  162.15699768    4.65999985    2.59999990
   12.69833374  171.30900574    4.88999987    2.69000006
   12.70055580  168.83999634    4.90999985    2.78999996
   12.70388889  159.84899902    4.48999977    2.80999994
   12.70972157  159.84899902    3.75000000    2.78999996
   12.71388912  171.35899353    4.90999985    2.75000000
   12.71722221  158.73100281    2.23000002    2.82999992
   12.72055531  164.46800232    1.78999996    2.82999992
   12.72361088  168.49400330    1.58000004    2.82999992
   12.72694397  164.26300049    1.09000003    2.84999990
   12.73027706  154.55900574    1.05999994    2.84999990
   12.73166656  163.79899597    1.03999996    2.84999990
   12.73361111  166.52699280    0.98000002    2.84999990
   12.73694515  170.46400452    1.69000006    2.82999992
   12.74027824  161.37500000    2.94000006    2.78999996
   12.74333382  171.49099731    2.67000008    2.80999994
   12.74666691  163.72700500    2.67000008    2.80999994
   12.75277805  163.72700500    1.48000002    2.82999992
   12.75694466  170.59800720    0.98000002    2.82999992
   12.76000023  181.24000549    0.98000002    2.82999992
   12.76333332  173.06599426    0.98000002    2.82999992
   12.76500034  173.03799438    1.88000000    2.76999998
   12.76694393  172.78900146    1.98000002    2.82999992
   12.77027798  173.09199524    2.05999994    2.84999990
   12.77333355  168.55999756    2.48000002    2.84999990
   12.77666664  170.04100037    3.11999989    2.82999992
   12.77999973  176.32899475    3.68000007    2.59999990
   12.78305531  161.90299988    4.90999985    2.71000004
   12.78638935  178.48599243    4.57999992    2.80999994
   12.78944492  184.04100037    4.90999985    2.64000010
   12.79555607  184.04100037    3.99000001    2.76999998
   12.79972267  165.59100342    2.01999998    2.80999994
   12.80277824  170.38900757    2.32999992    2.84999990
   12.80611134  166.55700684    2.46000004    2.78999996
   12.80944443  163.79600525    1.41999996    2.86999989
   12.81250000  173.79299927    1.46000004    2.84999990
   12.81583309  160.99800110    1.51999998    2.86999989
   12.81916618  166.71499634    2.07999992    2.82999992
   12.82222176  163.11599731    1.96000004    2.82999992
   12.82555580  166.88900757    1.83000004    2.80999994
   12.82861137  173.87100220    2.13000011    2.82999992
   12.83166695  168.36399841    3.57999992    2.73000002
   12.83222198  181.64500427    3.57999992    2.73000002
   12.83833313  181.64500427    4.90999985    2.71000004
   12.84249973  173.02099609    4.90999985    2.71000004
   12.84583282  176.46400452    4.90999985    2.71000004
   12.84888840  173.18600464    4.90999985    2.75000000
   12.85222244  215.89199829    4.90999985    2.57999992
   12.85555553  182.17300415    4.90999985    2.59999990
   12.85861111  186.81599426    4.90999985    2.69000006
   12.86194515  185.20300293    4.90999985    2.69000006
   12.86500072  205.53399658    4.90999985    2.46000004
   12.86555576  197.35499573    4.90999985    2.59999990
   12.86888885  175.53700256    4.90999985    2.51999998
   12.87194443  208.55599976    4.90999985    2.73000002
   12.87527752  243.23500061    4.90999985    2.50000000
   12.88111115  243.23500061    4.90999985    2.75000000
   12.88527775  177.94000244    4.90999985    2.78999996
   12.88861084  167.37399292    4.90999985    2.80999994
   12.89194393  224.29499817    4.90999985    2.82999992
   12.89499950  172.91600037    4.90999985    2.82999992
   12.89833355  181.27200317    4.90999985    2.80999994
   12.89888859  165.13299561    4.90999985    2.48000002
   12.90194416  183.88000488    4.90999985    2.76999998
   12.90527725  197.06599426    4.90999985    2.80999994
   12.90861034  181.88400269    4.90999985    2.42000008
   12.91166592  245.08099365    4.90999985    2.75000000
   12.91499996  205.13099670    4.90999985    2.32999992
   12.91805553  202.34500122    4.90999985    2.73000002
   12.92416668  202.34500122    4.90999985    2.61999989
   12.92833328  167.30599976    4.90999985    2.69000006
   12.93138885  171.94999695    4.69999981    2.82999992
   12.93222237  169.38499451    4.69999981    2.82999992
   12.93500042  201.89500427    4.90999985    2.69000006
   12.93833351  197.01400757    4.90999985    2.50000000
   12.94166660  223.50799561    4.90999985    2.17000008
   12.94472218  261.14001465    4.90999985    2.46000004
   12.94805527  170.31599426    4.90999985    2.34999990
   12.95138836  291.93701172    4.90999985    2.42000008
   12.95444393  194.12600708    4.90999985    2.66000009
   12.95777798  205.65699768    4.90999985    2.67000008
   12.96083355  275.26300049    4.90999985    2.13000011
   12.96694374  275.26300049    4.90999985    2.46000004
   12.97111034  230.05200195    4.90999985    2.34999990
   12.97416592  249.88800049    4.90999985    2.67000008
   12.97749996  174.65199280    4.90999985    2.25000000
   12.98083305  190.78100586    4.90999985    2.82999992
   12.98388958  184.24499512    4.90999985    2.42000008
   12.98722267  200.81300354    4.90999985    2.48000002
   12.99055576  213.44500732    4.90999985    2.55999994
   12.99361134  181.69299316    4.90999985    2.71000004
   12.99694443  195.98899841    4.90999985    2.66000009
   12.99888897  188.81100464    4.90999985    2.57999992
   13.00055599  210.07299805    4.90999985    2.55999994
   13.00388908  204.36799622    4.90999985    2.59999990
   13.00972176  204.36799622    4.90999985    2.61999989
   13.01388931  193.07899475    4.90999985    2.46000004
   13.01722240  216.89599609    4.90999985    2.57999992
   13.02027798  203.06700134    4.90999985    2.64000010
   13.02361107  287.75500488    4.90999985    2.50000000
   13.02694416  203.35200500    4.90999985    2.46000004
   13.02999973  184.88999939    4.90999985    2.32999992
   13.03222179  193.26400757    4.90999985    2.69000006
   13.03361130  174.63900757    4.90999985    2.55999994
   13.03694534  236.61700439    4.90999985    2.64000010
   13.04027843  218.22200012    4.90999985    2.57999992
   13.04333401  277.62298584    4.90999985    2.73000002
   13.04666710  256.79098511    4.90999985    2.32999992
   13.05249977  256.79098511    4.90999985    2.75000000
   13.05666733  333.36401367    4.90999985    2.25000000
   13.06000042  413.19100952    4.90999985    2.39000010
   13.06194496  428.93600464    4.90999985    2.17000008
   13.06333351  352.68798828    4.90999985    2.40000010
   13.06472206  512.34002686    4.90999985    2.30999994
   13.06611156  366.12701416    4.90999985    2.36999989
   13.06750011  205.77900696    4.90999985    2.15000010
   13.06750011  203.35200500    4.90999985    2.46000004
   13.06777763  184.88999939    4.90999985    2.32999992
   13.06777763  174.63900757    4.90999985    2.55999994
   13.06777763  236.61700439    4.90999985    2.64000010
   13.06805515  218.22200012    4.90999985    2.57999992
   13.06805515  277.62298584    4.90999985    2.73000002
   13.06805515  256.79098511    4.90999985    2.32999992
   13.06833363  333.36401367    4.90999985    2.25000000
   13.06833363  413.19100952    4.90999985    2.39000010
   13.06888866  459.90200806    4.90999985    1.98000002
   13.07083321  462.53201294    4.90999985    2.32999992
   13.07222176  417.82998657    4.90999985    2.17000008
   13.07361126  450.11401367    4.90999985    2.00000000
   13.07499981  449.69799805    4.90999985    2.11999989
   13.07638836  430.95800781    4.90999985    2.13000011
   13.07777786  522.24499512    4.90999985    2.26999998
   13.07916641  449.69699097    4.90999985    2.26999998
   13.08055592  451.73001099    4.90999985    2.05999994
   13.08194447  466.80700684    4.90999985    2.15000010
   13.08333302  271.08801270    4.90999985    2.23000002
   13.08333302  459.90200806    4.90999985    1.98000002
   13.08388901  304.73699951    4.90999985    2.23000002
   13.08722210  362.13598633    4.90999985    2.26999998
   13.09055519  378.55599976    4.90999985    2.51999998
   13.09361076  331.96899414    4.90999985    2.42000008
   13.09694386  287.81100464    4.90999985    2.51999998
   13.10000038  347.87701416    4.90999985    2.57999992
   13.10416698  347.87701416    4.90999985    2.36999989
   13.10833359  391.92700195    4.90999985    2.11999989
   13.11166668  341.07800293    4.90999985    2.23000002
   13.11472225  422.89999390    4.90999985    2.23000002
   13.11694431  239.34599304    4.90999985    2.09999990
   13.11694431  304.73699951    4.90999985    2.23000002
   13.11722279  362.13598633    4.90999985    2.26999998
   13.11722279  378.55599976    4.90999985    2.51999998
   13.11722279  331.96899414    4.90999985    2.42000008
   13.11750031  287.81100464    4.90999985    2.51999998
   13.11750031  347.87701416    4.90999985    2.57999992
   13.11750031  391.92700195    4.90999985    2.11999989
   13.11777782  341.07800293    4.90999985    2.23000002
   13.11777782  422.89999390    4.90999985    2.23000002
   13.11972237  397.24499512    4.90999985    2.03999996
   13.12305546  367.03201294    4.90999985    2.09999990
   13.12611103  160.75100708    4.90999985    2.39000010
   13.12944412  169.42799377    4.90999985    2.15000010
   13.13249969  179.12699890    4.90999985    1.89999998
   13.13777733  179.12699890    4.90999985    2.26999998
   13.14194393  191.48399353    4.90999985    2.28999996
   13.14499950  351.71099854    4.90999985    2.23000002
   13.14833355  295.13198853    4.90999985    2.15000010
   13.15083313  399.62500000    4.90999985    2.34999990
   13.15194416  193.79100037    4.90999985    2.21000004
   13.15527725  161.50799561    4.90999985    2.01999998
   13.15861034  195.07299805    4.90999985    2.01999998
   13.16166592  300.24301147    4.90999985    1.91999996
   13.16499996  335.28900146    4.90999985    2.32999992
   13.16805553  234.59599304    4.90999985    2.09999990
   13.17138958  124.58599854    4.90999985    2.21000004
   13.17472267  345.74499512    4.90999985    2.19000006
   13.18055630  345.74499512    4.90999985    2.42000008
   13.18472195  225.66700745    4.90999985    2.13000011
   13.18777752  283.33300781    4.90999985    2.55999994
   13.19111156  183.48199463    4.90999985    2.50000000
   13.19444466  204.44599915    4.90999985    2.75000000
   13.19750023  208.54299927    4.90999985    2.78999996
   13.20083332  186.16499329    4.90999985    2.71000004
   13.20416641  213.35099792    4.90999985    2.84999990
   13.20722198  200.49600220    4.90999985    2.80999994
   13.21055508  196.19999695    4.90999985    2.73000002
   13.21361065  261.80899048    4.90999985    2.59999990
   13.21694374  300.19500732    4.90999985    2.30999994
   13.21749973  176.63900757    4.90999985    2.34999990
   13.22333336  176.63900757    4.90999985    2.32999992
   13.22749996  203.01400757    4.90999985    2.57999992
   13.24722290  217.98500061    4.90999985    2.82999992
   13.25055599  205.86000061    4.90999985    2.73000002
   13.25111103  235.30900574    4.90999985    2.73000002
   13.25388908  198.36500549    4.90999985    2.75000000
   13.25722218  231.04299927    4.90999985    2.71000004
   13.26055527  225.14399719    2.93000007    2.86999989
   13.26638889  225.14399719    3.30999994    2.86999989
   13.27055550  274.86401367    4.90999985    2.75000000
   13.27361107  201.46099854    4.90999985    2.76999998
   13.27694416  215.98800659    2.25000000    2.75000000
   13.28027725  234.84700012    2.39000010    2.86999989
   13.28333378  187.48500061    4.90999985    2.55999994
   13.28444481  189.86999512    4.90999985    2.67000008
   13.28722286  181.78900146    3.43000007    2.91000009
   13.29027843  184.48399353    4.51000023    2.75000000
   13.29361153  196.82200623    4.86999989    2.82999992
   13.29666710  208.91400146    4.59999990    2.75000000
   13.30000019  198.12100220    2.11999989    2.86999989
   13.30333328  207.68899536    2.48000002    2.84999990
   13.30916691  207.68899536    4.90999985    2.64000010
   13.31333351  173.05700684    4.90999985    2.75000000
   13.31666660  189.36500549    3.51999998    2.82999992
   13.31777763  184.59100342    3.57999992    2.86999989
   13.32027817  181.46800232    2.13000011    2.93000007
   13.32333374  198.94500732    4.44999981    2.75000000
   13.32666683  188.76800537    3.39000010    2.84999990
   13.32972240  185.66499329    4.00000000    2.75000000
   13.33305550  213.71800232    4.76000023    2.80999994
   13.33638859  185.02000427    4.57999992    2.73000002
   13.33944416  190.61999512    3.09999990    2.84999990
   13.34277725  184.70700073    4.46999979    2.86999989
   13.34611034  187.48500061    1.60000002    2.91000009
   13.35194492  187.48500061    2.55999994    2.91000009
   13.35611153  190.53700256    4.28999996    2.80999994
   13.35944462  187.46299744    4.90999985    2.75000000
   13.36250019  194.19799805    4.90999985    2.75000000
   13.36583328  185.01100159    4.90999985    2.71000004
   13.36916637  215.65100098    4.90999985    2.57999992
   13.37222195  194.86999512    4.90999985    2.82999992
   13.37555599  223.59800720    4.90999985    2.66000009
   13.37888908  208.76199341    4.90999985    2.36999989
   13.38194466  199.89300537    4.90999985    2.64000010
   13.38444424  397.76199341    4.90999985    2.64000010
   13.38583279  323.42498779    4.90999985    2.50000000
   13.38888836  284.37298584    4.90999985    2.42000008
   13.39499950  284.37298584    4.90999985    2.69000006
   13.39888859  336.94299316    4.90999985    2.42000008
   13.40222168  186.68200684    4.90999985    2.00000000
   13.40555477   68.63729858    4.90999985    1.88000000
   13.40861034  137.71299744    4.90999985    2.07999992
   13.41194439   42.04230118    4.90999985    1.78999996
   13.41527748  279.71301270    4.90999985    1.85000002
   13.41777802  155.75100708    4.90999985    2.07999992
   13.41888905   32.37519836    4.90999985    2.09999990
   13.42194462  388.47000122    4.90999985    1.85000002
   13.42527771  315.22601318    4.90999985    1.64999998
   13.42833328  270.14801025    4.90999985    2.26999998
   13.43166733  300.89700317    4.90999985    2.89000010
   13.43777752  300.89700317    4.90999985    2.67000008
   13.44194412  264.55999756    4.90999985    2.42000008
   13.44499969  296.82501221    4.90999985    2.53999996
   13.44833374  208.27000427    4.90999985    2.39000010
   13.45111084  231.69599915    4.90999985    2.59999990
   13.45166683  242.27600098    4.90999985    2.59999990
   13.45499992  226.51600647    4.90999985    2.80999994
   13.45833302  324.10598755    4.90999985    2.86999989
   13.46138859  284.63598633    4.90999985    2.64000010
   13.46472168  258.98098755    4.90999985    2.82999992
   13.46805477  285.86801147    4.90999985    2.76999998
   13.47111034  398.31201172    4.90999985    2.51999998
   13.47444439  341.53100586    4.90999985    2.48000002
   13.48055553  341.53100586    4.90999985    2.48000002
   13.48472214  234.14799500    4.90999985    2.46000004
   13.48805618  234.89300537    4.90999985    2.78999996
   13.49111176  270.05700684    4.90999985    2.64000010
   13.49444485  240.93400574    4.90999985    2.69000006
   13.49750042  250.60200500    4.90999985    2.71000004
   13.50083351  271.62100220    4.90999985    2.78999996
   13.50416660  241.90400696    4.90999985    2.61999989
   13.50722218  234.77699280    4.90999985    2.84999990
   13.51055527  271.50399780    4.90999985    2.78999996
   13.51388931  241.38400269    4.90999985    2.66000009
   13.51694393  245.61399841    4.90999985    2.76999998
   13.51777744  228.33099365    4.90999985    2.84999990
   13.52333355  228.33099365    3.25000000    2.91000009
   13.52750015  237.50999451    3.73000002    2.89000010
   13.53083324  215.40699768    2.59999990    2.89000010
   13.53416729  237.92399597    3.05999994    2.78999996
   13.53722286  221.99400330    3.72000003    2.76999998
   13.54055595  241.11900330    4.90999985    2.76999998
   13.54361153  194.88499451    4.82999992    2.86999989
   13.54694462  235.65800476    4.90999985    2.78999996
   13.55027771  217.38200378    4.90999985    2.78999996
   13.55111122  203.46000671    3.25000000    2.91000009
   13.55388927  215.84599304    4.90999985    2.89000010
   13.55694485  203.11399841    2.82999992    2.91000009
   13.56027794  209.12199402    2.93000007    2.80999994
   13.56638908  209.12199402    4.90999985    2.76999998
   13.57055569  212.61099243    4.76000023    2.86999989
   13.57361126  214.65899658    4.32999992    2.80999994
   13.57694435  248.52999878    4.90999985    2.84999990
   13.57999992  213.52200317    4.90999985    2.75000000
   13.58333302  203.18899536    4.90999985    2.86999989
   13.58444405  207.67700195    4.65999985    2.84999990
   13.58694458  206.27400208    2.98000002    2.86999989
   13.59000015  217.62300110    4.90999985    2.69000006
   13.59333324  211.63400269    4.32999992    2.86999989
   13.59666634  211.47900391    4.90999985    2.89000010
   13.59972191  204.61799622    4.90999985    2.89000010
   13.60305595  216.32699585    3.68000007    2.84999990
   13.60916710  216.32699585    1.63000000    2.91000009
   13.61333370  206.74299622    1.63000000    2.91000009
   13.61638927  200.90400696    1.21000004    2.91000009
   13.61777782  202.32099915    1.21000004    2.91000009
   13.62027836  200.72000122    0.95999998    2.93000007
   13.62333393  188.56399536    1.44000006    2.91000009
   13.62666702  203.83799744    3.01999998    2.82999992
   13.62972260  205.94999695    4.90999985    2.71000004
   13.63305569  201.37300110    4.90999985    2.89000010
   13.63638878  182.66499329    4.90999985    2.75000000
   13.63944435  201.78399658    4.40999985    2.80999994
   13.64277744  201.22300720    3.68000007    2.86999989
   13.64611053  197.25399780    1.91999996    2.91000009
   13.65194416  197.25399780    1.25000000    2.91000009
   13.65611076  204.43099976    0.34000000    2.93000007
   13.65916634  197.75999451    0.38000000    2.93000007
   13.66249943  194.85000610    0.38000000    2.93000007
   13.66583252  188.07400513    1.25000000    2.91000009
   13.66888905  190.55299377    0.31999999    2.93000007
   13.67222214  197.61599731    0.34000000    2.93000007
   13.67555618  187.13200378    0.31999999    2.93000007
   13.67861176  195.50100708    0.31999999    2.93000007
   13.68194485  196.23399353    0.31999999    2.93000007
   13.68444443  194.70300293    0.30000001    2.93000007
   13.68555546  193.79499817    0.30000001    2.93000007
   13.68861103  183.00999451    0.28000000    2.93000007
   13.69472218  183.00999451    0.28000000    2.94000006
   13.69888878  196.70899963    0.30000001    2.93000007
   13.70222187  190.48399353    0.30000001    2.93000007
   13.70527744  201.77400208    0.30000001    2.93000007
   13.70861053  199.87300110    0.30000001    2.93000007
   13.71194458  191.30799866    0.31999999    2.93000007
   13.71500015  190.75300598    0.31999999    2.93000007
   13.71777725  179.60699463    0.34000000    2.93000007
   13.71888828  184.16700745    0.34000000    2.93000007
   13.72222137  195.88600159    0.36000001    2.93000007
   13.72527695  179.25100708    0.44000000    2.93000007
   13.72861099  186.09199524    0.44000000    2.93000007
   13.73166656  170.30599976    0.44000000    2.93000007
   13.73777771  170.30599976    0.51999998    2.93000007
   13.74194431  196.00700378    4.30999994    2.84999990
   13.74527836  197.86799622    4.90999985    2.78999996
   13.74833393  195.02099609    4.90999985    2.84999990
   13.75111103  196.41400146    4.90999985    2.86999989
   13.75222206  217.10200500    4.90999985    2.82999992
   13.75527763  190.43400574    4.90999985    2.69000006
   13.75861073  190.14100647    4.90999985    2.73000002
   13.76194477  202.36500549    4.90999985    2.80999994
   13.76500034  190.26600647    4.90999985    2.80999994
   13.76833344  189.88800049    4.90999985    2.73000002
   13.77138901  189.06399536    4.90999985    2.76999998
   13.77472210  198.69500732    4.90999985    2.67000008
   13.78055573  198.69500732    4.90999985    2.59999990
   13.78472233  216.14500427    4.90999985    2.78999996
   13.78777790  214.05200195    4.90999985    2.76999998
   13.79111195  185.36999512    4.90999985    2.73000002
   13.79444504  207.29899597    4.90999985    2.86999989
   13.79750061  210.03999329    4.90999985    2.86999989
   13.80083370  195.80799866    4.90999985    2.91000009
   13.80416679  204.73500061    1.16999996    2.93000007
   13.80722237  193.24400330    4.28999996    2.84999990
   13.81055546  194.19900513    1.36000001    2.94000006
   13.81361103  194.43099976    1.66999996    2.91000009
   13.81694412  201.48800659    4.90999985    2.84999990
   13.81777763  200.97900391    4.71999979    2.82999992
   13.82333374  200.97900391    2.19000006    2.76999998
   13.82750034  189.13099670    2.66000009    2.94000006
   13.83083344  197.84199524    1.44000006    2.91000009
   13.83388901  190.10299683    2.36999989    2.86999989
   13.83722210  198.09500122    2.03999996    2.93000007
   13.84055519  196.52499390    3.41000009    2.75000000
   13.84361076  201.67199707    1.26999998    2.91000009
   13.84694386  200.02400208    4.90999985    2.80999994
   13.85000038  195.33500671    3.28999996    2.91000009
   13.85111141  186.28100586    3.61999989    2.93000007
   13.85388947  197.14599609    4.34999990    2.91000009
   13.85722256  193.74600220    4.90999985    2.91000009
   13.86027813  184.61900330    4.36999989    2.91000009
   13.86611176  184.61900330    3.86999989    2.91000009
   13.87027836  176.88499451    4.69999981    2.84999990
   13.87361145  194.79699707    4.53999996    2.82999992
   13.87666702  199.50100708    4.73999977    2.89000010
   13.88000011  187.56300354    4.90999985    2.82999992
   13.88333321  180.46299744    4.90999985    2.84999990
   13.88444424  191.29400635    4.90999985    2.86999989
   13.88694477  189.82299805    3.09999990    2.91000009
   13.89027786  203.41999817    2.84999990    2.93000007
   13.89333344  192.24699402    3.25000000    2.93000007
   13.89666653  188.08200073    2.98000002    2.94000006
   13.89972210  182.36399841    3.01999998    2.93000007
   13.90305519  182.22300720    3.14000010    2.93000007
   13.90916634  182.22300720    4.65999985    2.86999989
   13.91305542  182.57699585    4.59999990    2.93000007
   13.91638851  186.58500671    4.80000019    2.86999989
   13.91777802  191.13999939    4.90999985    2.89000010
   13.92000008  191.72900391    4.90999985    2.86999989
   13.92333412  189.14900208    4.84999990    2.91000009
   13.92638874  193.31300354    4.90999985    2.91000009
   13.92972279  192.07800293    4.90999985    2.89000010
   13.93277836  194.19999695    4.03999996    2.93000007
   13.93611145  189.14300537    3.97000003    2.93000007
   13.93944454  193.92700195    3.21000004    2.93000007
   13.94250011  186.45199585    3.36999989    2.94000006
   13.94583321  186.23199463    3.45000005    2.93000007
   13.95194435  186.23199463    3.21000004    2.93000007
   13.95611095  172.57400513    3.23000002    2.93000007
   13.95916653  173.69000244    3.34999990    2.93000007
   13.96249962  178.78399658    3.36999989    2.93000007
   13.96583271  182.31700134    3.39000010    2.93000007
   13.96888828  179.11599731    3.21000004    2.93000007
   13.97222137  173.99000549    3.21000004    2.94000006
   13.97555542  181.31100464    3.20000005    2.93000007
   13.97861099  174.13900757    3.16000009    2.93000007
   13.98194408  169.71800232    3.21000004    2.93000007
   13.98444462  180.97999573    3.14000010    2.93000007
   13.98555565  175.88099670    3.20000005    2.94000006
   13.98888874  179.91499329    3.26999998    2.93000007
   13.99472237  179.91499329    3.21000004    2.93000007
   13.99888897  185.84300232    3.18000007    2.93000007
   14.00222206  178.61900330    3.23000002    2.93000007
   14.00527763  179.87600708    3.23000002    2.94000006
   14.00861073  174.64100647    3.16000009    2.93000007
   14.01194477  175.25300598    3.21000004    2.93000007
   14.01500034  183.41600037    3.25000000    2.93000007
   14.01777744  182.52200317    3.50000000    2.93000007
   14.01861095  188.86500549    3.50000000    2.93000007
   14.02194405  176.18299866    4.01999998    2.93000007
   14.02499962  179.63699341    4.26000023    2.93000007
   14.02833271  178.67500305    4.82999992    2.91000009
   14.03166676  176.97099304    4.90999985    2.91000009
   14.03694534  176.97099304    4.90999985    2.91000009
   14.04111195  179.98399353    4.90999985    2.91000009
   14.04444504  178.38499451    4.90999985    2.91000009
   14.04750061  183.48399353    4.80999994    2.93000007
   14.05055618  192.04899597    4.90999985    2.91000009
   14.05111122  182.35800171    4.90999985    2.89000010
   14.05444431  173.24499512    4.69999981    2.93000007
   14.05777836  172.02200317    4.80000019    2.89000010
   14.06083393  178.40400696    4.90999985    2.91000009
   14.06416702  178.24200439    4.90999985    2.91000009
   14.06722260  171.47200012    4.90999985    2.89000010
   14.07055569  180.65499878    4.00000000    2.93000007
   14.07388878  174.82600403    4.15999985    2.93000007
   14.07999992  174.82600403    3.41000009    2.94000006
   14.08388901  173.72099304    3.43000007    2.93000007
   14.08722210  162.54899597    3.43000007    2.93000007
   14.09055519  167.66099548    3.93000007    2.93000007
   14.09361076  177.38499451    4.23999977    2.89000010
   14.09694386  172.26699829    4.15999985    2.93000007
   14.10027790  172.48500061    3.99000001    2.91000009
   14.10333347  173.28900146    3.84999990    2.93000007
   14.10666752  163.62399292    4.00000000    2.93000007
   14.10972214  166.24600220    3.86999989    2.93000007
   14.11305618  153.63499451    4.26000023    2.94000006
   14.11694431  166.27200317    4.19999981    2.94000006
   14.11777782  169.62899780    4.13999987    2.93000007
   14.12333393  169.62899780    3.89000010    2.93000007
   14.12750053  176.09899902    3.76999998    2.93000007
   14.13055611  173.53599548    3.82999992    2.94000006
   14.13388920  181.21400452    3.76999998    2.93000007
   14.13722229  161.60000610    3.95000005    2.93000007
   14.14027786  172.99899292    4.44999981    2.93000007
   14.14361095  175.70100403    4.63999987    2.94000006
   14.14666653  170.06300354    4.90999985    2.91000009
   14.14999962  166.98899841    4.13999987    2.93000007
   14.15111065  167.91600037    4.11999989    2.93000007
   14.15361118  163.75900269    3.97000003    2.93000007
   14.15694427  181.44400024    4.13999987    2.93000007
   14.15999985  183.36999512    4.00000000    2.94000006
   14.16611099  183.36999512    3.70000005    2.93000007
   14.17027855  173.13800049    3.75000000    2.93000007
   14.17333412  170.52400208    3.73000002    2.93000007
   14.17666721  178.99200439    3.76999998    2.93000007
   14.18000031  169.39900208    3.78999996    2.94000006
   14.18305588  169.36599731    3.72000003    2.93000007
   14.18444443  168.56700134    3.75000000    2.94000006
   14.18666649  184.27299500    3.78999996    2.94000006
   14.19000053  164.14399719    3.72000003    2.94000006
   14.19305515  173.71699524    3.41000009    2.94000006
   14.19638920  166.93099976    1.48000002    2.94000006
   14.19972229  167.99899292    0.34000000    2.94000006
   14.20277786  166.74000549    0.25999999    2.94000006
   14.20888901  166.74000549    0.28000000    2.94000006
   14.21305561  162.66999817    0.28000000    2.94000006
   14.21638870  162.50700378    0.25999999    2.94000006
   14.21777725  169.23199463    0.28000000    2.94000006
   14.21999931  173.36900330    0.28000000    2.94000006
   14.22333336  166.67999268    0.28000000    2.94000006
   14.22638798  166.44900513    0.25999999    2.94000006
   14.22972202  167.75199890    0.25999999    2.96000004
   14.23305511  165.88099670    0.25999999    2.94000006
   14.23611164  164.25500488    0.25999999    2.94000006
   14.23944473  163.18099976    0.25000000    2.94000006
   14.24250031  168.30799866    0.25999999    2.94000006
   14.24583340  166.23300171    0.25000000    2.94000006
   14.26722240  166.23300171    0.25999999    2.94000006
   14.27138901  170.08999634    0.25999999    2.96000004
   14.27472210  174.67100525    0.28000000    2.94000006
   14.27805519  181.19299316    0.25999999    2.94000006
   14.28111076  169.91900635    0.25999999    2.94000006
   14.28444481  177.17900085    0.25999999    2.96000004
   14.28777790  171.97700500    0.25999999    2.94000006
   14.29083347  178.81900024    0.25999999    2.94000006
   14.29416752  173.97799683    0.25999999    2.94000006
   14.29722309  176.13699341    0.25000000    2.96000004
   14.29805565  176.50700378    0.25000000    2.96000004
   14.30083370  175.20100403    0.25999999    2.94000006
   14.30416679  165.47000122    0.25999999    2.94000006
   14.31000042  165.47000122    0.25000000    2.96000004
   14.31416702  171.68600464    0.25999999    2.94000006
   14.31750011  179.89199829    0.25999999    2.94000006
   14.32083321  172.99299622    0.25000000    2.94000006
   14.32388878  168.75700378    0.25000000    2.94000006
   14.32722187  166.35600281    0.25999999    2.94000006
   14.33027744  174.75700378    0.25999999    2.96000004
   14.33138847  172.13600159    0.25999999    2.96000004
   14.33388901  167.44500732    0.25000000    2.94000006
   14.33722210  178.72300720    0.25000000    2.94000006
   14.34027767  169.28599548    0.25000000    2.94000006
   14.34361076  167.44200134    0.25000000    2.94000006
   14.34694386  175.06100464    0.25000000    2.96000004
   14.35305595  175.06100464    0.25000000    2.94000006
   14.35722256  171.32800293    0.25000000    2.96000004
   14.36027813  172.33999634    0.25000000    2.96000004
   14.36361122  162.08999634    0.25000000    2.94000006
   14.36500072  164.88400269    0.25000000    2.94000006
   14.36722279  163.90499878    0.25000000    2.96000004
   14.37027836  166.54800415    0.25000000    2.96000004
   14.37361145  169.24000549    0.25000000    2.94000006
   14.37694454  175.53500366    0.25000000    2.94000006
   14.38000011  164.92799377    0.25000000    2.94000006
   14.38333321  171.84700012    0.23000000    2.94000006
   14.38638878  170.78799438    0.25000000    2.94000006
   14.38972187  174.45199585    0.25000000    2.96000004
   14.39583302  174.45199585    0.25000000    2.96000004
   14.39999962  173.78300476    0.25000000    2.96000004
   14.40305519  168.88600159    0.25999999    2.94000006
   14.40638828  168.43600464    0.25999999    2.96000004
   14.40972137  168.10499573    0.25999999    2.94000006
   14.41277695  167.29600525    0.25999999    2.96000004
   14.41611099  169.47500610    0.25999999    2.94000006
   14.41944504  168.67700195    0.25999999    2.96000004
   14.42250061  174.55499268    0.25999999    2.96000004
   14.42583370  171.55999756    0.25999999    2.96000004
   14.42888927  176.44299316    0.25999999    2.96000004
   14.43166733  171.00599670    0.25999999    2.96000004
   14.43277836  170.60200500    0.25999999    2.96000004
   14.43861103  170.60200500    0.28000000    2.96000004
   14.44277763  173.77600098    0.25999999    2.96000004
   14.44583321  174.73699951    0.28000000    2.96000004
   14.44916630  170.20100403    0.25999999    2.96000004
   14.45249939  165.31199646    0.25999999    2.96000004
   14.45555496  170.19999695    0.25999999    2.96000004
   14.45888901  174.02499390    0.25999999    2.96000004
   14.46222210  173.53999329    0.25999999    2.96000004
   14.46500015  167.60800171    0.28000000    2.96000004
   14.46583271  161.23800659    0.28000000    2.96000004
   14.46888828  170.10600281    0.28000000    2.96000004
   14.47222137  167.70500183    0.25999999    2.96000004
   14.47555542  168.72000122    0.25999999    2.94000006
   14.48138809  168.72000122    0.25999999    2.96000004
   14.48555565  170.24899292    0.25999999    2.96000004
   14.48888874  168.20300293    0.25999999    2.96000004
   14.49194431  172.14399719    0.25999999    2.96000004
   14.49527836  172.71899414    0.25999999    2.96000004
   14.49833393  171.61300659    0.28000000    2.94000006
   14.49888897  171.03999329    0.28000000    2.94000006
   14.50194454  168.69000244    0.28000000    2.96000004
   14.50527763  165.14799500    0.28000000    2.96000004
   14.50861073  167.67999268    0.28000000    2.96000004
   14.51166630  165.55900574    0.28000000    2.96000004
   14.51500034  164.58599854    0.31999999    2.94000006
   14.51805496  177.71699524    0.31999999    2.96000004
   14.52416611  177.71699524    0.30000001    2.96000004
   14.52833271  198.50100708    0.30000001    2.96000004
   14.53166676  170.51300049    0.38000000    2.96000004
   14.53222179  182.27000427    0.38000000    2.96000004
   14.53527832  173.23899841    0.40000001    2.96000004
   14.53861141  182.45500183    0.40000001    2.94000006
   14.54194450  169.39199829    0.40000001    2.96000004
   14.54500008  166.12800598    0.44000000    2.94000006
   14.54833412  170.26800537    0.44000000    2.94000006
   14.55166721  166.56900024    0.38000000    2.96000004
   14.55472279  170.16299438    0.36000001    2.96000004
   14.55805588  180.60600281    0.30000001    2.96000004
   14.56111145  172.98100281    0.30000001    2.96000004
   14.56722260  172.98100281    0.28000000    2.96000004
   14.57138920  176.77699280    0.31999999    2.98000002
   14.57444477  165.88900757    0.30000001    2.96000004
   14.57777786  172.89700317    0.30000001    2.96000004
   14.58111095  172.07499695    0.30000001    2.96000004
   14.58416653  167.42500305    0.30000001    2.94000006
   14.58749962  168.64599609    0.30000001    2.96000004
   14.59083271  169.80000305    0.31999999    2.96000004
   14.59388828  168.04100037    0.30000001    2.96000004
   14.59722233  179.31900024    0.31999999    2.96000004
   14.59833336  166.14599609    0.31999999    2.96000004
   14.60111141  162.19900513    0.31999999    2.96000004
   14.60416698  164.68299866    0.31999999    2.96000004
   14.61000061  164.68299866    0.31999999    2.96000004
   14.61416721  164.95399475    0.34000000    2.96000004
   14.61750031  176.33799744    0.56999999    2.96000004
   14.62055588  183.47799683    0.46000001    2.96000004
   14.62388897  179.87500000    0.38000000    2.96000004
   14.62694454  173.29600525    0.31999999    2.96000004
   14.63027763  168.31399536    0.30000001    2.96000004
   14.63166714  175.22799683    0.30000001    2.96000004
   14.63388920  185.55200195    0.30000001    2.96000004
   14.63722229  171.87100220    0.31999999    2.96000004
   14.64027786  168.51300049    0.31999999    2.96000004
   14.64361095  177.50799561    0.31999999    2.96000004
   14.64666653  176.91200256    0.30000001    2.96000004
   14.65277767  176.91200256    0.34000000    2.96000004
   14.65694427  170.58700562    0.40000001    2.96000004
   14.66027737  178.00399780    0.41999999    2.96000004
   14.66333294  171.27699280    0.40000001    2.96000004
   14.66527748  164.82499695    0.40000001    2.96000004
   14.66722298  162.82400513    0.40000001    2.96000004
   14.67027855  163.34300232    0.41999999    2.96000004
   14.67361164  163.64900208    0.41999999    2.96000004
   14.67694473  168.95500183    0.44000000    2.94000006
   14.68000031  166.84100342    0.51999998    2.96000004
   14.68333340  154.07600403    0.51999998    2.96000004
   14.68638897  170.77600098    0.46000001    2.96000004
   14.68972206  166.28100586    0.55000001    2.96000004
   14.69583321  166.28100586    0.44000000    2.94000006
   14.69972229  177.32000732    0.44000000    2.96000004
   14.70305538  182.98500061    0.41999999    2.96000004
   14.70638847  180.16700745    0.41999999    2.96000004
   14.70944405  179.25900269    0.41999999    2.96000004
   14.71277714  166.72200012    0.40000001    2.96000004
   14.71611118  176.99200439    0.40000001    2.98000002
   14.71944427  178.94200134    0.40000001    2.96000004
   14.72249985  176.68499756    0.40000001    2.96000004
   14.72583294  197.61199951    0.40000001    2.96000004
   14.72916603  170.20399475    0.40000001    2.96000004
   14.82694435   -1.00000000   -1.00000000   -1.00000000
   15.09055519   -1.00000000   -1.00000000   -1.00000000
   15.21944427   -1.00000000   -1.00000000   -1.00000000
   15.24777794  102.35600281    0.31999999    2.98000002
   15.25111103  189.73399353    0.31999999    2.96000004
   15.25416660  184.38099670    0.31999999    2.96000004
   15.25749969  178.06300354    0.31999999    2.96000004
   15.26083374  181.60899353    0.31999999    2.98000002
   15.26388931  162.32400513    0.31999999    2.98000002
   15.26805496  162.32400513    0.31999999    2.98000002
   15.27222157  161.60099792    0.34000000    2.96000004
   15.27555561  162.82499695    0.31999999    2.98000002
   15.27861118  183.26699829    0.31999999    2.98000002
   15.28111076  171.70300293    0.31999999    2.98000002
   15.28249931  174.28100586    0.31999999    2.98000002
   15.28555584  173.09100342    0.34000000    2.98000002
   15.28888893  170.47200012    0.30000001    2.98000002
   15.29222298  170.54299927    0.31999999    2.98000002
   15.29527855  164.36999512    0.34000000    2.98000002
   15.29861164  157.88000488    0.34000000    2.98000002
   15.30194473  160.21400452    0.36000001    2.98000002
   15.30500031  168.67500305    0.36000001    2.98000002
   15.31083393  168.67500305    0.34000000    2.98000002
   15.31500053  171.28799438    0.31999999    2.98000002
   15.31833363  171.33399963    0.31999999    2.96000004
   15.32138920  173.49400330    0.31999999    2.98000002
   15.32472229  171.80099487    0.31999999    2.98000002
   15.32805538  167.97099304    0.31999999    2.98000002
   15.33111095  187.55599976    0.31999999    2.98000002
   15.33444405  182.83099365    0.30000001    2.98000002
   15.33777714  190.83000183    0.31999999    2.98000002
   15.34083271  177.06199646    0.31999999    2.98000002
   15.34416676  177.99699402    0.31999999    2.98000002
   15.34749985  164.49600220    0.31999999    2.98000002
   15.34777737  171.43400574    0.31999999    2.98000002
   15.35388947  171.43400574    0.31999999    2.98000002
   15.35805607  166.85699463    0.31999999    2.96000004
   15.36111164  165.25399780    0.31999999    2.96000004
   15.36444473  171.38699341    0.31999999    2.98000002
   15.36750031  185.04600525    0.31999999    2.98000002
   15.37083340  178.21000671    0.34000000    2.98000002
   15.37416649  183.79800415    0.34000000    2.98000002
   15.37722206  173.33700562    0.34000000    2.98000002
   15.38055611  178.27499390    0.34000000    2.98000002
   15.38111115  176.62300110    0.34000000    2.98000002
   15.38416672  169.10699463    0.34000000    2.98000002
   15.38749981  180.59500122    0.34000000    2.98000002
   15.39055538  176.00599670    0.34000000    2.98000002
   15.39666653  176.00599670    0.34000000    2.98000002
   15.40083313  158.72999573    0.36000001    2.98000002
   15.40388870  171.88699341    0.34000000    2.98000002
   15.40722179  183.81199646    0.38000000    2.98000002
   15.41055489  166.82200623    0.36000001    2.98000002
   15.41361046  175.88000488    0.36000001    2.98000002
   15.41444397  175.36700439    0.36000001    2.98000002
   15.41722298  166.53999329    0.38000000    2.96000004
   15.42055607  181.25199890    0.36000001    2.98000002
   15.42361164  174.41499329    0.36000001    2.98000002
   15.42694473  185.17999268    0.36000001    2.98000002
   15.43027782  182.60400391    0.36000001    2.98000002
   15.43333340  171.95199585    0.36000001    2.98000002
   15.43944454  171.95199585    0.38000000    2.98000002
   15.44361115  180.52900696    0.40000001    2.98000002
   15.44694424  168.52999878    0.38000000    2.98000002
   15.44777775  178.85099792    0.40000001    2.98000002
   15.45055580  160.95300293    0.40000001    2.98000002
   15.45388889  172.02099609    0.38000000    2.98000002
   15.45694447  185.28700256    0.38000000    2.98000002
   15.46027756  165.58900452    0.38000000    2.98000002
   15.46361065  176.98300171    0.40000001    2.98000002
   15.46666622  195.83700562    0.40000001    2.98000002
   15.46999931  161.91400146    0.40000001    2.96000004
   15.47305489  159.72599792    0.40000001    2.98000002
   15.47638798  178.91600037    0.40000001    2.98000002
   15.48222160  178.91600037    0.36000001    2.98000002
   15.48638916  186.25500488    0.38000000    2.98000002
   15.48972225  180.48100281    0.38000000    2.98000002
   15.49277782  188.88900757    0.38000000    2.98000002
   15.49611092  184.63499451    0.36000001    2.98000002
   15.49944496  175.90100098    0.36000001    2.96000004
   15.50249958  167.36500549    0.36000001    2.98000002
   15.50583363  162.97500610    0.34000000    2.98000002
   15.50916672  167.72200012    0.36000001    2.98000002
   15.51222229  176.52799988    0.36000001    2.98000002
   15.51444435  176.30700684    0.36000001    2.98000002
   15.51583290  168.04600525    0.36000001    2.98000002
   15.51916599  182.21699524    0.36000001    2.98000002
   15.52527714  182.21699524    0.36000001    2.98000002
   15.52916622  173.50300598    0.36000001    3.00000000
   15.53249931  169.12899780    0.36000001    2.98000002
   15.53583336  184.67700195    0.38000000    2.98000002
   15.53916740  166.85000610    0.38000000    2.98000002
   15.54222298  171.67900085    0.38000000    2.98000002
   15.54555607  177.47300720    0.41999999    2.98000002
   15.54777813  177.63400269    0.40000001    2.98000002
   15.54916668  157.56799316    0.40000001    2.98000002
   15.55249977  167.23699951    0.40000001    2.98000002
   15.55555534  167.30700684    0.40000001    2.98000002
   15.55888939  164.17799377    0.40000001    2.98000002
   15.56194496  166.92700195    0.38000000    2.98000002
   15.56805515  166.92700195    0.38000000    2.98000002
   15.57222176  168.01699829    0.36000001    2.98000002
   15.57527733  159.27699280    0.36000001    2.98000002
   15.57861137  161.54400635    0.36000001    2.98000002
   15.58111095  167.21200562    0.36000001    2.98000002
   15.58222198  173.42500305    0.36000001    2.98000002
   15.58555508  171.37100220    0.34000000    2.98000002
   15.58861065  167.00199890    0.34000000    2.98000002
   15.59194374  159.39300537    0.36000001    2.98000002
   15.59527779  162.86099243    0.36000001    2.98000002
   15.59833336  164.43299866    0.36000001    2.98000002
   15.60166740  164.98100281    0.36000001    2.98000002
   15.60472298  169.92199707    0.36000001    2.98000002
   15.61083412  169.92199707    0.34000000    2.98000002
   15.61500072  162.31700134    0.34000000    2.98000002
   15.61805534  146.81799316    0.34000000    2.96000004
   15.62138939  160.52600098    0.36000001    2.98000002
   15.62472248  155.93299866    0.36000001    2.98000002
   15.62777805  153.79800415    0.34000000    2.98000002
   15.63111115  168.97700500    0.36000001    2.98000002
   15.63444424  156.28199768    0.36000001    2.98000002
   15.63749981  152.65800476    0.36000001    2.98000002
   15.64083290  162.19599915    0.36000001    2.98000002
   15.64388847  161.84599304    0.36000001    2.98000002
   15.64722252  153.72599792    0.36000001    2.98000002
   15.64777756  162.77699280    0.36000001    2.98000002
   15.65361118  162.77699280    0.36000001    2.98000002
   15.65777779  161.83299255    0.36000001    3.00000000
   15.66111088  160.38299561    0.38000000    3.00000000
   15.66416645  163.51400757    0.38000000    3.00000000
   15.66750050  163.62100220    0.36000001    2.98000002
   15.67083359  154.39799500    0.36000001    2.98000002
   15.67388916  166.26100159    0.46000001    2.98000002
   15.67722225  160.96200562    0.47999999    2.98000002
   15.68027782  150.14199829    0.47999999    2.98000002
   15.68111134  167.18200684    0.47999999    2.98000002
   15.68388939  165.05599976    0.47999999    2.98000002
   15.68722248  156.23199463    0.44000000    2.98000002
   15.69027805  164.09100342    0.44000000    2.98000002
   15.69666672  164.09100342    0.41999999    2.98000002
   15.70055580  154.83399963    0.47999999    2.98000002
   15.70388889  160.64700317    0.50000000    2.98000002
   15.70722198  154.80299377    0.55000001    2.98000002
   15.71027756  163.26600647    0.52999997    2.98000002
   15.71361065  159.73500061    0.50000000    2.98000002
   15.71444416  161.42999268    0.50000000    2.98000002
   15.71722221  154.60499573    0.52999997    2.98000002
   15.72055531  158.67999268    0.52999997    2.98000002
   15.72361088  155.16000366    0.52999997    2.98000002
   15.72694397  152.89700317    0.52999997    2.98000002
   15.72999954  155.86900330    0.55000001    2.98000002
   15.73333359  157.09700012    0.55000001    2.98000002
   15.73944473  157.09700012    0.55000001    2.98000002
   15.74333382  165.85000610    0.58999997    2.98000002
   15.74666691  151.67799377    0.56999999    2.98000002
   15.74777794  158.88900757    0.56999999    2.98000002
   15.75027752  155.20500183    0.56999999    2.98000002
   15.75361156  161.25500488    0.58999997    2.98000002
   15.75666714  160.55000305    0.58999997    2.98000002
   15.76000023  156.00700378    0.56999999    3.00000000
   15.76333332  159.75700378    0.55000001    3.00000000
   15.76638889  152.94400024    0.52999997    2.98000002
   15.76972198  153.36999512    0.52999997    2.98000002
   15.77277756  162.49299622    0.50000000    2.98000002
   15.77611065  151.18200684    0.51999998    2.98000002
   15.78222179  151.18200684    0.52999997    2.98000002
   15.78638935  164.02299500    0.55000001    2.98000002
   15.78944492  157.08799744    0.56999999    2.98000002
   15.79277802  161.31900024    0.56999999    2.98000002
   15.79611111  156.62199402    0.61000001    2.98000002
   15.79916668  165.80599976    0.58999997    2.98000002
   15.80249977  158.70100403    0.58999997    2.98000002
   15.80583382  163.59800720    0.61000001    2.98000002
   15.80888939  155.00399780    0.64999998    2.98000002
   15.81222248  171.34399414    0.58999997    2.98000002
   15.81472206  158.91400146    0.67000002    2.98000002
   15.81583309  158.07400513    0.70999998    2.98000002
   15.81916618  160.47200012    0.70999998    2.98000002
   15.82499981  160.47200012    0.70999998    2.98000002
   15.82916641  152.14599609    0.76999998    2.98000002
   15.83249950  154.83099365    0.80000001    2.98000002
   15.83555508  153.98199463    0.81999999    2.98000002
   15.83888817  151.08500671    0.81999999    2.98000002
   15.84222221  149.33500671    0.86000001    2.98000002
   15.84555531  148.90600586    0.86000001    2.98000002
   15.84805489  152.54200745    0.86000001    2.98000002
   15.84888840  154.06700134    0.86000001    2.98000002
   15.85222244  154.31799316    0.81999999    2.98000002
   15.85527802  150.62100220    0.81999999    2.98000002
   15.85861111  149.60299683    0.79000002    2.98000002
   15.86194515  150.68800354    0.79000002    2.98000002
   15.86777782  150.68800354    0.79000002    2.98000002
   15.87194443  157.21600342    0.76999998    2.98000002
   15.87527752  156.24499512    0.79000002    2.98000002
   15.87833309  150.80499268    0.76999998    2.98000002
   15.88111115  152.69500732    0.75000000    2.96000004
   15.88222218  151.74400330    0.75000000    2.96000004
   15.88555527  155.46499634    0.73000002    2.98000002
   15.88861084  156.82800293    0.67000002    2.98000002
   15.89194393  149.70799255    0.67000002    2.98000002
   15.89527798  151.47500610    0.67000002    2.98000002
   15.89833355  152.24000549    0.67000002    2.98000002
   15.90166664  150.17399597    0.63000000    2.98000002
   15.90472221  157.45300293    0.63000000    2.98000002
   15.91083336  157.45300293    0.63000000    2.98000002
   15.91472149  148.97500610    0.64999998    2.98000002
   15.91805553  157.60600281    0.64999998    2.96000004
   15.92138958  149.40899658    0.64999998    2.98000002
   15.92444515  150.95199585    0.63000000    2.98000002
   15.92777824  151.50100708    0.63000000    2.98000002
   15.93111134  150.30499268    0.61000001    2.98000002
   15.93416691  152.74600220    0.56999999    2.96000004
   15.93750000  153.25599670    0.55000001    2.98000002
   15.94083309  151.79899597    0.55000001    2.98000002
   15.94388866  152.97700500    0.55000001    2.98000002
   15.94722271  153.51199341    0.52999997    2.98000002
   15.94777775  153.54600525    0.51999998    2.98000002
   15.95361137  153.54600525    0.51999998    2.98000002
   15.95777798  158.42300415    0.51999998    2.98000002
   15.96083355  162.65699768    0.50000000    2.98000002
   15.96416664  154.17500305    0.50000000    2.98000002
   15.96749973  152.27000427    0.50000000    2.98000002
   15.97055531  156.66099548    0.50000000    2.98000002
   15.97388840  157.64900208    0.50000000    2.98000002
   15.97722149  151.84500122    0.50000000    2.98000002
   15.98027706  150.98300171    0.50000000    2.98000002
   15.98138809  151.50199890    0.50000000    2.98000002
   15.98388958  149.09700012    0.51999998    2.98000002
   15.98722267  152.42100525    0.50000000    2.98000002
   15.99027824  153.72099304    0.50000000    2.98000002
   15.99638939  153.72099304    0.46000001    2.98000002
   16.00055504  155.06500244    0.46000001    2.98000002
   16.00388908  156.74499512    0.47999999    2.98000002
   16.00694466  150.35699463    0.47999999    3.00000000
   16.01027870  155.26800537    0.47999999    2.98000002
   16.01361084  147.00900269    0.50000000    2.98000002
   16.01472282  155.56700134    0.46000001    2.98000002
   16.01694489  156.84700012    0.46000001    2.98000002
   16.02027702  149.67300415    0.47999999    2.98000002
   16.02361107  156.33999634    0.46000001    2.98000002
   16.02666664  147.74299622    0.46000001    2.98000002
   16.03000069  160.36099243    0.46000001    2.98000002
   16.03305435  157.86099243    0.50000000    2.98000002
   16.03944397  157.86099243    0.51999998    2.98000002
   16.04333305  161.61199951    0.50000000    2.98000002
   16.04666710  158.18099976    0.50000000    2.98000002
   16.04805565  158.19599915    0.50000000    2.98000002
   16.05027771  153.82699585    0.50000000    2.98000002
   16.05360985  154.24499512    0.50000000    2.98000002
   16.05666542  161.39500427    0.50000000    2.98000002
   16.05999947  152.50999451    0.50000000    2.98000002
   16.06333351  151.18600464    0.50000000    2.98000002
   16.06638718  151.90600586    0.50000000    2.98000002
   16.06972313  147.36999512    0.51999998    2.98000002
   16.07305717  150.20100403    0.51999998    2.98000002
   16.07611275  157.83099365    0.51999998    3.00000000
   16.08222389  157.83099365    0.52999997    2.98000002
   16.08638954  151.39900208    0.52999997    2.98000002
   16.08944511  158.67599487    0.55000001    2.98000002
   16.09277916  153.77299500    0.55000001    2.98000002
   16.09583473  148.70899963    0.55000001    2.98000002
   16.09916687  158.36700439    0.56999999    2.98000002
   16.10250092  153.23300171    0.55000001    2.98000002
   16.10583305  149.41700745    0.55000001    2.98000002
   16.10888863  153.35899353    0.56999999    2.98000002
   16.11222267  155.77499390    0.58999997    2.98000002
   16.11472321  162.81900024    0.61000001    3.00000000
   16.11583328  150.15800476    0.69000000    2.98000002
   16.11916733  156.47000122    0.69000000    2.98000002
   16.12500000  156.47000122    0.69000000    2.98000002
   16.12916756  156.57200623    0.73000002    2.98000002
   16.13222313  156.84899902    0.76999998    2.98000002
   16.13555527  157.24099731    0.76999998    2.98000002
   16.13888931  151.39799500    0.76999998    2.98000002
   16.14194489  156.88099670    0.79000002    2.98000002
   16.14527702  156.93099976    0.79000002    2.98000002
   16.14805603  156.32400513    0.80000001    2.98000002
   16.14888954  155.48899841    0.80000001    2.98000002
   16.15222168  159.99899292    0.79000002    2.98000002
   16.15555573  158.24299622    0.79000002    2.96000004
   16.15861130  156.36300659    0.79000002    2.96000004
   16.16194344  152.13200378    0.80000001    2.98000002
   16.16777802  152.13200378    0.81999999    2.98000002
   16.17194366  153.13099670    0.81999999    2.98000002
   16.17527771  152.05700684    0.81999999    2.98000002
   16.17833328  147.32299805    0.88000000    2.98000002
   16.18138885  150.27699280    0.98000002    2.98000002
   16.18194389  149.70599365    0.98000002    2.98000002
   16.18527603  146.78799438    1.00000000    2.98000002
   16.18833160  153.40499878    1.00000000    2.96000004
   16.19166565  151.49600220    1.03999996    2.98000002
   16.19499969  158.55700684    1.07000005    2.98000002
   16.19805527  152.41099548    1.09000003    2.98000002
   16.20138931  153.90699768    1.03999996    2.98000002
   16.20472336  151.00700378    1.00000000    2.98000002
   16.21083450  151.00700378    0.92000002    2.96000004
   16.21472359  151.78100586    0.80000001    2.98000002
   16.21805573  150.20300293    0.79000002    2.98000002
   16.22138977  152.92999268    0.79000002    2.98000002
   16.22444534  154.08399963    0.80000001    2.98000002
   16.22777748  158.07600403    0.79000002    2.98000002
   16.23083305  158.87500000    0.79000002    2.98000002
   16.23416710  158.14100647    0.80000001    2.98000002
   16.23750114  153.85899353    0.81999999    2.98000002
   16.24055672  156.03100586    0.80000001    2.98000002
   16.24388885  160.33500671    0.81999999    2.98000002
   16.24722290  157.50999451    0.81999999    2.98000002
   16.24805641  145.88600159    0.86000001    2.96000004
   16.26888847  145.88600159    1.05999994    2.98000002
   16.27305603  153.34599304    1.05999994    2.98000002
   16.27611160  150.13299561    1.03999996    2.98000002
   16.27944374  152.04100037    1.05999994    2.98000002
   16.28138924  161.11999512    1.09000003    2.98000002
   16.28305435  152.16200256    1.09000003    2.98000002
   16.28610992  155.38900757    1.16999996    2.98000002
   16.28944397  149.03300476    1.19000006    2.98000002
   16.29277802  156.41999817    1.34000003    2.98000002
   16.29583359  152.08299255    1.34000003    2.98000002
   16.29916573  151.66999817    1.39999998    2.98000002
   16.30249977  155.79200745    1.34000003    2.98000002
   16.30555534  151.15499878    1.28999996    2.98000002
   16.31166649  151.15499878    1.23000002    2.98000002
   16.31583214  152.16700745    1.23000002    2.98000002
   16.31888962  150.91299438    1.25000000    2.98000002
   16.32222366  162.35099792    1.25000000    2.98000002
   16.32527924  157.50000000    1.38000000    2.96000004
   16.32861137  157.04899597    1.41999996    2.98000002
   16.33194542  156.86599731    1.51999998    2.98000002
   16.33500099  153.48699951    1.53999996    2.98000002
   16.33833313  159.62399292    1.63000000    2.96000004
   16.34166718  156.92900085    1.60000002    2.98000002
   16.34472275  158.57000732    1.60000002    2.98000002
   16.34805679  153.79100037    1.60000002    2.98000002
   16.34861183  153.83799744    1.60000002    2.98000002
   16.35444450  153.83799744    1.55999994    2.96000004
   16.35861206  153.98100281    1.41999996    2.96000004
   16.36166763  152.60200500    1.41999996    2.96000004
   16.36499977  155.55299377    1.39999998    2.98000002
   16.36833382  155.03700256    1.41999996    2.98000002
   16.37138939  162.74400330    1.39999998    2.98000002
   16.37472153  152.52099609    1.36000001    2.98000002
   16.37805557  157.23699951    1.36000001    2.98000002
   16.38111115  153.38299561    1.36000001    2.98000002
   16.38194466  154.67799377    1.34000003    2.98000002
   16.38472176  155.74800110    1.34000003    2.98000002
   16.38805580  154.51499939    1.34000003    2.98000002
   16.39138794  157.74299622    1.33000004    2.98000002
   16.39722252  157.74299622    1.36000001    2.98000002
   16.40138817  155.68499756    1.36000001    2.98000002
   16.40472221  153.58999634    1.16999996    2.98000002
   16.40777779  154.88299561    1.14999998    2.98000002
   16.41110992  158.74800110    1.16999996    2.96000004
   16.41444397  152.35299683    1.16999996    2.98000002
   16.41527748  149.40899658    1.16999996    2.98000002
   16.41777802  152.78300476    1.13000000    2.98000002
   16.42111015  147.97500610    1.13000000    2.98000002
   16.42444420  151.88000488    1.13000000    2.98000002
   16.42749977  148.69400024    1.09000003    2.98000002
   16.43083191  150.87899780    1.01999998    2.98000002
   16.43416595  154.66900635    1.03999996    2.98000002
   16.43999863  154.66900635    1.13000000    2.98000002
   16.44416618  151.78500366    1.26999998    2.98000002
   16.44749832  149.35400391    1.36000001    3.00000000
   16.44861031  153.46000671    1.36000001    2.96000004
   16.45138931  148.30400085    1.36000001    2.96000004
   16.45472336  154.71600342    1.34000003    3.00000000
   16.45777893  148.04299927    1.33000004    2.98000002
   16.46111107  154.62399292    1.25000000    2.98000002
   16.46444511  155.41000366    1.21000004    2.98000002
   16.46750069  152.51800537    1.13000000    2.98000002
   16.47083473  152.78399658    1.13000000    2.98000002
   16.47416687  156.90699768    1.07000005    3.00000000
   16.47722244  151.19799805    1.03999996    2.98000002
   16.48305511  151.19799805    1.03999996    2.98000002
   16.48722267  153.19999695    1.01999998    2.98000002
   16.49027824  153.67599487    0.98000002    2.98000002
   16.49361229  149.59100342    0.92000002    2.98000002
   16.49694443  155.26800537    0.94000000    3.00000000
   16.50000000  154.04100037    0.94000000    3.00000000
   16.50333405  154.30599976    1.00000000    3.00000000
   16.50638962  151.67500305    1.05999994    3.00000000
   16.50972176  157.42799377    1.05999994    3.00000000
   16.51305580  155.89599609    1.05999994    2.98000002
   16.51527786  154.39999390    1.09000003    3.00000000
   16.51638794  154.55400085    1.16999996    2.98000002
   16.51972198  155.49600220    1.11000001    2.98000002
   16.52583313  155.49600220    1.07000005    2.98000002
   16.53000069  152.61700439    1.09000003    2.98000002
   16.53305435  148.00599670    1.09000003    3.00000000
   16.53638840  157.67100525    1.09000003    3.00000000
   16.53972244  153.56100464    1.09000003    2.98000002
   16.54277802  155.05099487    1.13000000    2.98000002
   16.54611015  155.94999695    1.13000000    3.00000000
   16.54861069  158.34599304    1.13000000    3.00000000
   16.54972076  150.38000488    1.14999998    2.98000002
   16.55305481  150.29400635    1.14999998    2.98000002
   16.55638885  151.55999756    1.19000006    2.98000002
   16.55944443  146.48199463    1.11000001    2.98000002
   16.56277657  151.18699646    1.05999994    2.98000002
   16.56861115  151.18699646    1.07000005    2.98000002
   16.57277870  153.41099548    1.07000005    2.98000002
   16.57611275  151.53500366    1.07000005    2.98000002
   16.57916832  155.31500244    1.09000003    3.00000000
   16.58194542  154.58599854    1.13000000    2.98000002
   16.58277893  154.30000305    1.13000000    2.98000002
   16.58611107  159.76400757    1.13000000    2.98000002
   16.58944511  152.59300232    1.14999998    2.98000002
   16.59250069  156.09700012    1.16999996    2.98000002
   16.59583473  155.33799744    1.25000000    2.98000002
   16.59916687  157.30999756    1.30999994    2.98000002
   16.60222244  149.07699585    1.41999996    2.98000002
   16.60555649  156.93099976    1.61000001    2.98000002
   16.61138916  156.93099976    1.13000000    2.98000002
   16.61555672  158.78900146    1.11000001    2.98000002
   16.61888885  156.80099487    1.05999994    2.98000002
   16.62222290  161.14300537    1.03999996    2.98000002
   16.62527847  160.76300049    1.01999998    2.98000002
   16.62861061  156.66400146    0.92000002    3.00000000
   16.63166618  159.76800537    0.92000002    2.98000002
   16.63500023  155.70399475    0.94000000    2.98000002
   16.63833237  160.52000427    0.89999998    2.98000002
   16.64138794  155.80000305    0.83999997    2.98000002
   16.64472198  161.97099304    0.80000001    3.00000000
   16.64805603  159.27499390    0.79000002    3.00000000
   16.64861107  154.41799927    0.79000002    3.00000000
   16.65444374  154.41799927    0.75000000    2.98000002
   16.65861130  163.20300293    0.75000000    2.98000002
   16.66166687  162.73599243    0.79000002    2.98000002
   16.66499901  156.79499817    0.80000001    2.98000002
   16.66805458  158.33200073    0.81999999    2.98000002
   16.67138863  167.55200195    0.86000001    2.98000002
   16.67472076  156.03900146    0.86000001    2.98000002
   16.67777634  158.65800476    0.79000002    3.00000000
   16.68111038  158.51100159    0.80000001    3.00000000
   16.68194389  163.80099487    0.80000001    3.00000000
   16.68472099  160.61700439    0.80000001    3.00000000
   16.68777657  166.94799805    0.80000001    3.00000000
   16.69111061  162.49099731    0.76999998    3.00000000
   16.69722176  162.49099731    0.75000000    2.98000002
   16.70138931  150.79299927    0.70999998    3.00000000
   16.70444489  156.24499512    0.67000002    2.98000002
   16.70777893  155.86999512    0.69000000    3.00000000
   16.71111107  165.20799255    0.67000002    3.00000000
   16.71416664  161.70500183    0.67000002    3.00000000
   16.71527863  154.00300598    0.64999998    3.00000000
   16.71805573  155.93600464    0.69000000    3.00000000
   16.72111130  154.57600403    0.67000002    2.98000002
   16.72444534  156.22599792    0.67000002    2.98000002
   16.72750092  148.19000244    0.67000002    3.00000000
   16.73083305  158.48399353    0.67000002    2.98000002
   16.73416710  156.66900635    0.63000000    2.98000002
   16.73999977  156.66900635    0.61000001    3.00000000
   16.74416733  160.72300720    0.63000000    3.00000000
   16.74749947  159.50599670    0.64999998    2.98000002
   16.74861145  162.50799561    0.64999998    2.98000002
   16.75111198  160.71600342    0.64999998    2.98000002
   16.75416756  157.63999939    0.67000002    3.00000000
   16.75749969  159.46299744    0.67000002    3.00000000
   16.76055527  163.23300171    0.64999998    3.00000000
   16.76388931  153.15299988    0.67000002    2.98000002
   16.76722145  152.58599854    0.63000000    2.98000002
   16.77055550  151.40699768    0.67000002    2.98000002
   16.77361107  156.04699707    0.63000000    3.00000000
   16.77694511  154.81500244    0.61000001    3.00000000
   16.78305435  154.81500244    0.63000000    2.98000002
   16.78694344  153.97599792    0.55000001    3.00000000
   16.79027748  154.60499573    0.55000001    3.00000000
   16.79361153  154.42599487    0.52999997    3.00000000
   16.79666710  157.12300110    0.52999997    2.98000002
   16.79999924  155.81900024    0.52999997    2.98000002
   16.80333328  158.58799744    0.52999997    3.00000000
   16.80638885  158.18400574    0.55000001    2.98000002
   16.80972099  160.18600464    0.55000001    3.00000000
   16.81277657  156.52999878    0.56999999    3.00000000
   16.81527710  149.34300232    0.61000001    2.98000002
   16.81666756  156.04699707    0.61000001    3.00000000
   16.81972313  158.26899719    0.61000001    2.98000002
   16.82583427  158.26899719    0.63000000    2.98000002
   16.83000183  161.12399292    0.58999997    2.98000002
   16.83305550  158.31599426    0.61000001    2.98000002
   16.83638954  158.50799561    0.61000001    3.00000000
   16.83944511  158.46699524    0.61000001    3.00000000
   16.84277916  158.95899963    0.55000001    2.98000002
   16.84611130  162.04899597    0.58999997    2.98000002
   16.84861183  166.92900085    0.58999997    2.98000002
   16.84972191  157.24200439    0.58999997    2.98000002
   16.85277748  155.19400024    0.63000000    3.00000000
   16.85611153  157.63999939    0.58999997    2.98000002
   16.85916710  163.46499634    0.58999997    3.00000000
   16.86250114  154.84300232    0.64999998    2.98000002
   16.86861038  154.84300232    0.86000001    2.98000002
   16.87277794  159.69700623    0.88000000    2.98000002
   16.87583351  156.12199402    0.88000000    2.98000002
   16.87916756  153.51600647    0.86000001    2.98000002
   16.88194466  157.77400208    0.88000000    2.98000002
   16.88305473  161.71200562    0.88000000    2.98000002
   16.88611031  162.78399658    0.86000001    3.00000000
   16.88944435  163.58299255    0.86000001    3.00000000
   16.89249992  159.07000732    0.89999998    3.00000000
   16.89583397  156.72599792    0.94000000    2.98000002
   16.89916611  158.02099609    1.01999998    2.98000002
   16.90222168  165.25999451    1.01999998    2.98000002
   16.90555573  159.02900696    0.92000002    2.98000002
   16.91138840  159.02900696    0.92000002    2.98000002
   16.91555595  162.09899902    0.98000002    3.00000000
   16.91888809  158.00799561    0.98000002    2.98000002
   16.92194366  159.93099976    0.98000002    2.98000002
   16.92527771  160.44999695    0.98000002    2.98000002
   16.92860985  158.26400757    0.98000002    2.98000002
   16.93166542  162.25900269    1.00000000    2.98000002
   16.93499947  159.56399536    1.00000000    2.98000002
   16.93833160  164.08299255    1.28999996    2.98000002
   16.94138718  158.23899841    1.21000004    3.00000000
   16.94472122  160.52400208    1.14999998    2.98000002
   16.94777679  157.44099426    1.09000003    3.00000000
   16.94861031  169.32899475    1.09000003    3.00000000
   16.95416832  169.32899475    1.11000001    2.98000002
   16.95833397  158.50799561    1.07000005    2.98000002
   16.96166801  161.93499756    1.07000005    2.98000002
   16.96500015  157.16000366    1.01999998    2.98000002
   16.96805573  157.21000671    1.00000000    2.98000002
   16.97138977  171.11300659    0.89999998    3.00000000
   16.97444534  157.62699890    0.92000002    2.98000002
   16.97777748  161.55599976    0.94000000    2.98000002
   16.98111153  156.13499451    0.94000000    2.98000002
   16.98194504  157.47700500    0.88000000    2.98000002
   16.98472214  159.32499695    0.86000001    2.98000002
   16.98777771  161.08700562    0.83999997    2.98000002
   16.99111176  156.82800293    0.83999997    2.98000002
   16.99722290  156.82800293    0.89999998    3.00000000
   17.00138855  148.17799377    0.88000000    2.98000002
   17.00444412  155.13299561    0.89999998    2.98000002
   17.00777817  157.59599304    0.89999998    2.98000002
   17.01111031  154.79100037    0.89999998    2.98000002
   17.01444435  152.52299500    0.88000000    2.98000002
   17.01527786  160.44000244    0.88000000    2.98000002
   17.01805496  156.53999329    0.88000000    3.00000000
   17.02111053  152.35699463    0.80000001    2.98000002
   17.02444458  157.08099365    0.80000001    2.98000002
   17.02777672  160.05999756    0.79000002    2.98000002
   17.03083229  160.57600403    0.76999998    2.98000002
   17.03416634  160.73300171    0.75000000    3.00000000
   17.03999901  160.73300171    0.73000002    2.98000002
   17.04416656  156.64100647    0.75000000    3.00000000
   17.04722214  152.28100586    0.75000000    3.00000000
   17.04861069  152.51699829    0.76999998    2.98000002
   17.05111122  152.17900085    0.76999998    2.98000002
   17.05416679  151.87699890    0.80000001    2.98000002
   17.05749893  156.59199524    0.79000002    3.00000000
   17.06083298  161.00000000    0.73000002    2.98000002
   17.06388855  160.70500183    0.73000002    2.98000002
   17.06722260  162.45599365    0.70999998    2.98000002
   17.07027817  163.58799744    0.70999998    2.98000002
   17.07361221  167.78500366    0.64999998    3.00000000
   17.07694626  165.79200745    0.64999998    3.00000000
   17.08277893  165.79200745    0.67000002    2.98000002
   17.08694458  165.05900574    0.73000002    2.98000002
   17.09027863  161.19400024    0.79000002    2.98000002
   17.09333420  161.24600220    0.79000002    2.98000002
   17.09666824  167.29299927    0.80000001    2.98000002
   17.10000038  164.10000610    0.81999999    2.98000002
   17.10305595  171.35899353    1.16999996    2.98000002
   17.10639000  167.60200500    1.16999996    2.98000002
   17.10972214  163.44999695    1.19000006    2.98000002
   17.11277771  165.74000549    1.19000006    2.98000002
   17.11527824  176.02200317    1.39999998    2.96000004
   17.11666679  164.31199646    1.41999996    2.98000002
   17.11972237  163.08999634    1.41999996    2.98000002
   17.12555504  163.08999634    1.26999998    2.98000002
   17.12972260  169.16600037    1.14999998    2.98000002
   17.13305473  171.55999756    1.13000000    2.98000002
   17.13611031  164.64599609    1.05999994    2.98000002
   17.13944435  152.73199463    1.05999994    2.98000002
   17.14277840  154.29800415    0.92000002    2.98000002
   17.14583397  165.87699890    0.92000002    2.98000002
   17.14861107  170.72399902    0.86000001    2.98000002
   17.14972115  155.21299744    0.86000001    2.98000002
   17.15277672  173.34899902    0.86000001    2.98000002
   17.15611076  162.89599609    0.86000001    2.98000002
   17.15944481  158.72700500    0.86000001    2.98000002
   17.16250038  163.10299683    0.88000000    2.98000002
   17.16860962  163.10299683    0.79000002    2.98000002
   17.17249870  163.83700562    0.81999999    2.98000002
   17.17583275  164.87100220    0.81999999    2.98000002
   17.17916679  180.38900757    0.81999999    2.98000002
   17.18194389  167.44400024    0.86000001    2.98000002
   17.18277740  172.99000549    0.86000001    3.00000000
   17.18583298  165.73800659    0.86000001    2.98000002
   17.18916512  160.90199280    0.86000001    2.98000002
   17.19249916  162.16900635    0.76999998    2.98000002
   17.19555473  149.59800720    0.75000000    3.00000000
   17.19888878  172.75799561    0.79000002    2.98000002
   17.20222282  165.17799377    0.76999998    2.98000002
   17.20527840  159.76300049    0.79000002    3.00000000
   17.21138954  159.76300049    0.92000002    2.98000002
   17.21555710  165.27999878    0.92000002    2.98000002
   17.21888924  164.86799622    0.95999998    2.98000002
   17.22222328  164.03199768    0.95999998    2.98000002
   17.22527885  165.20199585    1.00000000    2.98000002
   17.22861099  157.45100403    0.98000002    2.98000002
   17.23166656  152.79699707    1.00000000    2.98000002
   17.23500061  155.92500305    1.00000000    2.98000002
   17.23833275  162.52699280    1.09000003    2.98000002
   17.24138832  159.20500183    1.09000003    2.98000002
   17.24472237  159.59500122    1.13000000    2.96000004
   17.24805641  154.77000427    1.19000006    2.98000002
   17.24861145  148.91000366    1.19000006    2.98000002
   17.25444412  148.91000366    1.09000003    2.98000002
   17.25861168  160.59800720    1.09000003    2.98000002
   17.26166725  161.31799316    1.09000003    2.98000002
   17.26499939  158.49600220    1.00000000    2.98000002
   17.28222275  152.36900330    0.94000000    2.98000002
   17.28499985  154.33599854    0.94000000    2.98000002
   17.28833199  156.53300476    0.95999998    2.98000002
   17.29138756  157.48599243    0.95999998    2.98000002
   17.29722214  157.48599243    0.98000002    2.98000002
   17.30138779  164.71000671    0.98000002    2.98000002
   17.30444336  158.07600403    0.94000000    2.98000002
   17.30777740  180.79600525    0.94000000    2.98000002
   17.31083298  158.85699463    0.94000000    2.98000002
   17.31416512  162.43800354    0.95999998    2.96000004
   17.31555557  169.77099609    0.95999998    2.98000002
   17.31805611  162.76699829    0.95999998    2.98000002
   17.32111168  162.17399597    0.94000000    2.98000002
   17.32444572  163.48599243    0.89999998    2.98000002
   17.32750130  165.10400391    0.80000001    2.98000002
   17.33083344  165.33299255    0.80000001    2.98000002
   17.33416748  160.47300720    0.81999999    2.98000002
   17.34000015  160.47300720    0.76999998    2.98000002
   17.34416771  160.36500549    0.83999997    2.98000002
   17.34722328  171.57600403    0.81999999    2.98000002
   17.34889030  171.06100464    0.81999999    2.98000002
   17.35111237  171.15800476    0.79000002    3.00000000
   17.35416794  174.31599426    0.79000002    3.00000000
   17.35750008  168.03700256    0.81999999    2.98000002
   17.36055565  161.83999634    0.81999999    2.98000002
   17.36388969  164.62600708    0.76999998    2.98000002
   17.36722183  174.63800049    0.79000002    2.98000002
   17.37027740  160.16799927    0.70999998    2.98000002
   17.37361145  155.96099854    0.69000000    2.98000002
   17.37694550  164.25999451    0.69000000    2.98000002
   17.38277817  164.25999451    0.67000002    2.98000002
   17.38694382  165.62300110    0.64999998    3.00000000
   17.39027786  161.38200378    0.63000000    2.98000002
   17.39361191  160.39100647    0.63000000    2.98000002
   17.39666748  172.75599670    0.64999998    2.98000002
   17.39999962  160.20700073    0.83999997    2.98000002
   17.40333366  163.76699829    0.86000001    2.96000004
   17.40638924  164.75100708    0.86000001    2.98000002
   17.40972137  161.56700134    0.86000001    2.98000002
   17.41277695  159.81300354    0.86000001    2.98000002
   17.41555595  160.64100647    0.86000001    2.98000002
   17.41666603  157.36599731    0.86000001    2.98000002
   17.41972160  162.49400330    0.83999997    2.98000002
   17.42555428  162.49400330    0.83999997    2.98000002
   17.42972183  158.20300293    0.73000002    2.98000002
   17.43305397  150.77099609    0.73000002    2.98000002
   17.43610954  156.24099731    0.73000002    2.98000002
   17.43944359  158.86700439    0.73000002    3.00000000
   17.44277763  155.61199951    0.73000002    2.98000002
   17.44583321  156.84500122    0.70999998    2.98000002
   17.44888878  154.85800171    0.69000000    2.98000002
   17.44972038  155.17599487    0.69000000    2.98000002
   17.45277786  153.84100342    0.70999998    2.98000002
   17.45611191  152.03399658    0.64999998    3.00000000
   17.45944595  157.83500671    0.58999997    2.98000002
   17.46250153  159.12100220    0.56999999    2.98000002
   17.46861076  159.12100220    0.58999997    2.98000002
   17.47277832  156.03599548    0.58999997    3.00000000
   17.47583389  158.14500427    0.58999997    2.98000002
   17.47916794  166.62399292    0.58999997    2.98000002
   17.48222351  168.71899414    0.63000000    2.98000002
   17.48277855  177.13099670    0.63000000    2.98000002
   17.48583412  161.99800110    0.63000000    2.98000002
   17.48916626  170.57000732    0.63000000    2.98000002
   17.49222183  180.01300049    0.63000000    2.98000002
   17.49555588  184.38299561    0.61000001    2.98000002
   17.49888992  175.67199707    0.64999998    2.98000002
   17.50194359  190.00599670    0.64999998    2.98000002
   17.50527763  180.19299316    0.52999997    3.00000000
   17.51138878  180.19299316    0.51999998    2.98000002
   17.51555634  165.28300476    0.51999998    2.98000002
   17.51611137  163.11900330    0.51999998    2.98000002
   17.51916695  163.19700623    0.51999998    2.98000002
   17.52249908  165.38499451    0.55000001    2.98000002
   17.52555466  162.68699646    0.55000001    2.98000002
   17.52888870  158.81100464    0.56999999    2.98000002
   17.53222275  167.54400635    0.58999997    2.98000002
   17.53527641  159.27200317    0.58999997    2.98000002
   17.53861046  157.20799255    0.58999997    2.98000002
   17.54194450  160.62100220    0.58999997    2.98000002
   17.54500008  161.33500671    0.61000001    2.98000002
   17.54833221  168.47300720    0.63000000    2.98000002
   17.54888916  163.99000549    0.63000000    2.98000002
   17.55416679  163.99000549    0.64999998    2.98000002
   17.55833244  164.97000122    0.75000000    2.98000002
   17.56166649  164.73100281    0.80000001    2.98000002
   17.56472206  163.44900513    0.80000001    2.98000002
   17.56805611  170.45500183    0.76999998    2.98000002
   17.57111168  167.86199951    0.76999998    2.98000002
   17.57444572  161.42199707    0.76999998    2.98000002
   17.57777786  169.68600464    0.76999998    2.98000002
   17.58083344  163.28700256    0.80000001    2.98000002
   17.58222389  161.83399963    0.89999998    3.00000000
   17.58444595  167.71899414    0.89999998    2.98000002
   17.58777809  158.29200745    0.98000002    2.98000002
   17.59111214  163.15899658    0.98000002    2.98000002
   17.59694481  163.15899658    0.94000000    2.98000002
   17.60111237  165.77999878    0.89999998    2.98000002
   17.60444450  161.82400513    0.89999998    2.98000002
   17.60750008  176.06399536    0.98000002    2.98000002
   17.61083412  168.07600403    0.98000002    2.98000002
   17.61416626  166.39900208    0.94000000    2.98000002
   17.61555672  162.76699829    0.94000000    2.98000002
   17.61777878  168.23300171    0.81999999    2.98000002
   17.62083435  172.37199402    0.75000000    2.98000002
   17.62416649  173.95799255    0.80000001    2.98000002
   17.62722206  164.46400452    0.80000001    2.98000002
   17.63055611  166.37100220    0.79000002    2.98000002
   17.63388824  157.10099792    0.79000002    2.98000002
   17.63972282  157.10099792    0.81999999    2.98000002
   17.64388847  159.57200623    0.79000002    2.96000004
   17.64722252  163.22999573    0.79000002    2.98000002
   17.64888954  164.72999573    0.79000002    2.96000004
   17.65111160  158.97999573    0.75000000    2.98000002
   17.65416718  155.08099365    0.75000000    2.98000002
   17.65749931  160.11300659    0.75000000    2.98000002
   17.66055489  161.94200134    0.75000000    2.96000004
   17.66388893  159.98899841    0.79000002    2.98000002
   17.66722107  164.14300537    0.79000002    2.98000002
   17.67027664  163.60200500    0.79000002    2.98000002
   17.67361069  163.04600525    0.79000002    2.98000002
   17.67694473  158.64700317    0.76999998    2.98000002
   17.68277740  158.64700317    0.80000001    2.98000002
   17.68694305  156.75799561    0.80000001    2.98000002
   17.68999863  158.56500244    0.94000000    2.98000002
   17.69333267  156.73599243    0.94000000    2.98000002
   17.69638824  155.72399902    0.94000000    2.98000002
   17.70027924  160.34300232    0.95999998    2.98000002
   17.70361137  152.44999695    0.92000002    2.98000002
   17.70750046  155.35600281    0.98000002    2.98000002
   17.71083450  154.91900635    1.03999996    2.98000002
   17.71416664  156.99299622    1.05999994    2.96000004
   17.71555710  154.34899902    1.05999994    2.96000004
   17.71777916  150.04899597    1.07000005    2.98000002
   17.72111130  153.63200378    1.13000000    2.96000004
   17.72555542  153.63200378    1.05999994    2.96000004
   17.72972298  154.16999817    1.09000003    2.96000004
   17.73305511  157.98300171    1.00000000    2.98000002
   17.73611069  161.55900574    0.94000000    2.98000002
   17.73944473  159.92199707    1.09000003    2.98000002
   17.74250031  154.39100647    1.09000003    2.98000002
   17.74583435  159.18400574    1.01999998    2.98000002
   17.74888992  163.79699707    0.98000002    2.98000002
   17.74944496  157.61000061    0.98000002    2.98000002
   17.75250053  159.81399536    1.05999994    2.98000002
   17.75583267  156.99000549    1.11000001    2.96000004
   17.75916672  156.50700378    1.11000001    2.96000004
   17.76222229  156.22300720    1.11000001    2.96000004
   17.76833344  156.22300720    1.00000000    2.98000002
   17.77249908  166.46600342    0.98000002    2.98000002
   17.77583313  162.53100586    0.92000002    2.96000004
   17.77888870  154.85000610    0.89999998    2.98000002
   17.78222275  159.40499878    0.89999998    2.98000002
   17.78277779  161.11900330    0.88000000    2.96000004
   17.78583336  159.05900574    0.88000000    2.96000004
   17.78916550  161.84300232    0.89999998    2.96000004
   17.79249954  157.43800354    0.86000001    2.98000002
   17.79555511  154.15699768    0.81999999    2.98000002
   17.79888916  158.58099365    0.79000002    2.98000002
   17.80194283  153.40400696    0.76999998    2.98000002
   17.80527687  154.78199768    0.76999998    2.98000002
   17.81138802  154.78199768    0.76999998    2.98000002
   17.81555557  147.96600342    0.76999998    2.96000004
   17.81583214  146.08900452    0.75000000    2.96000004
   17.81916809  158.56700134    0.76999998    2.96000004
   17.82250023  153.54299927    0.79000002    2.98000002
   17.82555580  156.66499329    0.76999998    2.98000002
   17.82888985  154.44799805    0.79000002    2.96000004
   17.83194542  159.65800476    0.79000002    2.98000002
   17.83527756  161.03700256    0.80000001    2.98000002
   17.83861160  155.73500061    0.80000001    2.98000002
   17.84166718  156.68600464    0.83999997    2.98000002
   17.84500122  155.88499451    0.88000000    2.98000002
   17.84805679  158.44700623    0.95999998    2.98000002
   17.84916687  158.77499390    0.95999998    2.98000002
   17.85416794  158.77499390    0.95999998    2.98000002
   17.85833359  151.42799377    0.98000002    2.98000002
   17.86138916  155.18499756    1.00000000    2.98000002
   17.86472321  157.33999634    1.00000000    2.98000002
   17.86777878  160.22799683    1.01999998    2.98000002
   17.87111092  160.68600464    1.05999994    2.98000002
   17.87444496  157.60200500    1.11000001    2.98000002
   17.87750053  159.34199524    1.14999998    2.96000004
   17.88083267  156.75999451    1.21000004    2.96000004
   17.88277817  155.32600403    1.21000004    2.96000004
   17.88444519  159.00199890    1.21000004    2.96000004
   17.88777733  156.41499329    1.19000006    2.98000002
   17.89083290  157.89500427    1.16999996    2.96000004
   17.89694405  157.89500427    1.11000001    2.98000002
   17.90111160  159.18899536    1.09000003    2.96000004
   17.90444374  152.89399719    1.05999994    2.98000002
   17.90749931  155.56500244    1.01999998    2.96000004
   17.91083336  161.78599548    1.01999998    2.96000004
   17.91388893  155.99299622    1.01999998    2.98000002
   17.91611099  156.71699524    1.05999994    2.96000004
   17.91749954  156.43600464    1.05999994    2.96000004
   17.92083359  157.24099731    1.01999998    2.96000004
   17.92388916  152.35899353    1.01999998    2.96000004
   17.92722130  158.17300415    1.01999998    2.98000002
   17.93027687  157.55700684    1.00000000    2.98000002
   17.93361092  157.35899353    1.00000000    2.96000004
   17.93972206  157.35899353    0.89999998    2.98000002
   17.94388771  157.41700745    0.92000002    2.98000002
   17.94722176  158.19700623    0.92000002    2.98000002
   17.94944382  160.20300293    0.92000002    2.98000002
   17.95083427  156.15100098    0.92000002    2.98000002
   17.95416832  165.13999939    0.92000002    2.98000002
   17.95722389  141.75300598    0.94000000    2.96000004
   17.96055603  165.70500183    1.01999998    2.98000002
   17.96389008  164.75199890    1.01999998    2.98000002
   17.96694565  156.63299561    1.03999996    2.96000004
   17.97027779  157.82000732    1.01999998    2.96000004
   17.97333336  152.44700623    1.01999998    2.96000004
   17.97666740  154.04200745    1.03999996    2.96000004
   17.98277855  154.04200745    1.03999996    2.98000002
   17.98694420  155.08700562    1.00000000    2.98000002
   17.98999977  159.94500732    1.07000005    2.96000004
   17.99333382  151.08700562    1.07000005    2.96000004
   17.99638939  154.54800415    1.07000005    2.96000004
   17.99972153  162.96499634    1.01999998    2.96000004
   18.00277710  155.91299438    1.03999996    2.96000004
   18.00611115  154.54400635    1.05999994    2.96000004
   18.00944519  155.89300537    1.05999994    2.98000002
   18.01250076  159.21099854    1.11000001    2.96000004
   18.01583290  156.05900574    1.11000001    2.98000002
   18.01638794  157.49200439    1.11000001    2.98000002
   18.01944351  157.00199890    1.11000001    2.98000002
   18.02555466  157.00199890    1.09000003    2.96000004
   18.02972221  161.42799377    1.09000003    2.96000004
   18.03277779  165.30000305    1.19000006    2.98000002
   18.03610992  163.10099792    1.16999996    2.96000004
   18.03916550  158.30400085    1.28999996    2.96000004
   18.04249954  158.12199402    1.19000006    2.96000004
   18.04583359  153.10800171    1.26999998    2.96000004
   18.04888916  155.38200378    1.26999998    2.96000004
   18.04972076  156.35400391    1.26999998    2.96000004
   18.05249977  156.67199707    1.39999998    2.96000004
   18.05583191  158.00999451    1.51999998    2.96000004
   18.05888748  163.30999756    1.51999998    2.96000004
   18.06222153  154.15600586    1.53999996    2.96000004
   18.06833458  154.15600586    1.14999998    2.96000004
   18.07250023  156.73300171    1.14999998    2.96000004
   18.07583427  159.03900146    1.14999998    2.96000004
   18.07888985  157.10400391    1.13000000    2.96000004
   18.08222389  157.49200439    1.11000001    2.96000004
   18.08305550  153.32400513    1.11000001    2.96000004
   18.08583450  153.70199585    1.21000004    2.96000004
   18.08916664  157.99600220    1.25000000    2.96000004
   18.09222221  154.58500671    1.21000004    2.98000002
   18.09555626  158.02799988    1.16999996    2.96000004
   18.09889030  163.47200012    1.14999998    2.96000004
   18.10194397  158.95700073    1.14999998    2.96000004
   18.10527802  158.56799316    1.19000006    2.96000004
   18.11138916  158.56799316    1.28999996    2.96000004
   18.11527824  162.39500427    1.28999996    2.96000004
   18.11638832  168.06599426    1.28999996    2.96000004
   18.11888885  177.14700317    1.25000000    2.98000002
   18.12222290  166.70700073    1.21000004    2.98000002
   18.12527847  157.64399719    1.26999998    2.98000002
   18.12861061  155.71600342    1.19000006    2.96000004
   18.13194466  157.89599609    1.28999996    2.96000004
   18.13583374  157.78900146    1.34000003    2.96000004
   18.13888931  174.26400757    1.28999996    2.96000004
   18.14222145  169.73699951    1.23000002    2.96000004
   18.14555550  172.16900635    1.01999998    2.96000004
   18.14861107  168.82499695    1.14999998    2.96000004
   18.14972115  159.44299316    1.14999998    2.96000004
   18.15416718  159.44299316    1.23000002    2.98000002
   18.15833282  169.52699280    1.21000004    2.96000004
   18.16277695  164.83599854    1.21000004    2.96000004
   18.16583252  165.56399536    1.21000004    2.96000004
   18.16916656  160.68600464    1.21000004    2.96000004
   18.17222214  163.31300354    1.11000001    2.96000004
   18.17555428  162.92399597    1.26999998    2.96000004
   18.17888832  160.69200134    1.34000003    2.96000004
   18.18194389  158.78900146    1.30999994    2.96000004
   18.18305397  160.49099731    1.30999994    2.96000004
   18.18555450  157.53300476    1.28999996    2.96000004
   18.18888855  162.67199707    1.21000004    2.96000004
   18.19222069  157.26699829    1.50000000    2.96000004
   18.19694328  157.26699829    1.60000002    2.96000004
   18.20111275  157.33599854    1.50000000    2.96000004
   18.20444489  155.14199829    1.50000000    2.96000004
   18.20750046  159.85000610    1.44000006    2.96000004
   18.21083450  160.80599976    1.51999998    2.96000004
   18.21389008  157.60899353    1.51999998    2.96000004
   18.21638870  166.59800720    1.50000000    2.96000004
   18.21750069  159.04200745    1.50000000    2.96000004
   18.22083473  162.76100159    1.53999996    2.96000004
   18.22416687  158.97599792    1.51999998    2.96000004
   18.22722244  165.07400513    1.28999996    2.96000004
   18.23055649  168.38099670    1.28999996    2.96000004
   18.23361206  167.12399292    1.14999998    2.96000004
   18.23972321  167.12399292    1.25000000    2.96000004
   18.24388885  160.48100281    1.25000000    2.96000004
   18.24722290  168.58099365    1.26999998    2.96000004
   18.24972153  166.57699585    1.26999998    2.96000004
   18.25055504  163.76300049    1.33000004    2.94000006
   18.25388908  164.11700439    1.38000000    2.96000004
   18.25722313  173.44700623    1.36000001    2.98000002
   18.26027870  163.84899902    1.26999998    2.96000004
   18.26361084  168.33799744    1.25000000    2.96000004
   18.26666641  162.06799316    1.19000006    2.96000004
   18.27000046  170.99099731    1.19000006    2.96000004
   18.27333260  170.82099915    1.14999998    2.96000004
   18.27638817  167.20799255    1.19000006    2.94000006
   18.28277779  167.20799255    1.19000006    2.96000004
   18.30111122  164.46600342    1.39999998    2.96000004
   18.30416679  162.44799805    1.39999998    2.94000006
   18.30749893  168.08200073    1.41999996    2.96000004
   18.31083298  160.17900085    1.44000006    2.96000004
   18.31388855  165.68800354    1.51999998    2.94000006
   18.31722260  160.04100037    1.61000001    2.94000006
   18.32027817  160.70700073    1.61000001    2.96000004
   18.32583427  160.70700073    1.60000002    2.94000006
   18.33000183  162.71200562    1.60000002    2.96000004
   18.33305550  158.03900146    1.60000002    2.96000004
   18.33416748  162.99800110    1.60000002    2.96000004
   18.33666801  157.00500488    1.60000002    2.96000004
   18.34000015  155.47000122    1.60000002    2.96000004
   18.34333420  164.39100647    1.61000001    2.96000004
   18.34638977  165.24400330    1.75000000    2.96000004
   18.34972191  156.53799438    1.86000001    2.94000006
   18.35277748  155.18200684    1.80999994    2.96000004
   18.35611153  161.12699890    1.80999994    2.96000004
   18.35944557  154.70899963    1.55999994    2.96000004
   18.36250114  159.24000549    1.61000001    2.94000006
   18.36861038  159.24000549    1.58000004    2.94000006
   18.37249947  156.44400024    1.36000001    2.96000004
   18.37583351  161.65499878    1.38000000    2.94000006
   18.37916756  159.65899658    1.33000004    2.96000004
   18.38222313  157.69700623    1.34000003    2.96000004
   18.38555527  158.19700623    1.34000003    2.96000004
   18.38861084  157.02499390    1.33000004    2.96000004
   18.39194489  164.47900391    1.28999996    2.96000004
   18.39527702  159.65100098    1.25000000    2.96000004
   18.39861107  157.57000732    1.30999994    2.96000004
   18.40055466  160.64399719    1.30999994    2.96000004
   18.40222168  160.84700012    1.33000004    2.96000004
   18.40555573  157.56500244    1.36000001    2.96000004
   18.41138840  157.56500244    1.36000001    2.96000004
   18.41555595  159.39500427    1.53999996    2.96000004
   18.41860962  154.45399475    1.58000004    2.94000006
   18.42194366  152.95700073    1.58000004    2.96000004
   18.42499924  161.25100708    1.58000004    2.94000006
   18.42833328  157.62199402    1.14999998    2.96000004
   18.43166542  162.63900757    1.16999996    2.94000006
   18.43388748  166.37800598    1.16999996    2.94000006
   18.43527603  162.67399597    1.19000006    2.96000004
   18.43861008  161.23199463    1.25000000    2.94000006
   18.44166565  159.71400452    1.25000000    2.94000006
   18.44499969  163.83700562    1.25000000    2.96000004
   18.44805527  163.03100586    1.25000000    2.96000004
   18.45416832  163.03100586    1.23000002    2.94000006
   18.45833397  161.83599854    1.21000004    2.94000006
   18.46138954  162.55299377    1.19000006    2.96000004
   18.46472359  160.38400269    1.19000006    2.96000004
   18.46722221  164.16600037    1.19000006    2.96000004
   18.46833420  158.51199341    1.14999998    2.94000006
   18.47138977  157.53799438    1.14999998    2.94000006
   18.47472191  161.93099976    1.11000001    2.94000006
   18.47805595  162.63800049    1.07000005    2.96000004
   18.48111153  162.18099976    1.16999996    2.96000004
   18.48444557  162.19400024    1.16999996    2.94000006
   18.48750114  159.09899902    1.16999996    2.94000006
   18.49083328  164.71099854    1.16999996    2.94000006
   18.49694443  164.71099854    1.25000000    2.94000006
   18.50111198  163.27099609    1.25000000    2.94000006
   18.50416756  162.69700623    1.26999998    2.96000004
   18.50749969  161.45799255    1.25000000    2.96000004
   18.51083374  158.34599304    1.25000000    2.96000004
   18.51388931  163.36099243    1.19000006    2.94000006
   18.51722145  153.31599426    1.13000000    2.94000006
   18.52027702  160.01199341    1.13000000    2.94000006
   18.52361107  157.84599304    1.13000000    2.96000004
   18.52694511  168.11399841    1.11000001    2.96000004
   18.53000069  155.37300110    1.07000005    2.96000004
   18.53333282  157.68600464    1.07000005    2.96000004
   18.53416634  164.54200745    1.07000005    2.96000004
   18.53999901  164.54200745    1.09000003    2.96000004
   18.54388809  164.63099670    0.98000002    2.94000006
   18.54722214  165.64300537    1.00000000    2.94000006
   18.55055428  161.39300537    1.00000000    2.94000006
   18.55360985  160.63999939    1.00000000    2.96000004
   18.55694389  163.24800110    0.94000000    2.94000006
   18.56027794  163.77499390    0.98000002    2.96000004
   18.56333351  164.12899780    1.05999994    2.94000006
   18.56666756  167.27400208    1.07000005    2.94000006
   18.56750107  163.22999573    1.07000005    2.94000006
   18.57027817  165.31900024    1.09000003    2.94000006
   18.57361221  160.21699524    1.09000003    2.94000006
   18.57666779  161.37199402    1.07000005    2.94000006
   18.58277893  161.37199402    1.23000002    2.94000006
   18.58694458  162.30999756    1.33000004    2.94000006
   18.59000015  165.27499390    1.33000004    2.96000004
   18.59333420  161.64799500    1.28999996    2.94000006
   18.59638977  161.32400513    1.28999996    2.94000006
   18.59972191  164.72300720    1.30999994    2.94000006
   18.60083389  166.30000305    1.30999994    2.94000006
   18.60333443  163.58500671    1.28999996    2.94000006
   18.60666656  159.06399536    1.41999996    2.94000006
   18.60972214  166.27799988    1.41999996    2.94000006
   18.61305618  152.92700195    1.41999996    2.96000004
   18.61638832  156.59199524    1.39999998    2.94000006
   18.61944389  160.86900330    1.50000000    2.94000006
   18.62555504  160.86900330    1.41999996    2.94000006
   18.62972260  153.61599731    1.41999996    2.94000006
   18.63305473  161.59599304    1.36000001    2.96000004
   18.63416672  161.74299622    1.36000001    2.96000004
   18.63638878  157.83299255    1.36000001    2.96000004
   18.63972282  166.87899780    1.38000000    2.94000006
   18.64277840  156.88099670    1.48000002    2.94000006
   18.64611053  166.05900574    1.34000003    2.94000006
   18.64944458  162.42300415    1.25000000    2.94000006
   18.65250015  164.35800171    1.16999996    2.94000006
   18.65583229  157.83099365    1.11000001    2.94000006
   18.65888786  161.42300415    1.11000001    2.94000006
   18.66222191  165.09399414    1.13000000    2.94000006
   18.66833305  165.09399414    1.03999996    2.94000006
   18.67249870  159.43200684    1.05999994    2.94000006
   18.67583275  158.21099854    1.11000001    2.94000006
   18.67888832  160.70700073    1.28999996    2.94000006
   18.68222237  162.47700500    1.26999998    2.94000006
   18.68555450  160.25500488    1.26999998    2.94000006
   18.68861008  157.51499939    1.30999994    2.94000006
   18.69194412  165.59300232    1.30999994    2.94000006
   18.69499969  163.91200256    1.26999998    2.94000006
   18.69833183  159.24499512    1.26999998    2.94000006
   18.70083427  158.05599976    1.33000004    2.94000006
   18.70194435  156.96400452    1.33000004    2.94000006
   18.70527840  156.34700012    1.30999994    2.94000006
   18.71138954  156.34700012    1.38000000    2.94000006
   18.71555710  154.57600403    1.46000004    2.94000006
   18.71861076  158.14700317    1.46000004    2.94000006
   18.72194481  159.99800110    1.50000000    2.94000006
   18.72500038  161.67100525    1.51999998    2.93000007
   18.72833443  159.16200256    1.51999998    2.94000006
   18.73139000  156.36300659    1.51999998    2.94000006
   18.73416710  156.35400391    1.50000000    2.94000006
   18.73500061  152.41799927    1.44000006    2.94000006
   18.73833275  155.38600159    1.76999998    2.94000006
   18.74166679  160.40600586    1.91999996    2.94000006
   18.74472237  156.90100098    2.01999998    2.93000007
   18.74805641  165.89999390    1.91999996    2.94000006
   18.75416756  165.89999390    1.78999996    2.94000006
   18.75833321  160.55900574    2.55999994    2.93000007
   18.76138878  158.19000244    3.50000000    2.93000007
   18.76472282  160.18400574    3.46000004    2.91000009
   18.76749992  156.09599304    2.96000004    2.91000009
   18.76833344  151.66299438    2.96000004    2.93000007
   18.77166557  159.27000427    2.78999996    2.93000007
   18.77499962  157.26899719    2.07999992    2.94000006
   18.77805519  156.62800598    1.75000000    2.94000006
   18.78138924  159.44500732    1.60000002    2.94000006
   18.78444481  159.61500549    1.53999996    2.93000007
   18.78805542  155.66799927    1.44000006    2.94000006
   18.79138756  155.89700317    1.44000006    2.93000007
   18.79694366  155.89700317    1.41999996    2.94000006
   18.80111122  154.96099854    1.75000000    2.94000006
   18.80444336  159.41299438    1.80999994    2.94000006
   18.80749893  161.33399963    1.64999998    2.94000006
   18.81083298  162.31199646    1.33000004    2.94000006
   18.81388855  158.66900635    1.36000001    2.94000006
   18.81722260  161.22799683    1.34000003    2.94000006
   18.82055664  161.42199707    1.34000003    2.93000007
   18.82361221  156.69599915    1.33000004    2.94000006
   18.82694626  158.97200012    1.30999994    2.94000006
   18.83000183  158.76199341    1.33000004    2.94000006
   18.83333397  160.97900391    1.34000003    2.93000007
   18.83416748  162.01800537    1.38000000    2.94000006
   18.83972359  162.01800537    1.39999998    2.93000007
   18.84388924  158.36199951    1.39999998    2.94000006
   18.84722328  162.52799988    1.39999998    2.94000006
   18.85027885  163.78199768    1.41999996    2.94000006
   18.85361099  156.31399536    1.46000004    2.94000006
   18.85694504  161.53900146    1.39999998    2.94000006
   18.86000061  165.38200378    1.30999994    2.94000006
   18.86333466  160.12899780    1.28999996    2.94000006
   18.86638832  155.59300232    1.28999996    2.94000006
   18.86750031  154.71600342    1.28999996    2.93000007
   18.87000084  161.17100525    1.28999996    2.93000007
   18.87333298  162.04100037    1.28999996    2.94000006
   18.87638855  157.47599792    1.23000002    2.93000007
   18.88277817  157.47599792    1.21000004    2.94000006
   18.88666725  161.78199768    1.21000004    2.93000007
   18.88999939  160.18899536    1.13000000    2.94000006
   18.89333344  159.62800598    1.14999998    2.93000007
   18.89638901  161.04200745    1.13000000    2.94000006
   18.89972115  161.91600037    1.14999998    2.94000006
   18.90083313  160.22399902    1.16999996    2.93000007
   18.90305519  160.58700562    1.14999998    2.93000007
   18.90638924  160.92100525    1.14999998    2.94000006
   18.90944481  158.84899902    1.14999998    2.94000006
   18.91277695  162.99000549    1.14999998    2.93000007
   18.91611099  160.17599487    1.13000000    2.93000007
   18.91916656  163.08299255    1.11000001    2.93000007
   18.92555428  163.08299255    1.14999998    2.94000006
   18.92972183  162.35000610    1.25000000    2.94000006
   18.93277740  157.99600220    1.25000000    2.93000007
   18.93416595  156.44700623    1.25000000    2.93000007
   18.93638802  161.68200684    1.26999998    2.93000007
   18.93972206  167.36000061    1.30999994    2.93000007
   18.94277763  158.33200073    1.23000002    2.93000007
   18.94610977  163.86300659    1.23000002    2.93000007
   18.94944382  163.77999878    1.21000004    2.93000007
   18.95250130  163.35499573    1.21000004    2.93000007
   18.95583344  159.17599487    1.11000001    2.94000006
   18.95916748  165.74800110    1.09000003    2.94000006
   18.96222305  163.38499451    1.09000003    2.94000006
   18.96833420  163.38499451    1.09000003    2.93000007
   18.97249985  166.88000488    1.09000003    2.94000006
   18.97555542  166.45799255    1.05999994    2.93000007
   18.97888947  159.85600281    1.05999994    2.93000007
   18.98222351  158.89100647    1.01999998    2.94000006
   18.98527718  162.00500488    1.03999996    2.93000007
   18.98861122  161.29100037    1.05999994    2.93000007
   18.99166679  155.12600708    1.07000005    2.93000007
   18.99500084  163.64900208    1.07000005    2.94000006
   18.99833298  159.90699768    1.07000005    2.94000006
   19.00083351  163.34500122    1.11000001    2.94000006
   19.00166702  156.52099609    1.11000001    2.94000006
   19.00499916  158.14199829    1.13000000    2.93000007
   19.01111031  158.14199829    1.34000003    2.93000007
   19.01527786  162.58500671    1.33000004    2.93000007
   19.01861000  164.52000427    1.34000003    2.93000007
   19.02166557  163.49200439    1.28999996    2.93000007
   19.02499962  164.92500305    1.28999996    2.94000006
   19.02805519  170.17700195    1.28999996    2.94000006
   19.03138924  160.44799805    1.28999996    2.93000007
   19.03416634  163.11599731    1.28999996    2.93000007
   19.03499985  156.72900391    1.28999996    2.93000007
   19.03833199  157.07200623    1.26999998    2.93000007
   19.04166603  160.65699768    1.25000000    2.94000006
   19.04472160  160.30999756    1.21000004    2.94000006
   19.04805565  162.42500305    1.19000006    2.93000007
   19.05416679  162.42500305    1.19000006    2.93000007
   19.05805397  152.73399353    1.19000006    2.93000007
   19.06138802  155.44299316    1.19000006    2.93000007
   19.06472206  157.86999512    1.21000004    2.93000007
   19.06750107  158.47000122    1.25000000    2.93000007
   19.06805611  156.22799683    1.25000000    2.93000007
   19.07139015  159.25500488    1.23000002    2.94000006
   19.07472229  162.42999268    1.19000006    2.93000007
   19.07777786  161.36199951    1.19000006    2.93000007
   19.08111191  157.84100342    1.19000006    2.93000007
   19.08416748  157.59700012    1.23000002    2.93000007
   19.08750153  156.98899841    1.25000000    2.93000007
   19.09083366  157.55499268    1.25000000    2.93000007
   19.09694481  157.55499268    1.23000002    2.93000007
   19.10111237  159.13499451    1.26999998    2.93000007
   19.10416794  156.79100037    1.33000004    2.93000007
   19.10750008  161.52400208    1.30999994    2.93000007
   19.11055565  157.67799377    1.26999998    2.93000007
   19.11388969  158.24600220    1.26999998    2.93000007
   19.11722183  161.03100586    1.16999996    2.93000007
   19.12027740  157.34199524    1.16999996    2.93000007
   19.12361145  159.16799927    1.14999998    2.93000007
   19.12666702  161.00199890    1.14999998    2.93000007
   19.13000107  161.00399780    1.16999996    2.93000007
   19.13333321  160.75900269    1.16999996    2.93000007
   19.13416672  160.58099365    1.16999996    2.93000007
   19.13972282  160.58099365    1.19000006    2.94000006
   19.14388847  162.04899597    1.21000004    2.93000007
   19.14722252  161.75799561    1.36000001    2.93000007
   19.15027809  158.22399902    1.38000000    2.93000007
   19.15361023  161.58700562    1.23000002    2.93000007
   19.15694427  158.76899719    1.23000002    2.93000007
   19.15999985  160.38499451    1.34000003    2.93000007
   19.16361046  161.88800049    1.26999998    2.93000007
   19.16694450  156.22799683    1.34000003    2.93000007
   19.16749954  163.14500427    1.34000003    2.93000007
   19.17055511  156.29299927    1.34000003    2.91000009
   19.17361069  157.40400696    1.34000003    2.93000007
   19.17694473  160.53599548    1.33000004    2.93000007
   19.18249893  160.53599548    1.33000004    2.93000007
   19.18666649  158.75500488    1.33000004    2.93000007
   19.18999863  160.78599548    1.33000004    2.91000009
   19.19305420  160.74299622    1.36000001    2.91000009
   19.19638824  163.17900085    1.33000004    2.91000009
   19.19972038  161.80700684    1.36000001    2.93000007
   19.20083427  161.30299377    1.38000000    2.93000007
   19.20333481  160.47599792    1.39999998    2.93000007
   19.20639038  160.32899475    1.39999998    2.93000007
   19.20972252  164.08299255    1.39999998    2.93000007
   19.21277809  158.72500610    1.39999998    2.91000009
   19.21611214  162.66999817    1.44000006    2.93000007
   19.21916771  155.73699951    1.44000006    2.93000007
   19.22555542  155.73699951    1.53999996    2.91000009
   19.22972298  160.54600525    1.51999998    2.91000009
   19.23277855  159.31900024    1.53999996    2.93000007
   19.23416710  157.35600281    1.53999996    2.93000007
   19.23666763  163.79200745    1.51999998    2.93000007
   19.23972321  167.51899719    1.51999998    2.93000007
   19.24305534  158.66200256    1.41999996    2.91000009
   19.24611092  161.72399902    1.41999996    2.93000007
   19.24944496  160.00500488    1.41999996    2.93000007
   19.25277710  156.38800049    1.41999996    2.91000009
   19.25583267  161.88900757    1.38000000    2.91000009
   19.25916672  158.62199402    1.36000001    2.91000009
   19.26222229  160.77000427    1.36000001    2.91000009
   19.26833344  160.77000427    1.34000003    2.91000009
   19.27249908  158.57600403    1.36000001    2.93000007
   19.27555466  160.24000549    1.36000001    2.91000009
   19.27888870  157.62199402    1.36000001    2.91000009
   19.28222275  160.21200562    1.34000003    2.91000009
   19.28527641  162.28500366    1.30999994    2.91000009
   19.28861046  155.76699829    1.30999994    2.91000009
   19.29166603  159.25599670    1.28999996    2.93000007
   19.29500008  159.23199463    1.28999996    2.91000009
   19.29833221  158.97999573    1.26999998    2.89000010
   19.30083275  159.01400757    1.34000003    2.91000009
   19.32139015  159.01400757    1.30999994    2.91000009
   19.32555580  154.68099976    1.33000004    2.91000009
   19.32888985  160.87699890    1.33000004    2.91000009
   19.33194542  159.13699341    1.33000004    2.91000009
   19.33416748  166.00999451    1.34000003    2.91000009
   19.33583450  172.53900146    1.34000003    2.91000009
   19.33889008  159.99000549    1.38000000    2.91000009
   19.34222221  185.54699707    1.44000006    2.91000009
   19.34555626  185.95500183    1.44000006    2.93000007
   19.34861183  202.11000061    1.44000006    2.91000009
   19.35194397  173.68800354    1.44000006    2.91000009
   19.35499954  200.76400757    1.53999996    2.91000009
   19.35833359  226.55599976    1.53999996    2.91000009
   19.36416626  226.55599976    1.63000000    2.91000009
   19.36833382  228.12800598    1.64999998    2.89000010
   19.37166595  232.30999756    1.64999998    2.89000010
   19.37472153  233.79800415    1.53999996    2.91000009
   19.37805557  233.63099670    1.51999998    2.91000009
   19.38111115  226.09300232    1.51999998    2.89000010
   19.38444519  216.59500122    1.53999996    2.89000010
   19.38777733  191.78999329    1.53999996    2.91000009
   19.39083290  218.66000366    1.53999996    2.91000009
   19.39416695  200.85000610    1.53999996    2.91000009
   19.39722252  198.88499451    1.55999994    2.91000009
   19.40055466  194.47900391    1.55999994    2.91000009
   19.40111160  185.91999817    1.61000001    2.89000010
   19.40694427  185.91999817    1.63000000    2.91000009
   19.41110992  175.07200623    1.64999998    2.89000010
   19.41444397  204.83599854    1.63000000    2.91000009
   19.41749954  178.75599670    1.63000000    2.91000009
   19.42083359  203.39199829    1.58000004    2.89000010
   19.42416573  172.29800415    1.58000004    2.91000009
   19.42722130  176.79499817    1.61000001    2.89000010
   19.43055534  169.77099609    1.58000004    2.89000010
   19.43361092  182.15199280    1.58000004    2.89000010
   19.43444443  193.67199707    1.58000004    2.89000010
   19.43750000  190.08900452    1.58000004    2.89000010
   19.44055557  192.77200317    1.63000000    2.91000009
   19.44388771  204.41299438    1.63000000    2.91000009
   19.45000076  204.41299438    1.60000002    2.91000009
   19.45416832  177.97399902    1.60000002    2.91000009
   19.45722389  166.53500366    1.60000002    2.91000009
   19.46055603  177.75000000    1.58000004    2.91000009
   19.46361160  169.95100403    1.55999994    2.89000010
   19.46694565  170.51600647    1.58000004    2.89000010
   19.46777916  158.99299622    1.58000004    2.89000010
   19.47055626  167.74899292    1.60000002    2.89000010
   19.47361183  158.96800232    1.60000002    2.89000010
   19.47694588  167.92799377    1.61000001    2.89000010
   19.48000145  176.19799805    1.61000001    2.89000010
   19.48333359  164.48699951    1.75000000    2.89000010
   19.48666763  162.21099854    1.71000004    2.89000010
   19.49277878  162.21099854    1.73000002    2.91000009
   19.49694443  164.88000488    1.76999998    2.89000010
   19.50000000  166.72900391    1.73000002    2.89000010
   19.50111198  161.13400269    1.75000000    2.89000010
   19.50388908  162.88099670    1.75000000    2.89000010
   19.50694466  167.30200195    1.75000000    2.89000010
   19.51027870  164.96699524    1.76999998    2.89000010
   19.51333427  161.98800659    1.73000002    2.89000010
   19.51666641  157.88299561    1.66999996    2.89000010
   19.52000046  163.73599243    1.66999996    2.89000010
   19.52305603  168.00100708    1.66999996    2.89000010
   19.52638817  165.79800415    1.69000006    2.89000010
   19.52944374  167.29699707    1.75000000    2.89000010
   19.53555489  167.29699707    1.78999996    2.89000010
   19.53972244  171.66000366    1.66999996    2.89000010
   19.54305458  165.87399292    1.66999996    2.89000010
   19.54611015  168.44700623    1.66999996    2.89000010
   19.54944420  172.27799988    1.66999996    2.89000010
   19.55249977  165.56199646    1.58000004    2.89000010
   19.55583191  167.05299377    1.60000002    2.89000010
   19.55916595  171.67399597    1.60000002    2.89000010
   19.56222153  170.72000122    1.61000001    2.91000009
   19.56555557  170.47500610    1.60000002    2.89000010
   19.56777954  173.79699707    1.61000001    2.89000010
   19.56916809  174.18800354    1.61000001    2.89000010
   19.57222366  176.34399414    1.60000002    2.89000010
   19.57861137  176.34399414    1.58000004    2.89000010
   19.58250046  179.82000732    1.58000004    2.89000010
   19.58583450  169.40800476    1.66999996    2.89000010
   19.58916664  174.36999512    1.66999996    2.89000010
   19.59222221  166.46200562    1.69000006    2.86999989
   19.59555626  176.61000061    1.85000002    2.86999989
   19.59861183  166.30999756    1.85000002    2.86999989
   19.60111237  171.51600647    1.86000001    2.86999989
   19.60250092  166.68400574    1.86000001    2.86999989
   19.60555649  173.67100525    1.89999998    2.86999989
   19.60888863  165.20300293    1.88000000    2.86999989
   19.61194420  163.94799805    1.89999998    2.86999989
   19.61527824  166.39199829    1.88000000    2.86999989
   19.62138939  166.39199829    1.88000000    2.86999989
   19.62555504  173.71499634    1.96000004    2.86999989
   19.62861061  176.54400635    1.96000004    2.86999989
   19.63194466  175.67500305    1.98000002    2.86999989
   19.63444519  178.12800598    1.98000002    2.86999989
   19.63555527  175.05400085    1.98000002    2.86999989
   19.63861084  166.66499329    1.96000004    2.89000010
   19.64194489  177.80900574    1.94000006    2.86999989
   19.64500046  170.67799377    1.94000006    2.86999989
   19.64833260  170.24299622    1.88000000    2.86999989
   19.65166664  182.31399536    1.88000000    2.86999989
   19.65472221  181.47399902    1.80999994    2.86999989
   19.65805435  178.02499390    1.80999994    2.89000010
   19.66416550  178.02499390    1.86000001    2.86999989
   19.66833305  173.94400024    1.83000004    2.86999989
   19.67138863  160.77600098    1.85000002    2.86999989
   19.67472076  177.72000122    1.85000002    2.86999989
   19.67805481  183.93400574    1.86000001    2.86999989
   19.68111038  174.40699768    1.89999998    2.86999989
   19.68444443  187.38499451    1.96000004    2.86999989
   19.68750000  179.22999573    1.96000004    2.86999989
   19.69083214  176.32299805    1.98000002    2.84999990
   19.69416618  183.43800354    1.96000004    2.86999989
   19.69722176  184.17799377    1.96000004    2.84999990
   19.70055580  173.36500549    1.94000006    2.86999989
   19.70111275  179.15499878    1.94000006    2.86999989
   19.70694542  179.15499878    1.91999996    2.86999989
   19.71111107  169.50199890    1.86000001    2.86999989
   19.71444511  174.65400696    1.78999996    2.86999989
   19.71750069  181.72999573    1.78999996    2.86999989
   19.72083473  172.79600525    1.75000000    2.86999989
   19.72416687  173.38600159    1.73000002    2.86999989
   19.72722244  181.46699524    1.73000002    2.86999989
   19.73055649  176.18499756    1.75000000    2.86999989
   19.73361206  178.16999817    1.75000000    2.86999989
   19.73444557  176.81799316    1.75000000    2.86999989
   19.73750114  174.92900085    1.73000002    2.86999989
   19.74055672  171.34800720    1.75000000    2.86999989
   19.74388885  177.74400330    1.78999996    2.84999990
   19.75000000  177.74400330    1.80999994    2.86999989
   19.75388908  175.94700623    1.80999994    2.86999989
   19.75722313  171.64500427    1.83000004    2.86999989
   19.76055527  175.29299927    1.88000000    2.86999989
   19.76361084  171.51100159    1.94000006    2.86999989
   19.76694489  176.32699585    1.94000006    2.86999989
   19.76777840  179.21099854    1.98000002    2.84999990
   19.77055550  184.11300659    1.98000002    2.84999990
   19.77361107  181.70300293    1.98000002    2.84999990
   19.77694511  180.50799561    1.89999998    2.84999990
   19.78027725  175.18899536    1.88000000    2.84999990
   19.78333282  184.89199829    1.88000000    2.84999990
   19.78666687  191.68299866    1.76999998    2.86999989
   19.79277802  191.68299866    1.75000000    2.84999990
   19.79694366  179.45300293    1.75000000    2.84999990
   19.79999924  181.50500488    1.69000006    2.86999989
   19.80111122  182.75399780    1.69000006    2.86999989
   19.80388832  181.82299805    1.71000004    2.84999990
   19.80694389  191.18400574    1.71000004    2.86999989
   19.81027794  178.26600647    1.71000004    2.84999990
   19.81361008  173.46699524    1.73000002    2.84999990
   19.81666756  178.65800476    1.73000002    2.84999990
   19.82000160  178.26499939    1.73000002    2.84999990
   19.82305717  179.64999390    1.71000004    2.84999990
   19.82638931  192.03500366    1.69000006    2.84999990
   19.82972336  169.18400574    1.69000006    2.84999990
   19.83555603  169.18400574    1.73000002    2.84999990
   19.83972359  190.19700623    1.73000002    2.86999989
   19.84277916  184.35899353    1.75000000    2.84999990
   19.84611130  197.89500427    1.78999996    2.84999990
   19.84944534  175.20799255    1.78999996    2.84999990
   19.85250092  178.85200500    1.80999994    2.84999990
   19.85583305  179.56500244    1.80999994    2.84999990
   19.85888863  187.22000122    1.88000000    2.84999990
   19.86222267  185.61999512    1.91999996    2.84999990
   19.86555672  179.88099670    1.91999996    2.84999990
   19.86777878  177.93200684    1.89999998    2.84999990
   19.86916733  175.58599854    1.89999998    2.84999990
   19.87222290  179.09100342    1.91999996    2.84999990
   19.87833405  179.09100342    1.96000004    2.84999990
   19.88249969  161.39799500    1.96000004    2.84999990
   19.88583374  190.55799866    1.96000004    2.84999990
   19.88888931  181.70599365    1.98000002    2.84999990
   19.89222145  179.50799561    1.96000004    2.84999990
   19.89527702  192.13299561    1.94000006    2.84999990
   19.89861107  183.02299500    2.03999996    2.84999990
   19.90111160  173.53300476    2.07999992    2.84999990
   19.90222168  184.98800659    2.07999992    2.82999992
   19.90527725  171.95399475    2.13000011    2.84999990
   19.90861130  174.95500183    2.19000006    2.84999990
   19.91194344  190.99800110    2.28999996    2.82999992
   19.91499901  167.68600464    2.34999990    2.84999990
   19.92111015  167.68600464    2.36999989    2.82999992
   19.92527771  182.36500549    2.48000002    2.82999992
   19.92860985  182.34800720    2.46000004    2.82999992
   19.93166542  200.66999817    2.42000008    2.82999992
   19.93444443  181.95399475    2.39000010    2.84999990
   19.93555450  186.29400635    2.34999990    2.82999992
   19.93861008  185.49699402    2.23000002    2.82999992
   19.94194412  180.35200500    2.21000004    2.84999990
   19.94527626  183.65400696    2.17000008    2.82999992
   19.94833183  180.42700195    2.19000006    2.82999992
   19.95166779  179.43499756    2.21000004    2.84999990
   19.95472336  191.63600159    2.19000006    2.82999992
   19.95805550  196.65899658    2.13000011    2.82999992
   19.96416664  196.65899658    2.03999996    2.82999992
   19.96833420  185.92599487    2.05999994    2.82999992
   19.97138977  196.75100708    2.15000010    2.82999992
   19.97472191  187.41400146    2.13000011    2.82999992
   19.97777748  186.04499817    2.19000006    2.82999992
   19.98111153  193.86300659    2.05999994    2.82999992
   19.98444557  201.20899963    2.09999990    2.82999992
   19.98750114  187.67900085    2.19000006    2.82999992
   19.99083328  191.96200562    2.07999992    2.80999994
   19.99388885  192.15199280    2.05999994    2.82999992
   19.99722290  188.32899475    2.11999989    2.82999992
   20.00027847  183.71000671    2.19000006    2.80999994
   20.00111198  183.45599365    2.21000004    2.80999994
   20.00694466  183.45599365    2.34999990    2.80999994
   20.01111031  204.95300293    2.19000006    2.80999994
   20.01416588  192.88900757    2.25000000    2.82999992
   20.01749992  201.95899963    2.19000006    2.82999992
   20.02083397  199.00199890    2.09999990    2.80999994
   20.02388954  211.13600159    2.09999990    2.80999994
   20.02722168  190.32000732    2.05999994    2.80999994
   20.03055573  197.20799255    2.03999996    2.80999994
   20.03361130  188.77200317    2.01999998    2.80999994
   20.03444481  193.65600586    2.00000000    2.80999994
   20.03722191  184.39599609    2.00000000    2.80999994
   20.04027748  175.18099976    2.00000000    2.80999994
   20.04361153  172.69900513    1.98000002    2.80999994
   20.04972076  172.69900513    1.89999998    2.80999994
   20.05388832  175.49000549    1.88000000    2.80999994
   20.05722237  192.21000671    1.89999998    2.80999994
   20.06027794  188.60000610    1.89999998    2.80999994
   20.06361008  185.71699524    1.94000006    2.80999994
   20.06666756  192.81399536    1.94000006    2.80999994
   20.06777954  194.82600403    1.94000006    2.80999994
   20.07055664  192.60899353    1.94000006    2.80999994
   20.07361221  177.96800232    1.91999996    2.80999994
   20.07694626  172.19299316    1.89999998    2.80999994
   20.08027840  175.00000000    1.89999998    2.80999994
   20.08333397  199.73199463    1.85000002    2.80999994
   20.08666801  183.58299255    1.85000002    2.80999994
   20.09277916  183.58299255    1.94000006    2.78999996
   20.09666824  202.76699829    1.94000006    2.78999996
   20.10000038  197.62300110    1.96000004    2.78999996
   20.10111237  192.41900635    1.96000004    2.78999996
   20.10361099  196.18400574    2.00000000    2.78999996
   20.10694504  200.42999268    2.00000000    2.78999996
   20.11000061  188.08099365    2.00000000    2.78999996
   20.11333466  196.70599365    1.98000002    2.78999996
   20.11638832  207.00799561    1.96000004    2.78999996
   20.11972237  194.36700439    1.89999998    2.78999996
   20.12305641  188.08200073    1.89999998    2.78999996
   20.12611198  194.98100281    1.89999998    2.78999996
   20.12944412  193.56399536    1.89999998    2.78999996
   20.13555527  193.56399536    1.86000001    2.78999996
   20.13972282  187.60699463    1.85000002    2.78999996
   20.14277840  182.30299377    1.85000002    2.78999996
   20.14611053  194.68600464    1.86000001    2.78999996
   20.14916611  184.55999756    1.86000001    2.78999996
   20.15250015  201.16499329    1.88000000    2.78999996
   20.15583229  208.29200745    2.00000000    2.76999998
   20.15888786  185.10699463    1.98000002    2.76999998
   20.16222191  189.22799683    1.91999996    2.76999998
   20.16527748  197.25799561    1.91999996    2.76999998
   20.16777802  204.31199646    1.91999996    2.76999998
   20.16888809  216.82099915    1.91999996    2.76999998
   20.17194366  189.21499634    1.91999996    2.76999998
   20.17833328  189.21499634    1.78999996    2.76999998
   20.18249893  192.36799622    1.80999994    2.76999998
   20.18555450  186.27400208    1.78999996    2.78999996
   20.18888855  198.70799255    1.78999996    2.76999998
   20.19222069  191.54699707    1.80999994    2.76999998
   20.19527626  189.30900574    1.80999994    2.78999996
   20.19861031  185.08000183    1.80999994    2.78999996
   20.20111275  188.15899658    1.85000002    2.76999998
   20.20222282  192.56700134    1.85000002    2.76999998
   20.20555687  173.68499756    1.89999998    2.76999998
   20.20861244  191.94500732    1.96000004    2.76999998
   20.21194458  203.08700562    2.00000000    2.75000000
   20.21500015  198.24699402    2.00000000    2.76999998
   20.22111130  198.24699402    1.98000002    2.75000000
   20.22527885  203.89399719    1.91999996    2.78999996
   20.22861099  188.55000305    1.89999998    2.78999996
   20.23166656  188.93099976    1.91999996    2.78999996
   20.23444557  191.60600281    1.91999996    2.78999996
   20.23527718  210.06500244    1.89999998    2.78999996
   20.23861122  192.09199524    1.91999996    2.78999996
   20.24166679  201.03100586    1.88000000    2.78999996
   20.24500084  194.21600342    1.88000000    2.78999996
   20.24805641  210.03300476    1.89999998    2.78999996
   20.25138855  197.61900330    1.85000002    2.78999996
   20.25444412  188.77799988    1.85000002    2.78999996
   20.25777817  190.68800354    1.86000001    2.78999996
   20.26388931  190.68800354    1.85000002    2.78999996
   20.26805496  200.48800659    1.80999994    2.78999996
   20.27138901  201.90699768    1.76999998    2.78999996
   20.27444458  201.03500366    1.69000006    2.80999994
   20.27777672  196.68899536    1.64999998    2.80999994
   20.28111076  194.09100342    1.64999998    2.80999994
   20.28416634  194.94700623    1.61000001    2.80999994
   20.28750038  195.04600525    1.58000004    2.78999996
   20.29083252  196.13099670    1.63000000    2.78999996
   20.29388809  197.93499756    1.64999998    2.78999996
   20.29722214  199.62100220    1.64999998    2.78999996
   20.30027771  192.72000122    1.66999996    2.78999996
   20.30111122  198.77099609    1.66999996    2.78999996
   20.30694389  198.77099609    1.75000000    2.78999996
   20.31110954  202.99899292    1.76999998    2.78999996
   20.31416512  190.75399780    1.76999998    2.80999994
   20.31750107  190.71200562    1.78999996    2.78999996
   20.33500099  188.14500427    1.89999998    2.78999996
   20.33750153  203.19900513    1.91999996    2.78999996
   20.34055710  198.06100464    1.98000002    2.76999998
   20.34388924  194.69299316    2.01999998    2.76999998
   20.35000038  194.69299316    2.17000008    2.76999998
   20.35416794  193.64700317    2.11999989    2.76999998
   20.35722351  191.66700745    2.15000010    2.78999996
   20.36055565  189.48199463    2.25000000    2.78999996
   20.36361122  187.83500671    2.40000010    2.75000000
   20.36694527  193.77900696    2.42000008    2.76999998
   20.36833382  198.81100464    2.40000010    2.76999998
   20.37055588  187.19999695    2.30999994    2.75000000
   20.37388992  201.39100647    2.34999990    2.76999998
   20.37722206  200.18699646    2.25000000    2.75000000
   20.38027763  188.13600159    2.42000008    2.75000000
   20.38361168  189.00399780    2.51999998    2.75000000
   20.38666725  192.89900208    2.44000006    2.75000000
   20.39277840  192.89900208    2.19000006    2.75000000
   20.39694405  181.96200562    2.23000002    2.76999998
   20.39999962  183.42399597    2.17000008    2.75000000
   20.40166664  193.02099609    2.17000008    2.75000000
   20.40361023  181.28700256    2.17000008    2.75000000
   20.40694427  165.17100525    2.21000004    2.75000000
   20.40999985  177.92599487    2.26999998    2.75000000
   20.41333389  189.89500427    2.23000002    2.73000002
   20.41666603  182.56199646    2.26999998    2.75000000
   20.41972160  196.77499390    2.23000002    2.75000000
   20.42305565  192.56199646    2.25000000    2.75000000
   20.42611122  193.55000305    2.30999994    2.73000002
   20.42944336  193.52900696    2.25000000    2.73000002
   20.43555450  193.52900696    2.26999998    2.75000000
   20.43972206  194.87800598    2.25000000    2.75000000
   20.44305420  186.95700073    2.23000002    2.75000000
   20.44610977  185.18800354    2.28999996    2.75000000
   20.44944382  194.51100159    2.23000002    2.75000000
   20.45250130  195.38999939    2.15000010    2.75000000
   20.45583344  199.87699890    2.05999994    2.75000000
   20.45888901  199.08500671    2.01999998    2.75000000
   20.46222305  184.94500732    1.98000002    2.76999998
   20.46555710  190.96499634    1.91999996    2.76999998
   20.46833420  198.90899658    1.96000004    2.76999998
   20.46888924  189.18099976    1.96000004    2.76999998
   20.47222328  191.66400146    1.88000000    2.76999998
   20.47833443  191.66400146    1.83000004    2.75000000
   20.48250008  186.50399780    1.83000004    2.75000000
   20.48583412  191.70700073    1.76999998    2.75000000
   20.48888969  191.95500183    1.66999996    2.76999998
   20.49222183  198.51899719    1.66999996    2.75000000
   20.49555588  188.52600098    1.66999996    2.75000000
   20.49861145  189.40100098    1.64999998    2.76999998
   20.50166702  187.68200684    1.58000004    2.76999998
   20.50222206  192.84199524    1.58000004    2.76999998
   20.50555611  195.16400146    1.58000004    2.76999998
   20.50888824  186.44200134    1.55999994    2.76999998
   20.51194382  188.77200317    1.53999996    2.76999998
   20.51527786  187.73599243    1.48000002    2.78999996
   20.52138901  187.73599243    1.55999994    2.75000000
   20.52527809  190.53300476    1.55999994    2.76999998
   20.52861023  195.40199280    1.64999998    2.76999998
   20.53194427  188.70399475    1.69000006    2.76999998
   20.53499985  181.65400696    1.69000006    2.76999998
   20.53527641  184.94799805    1.69000006    2.76999998
   20.53861046  182.61199951    1.80999994    2.75000000
   20.54194450  188.54400635    1.85000002    2.73000002
   20.54500008  191.34500122    1.86000001    2.75000000
   20.54833221  180.05000305    1.88000000    2.75000000
   20.55166626  183.51300049    1.91999996    2.75000000
   20.55472183  183.39700317    1.88000000    2.73000002
   20.55805397  187.22200012    1.85000002    2.73000002
   20.56416512  187.22200012    1.85000002    2.73000002
   20.56833458  178.87899780    1.86000001    2.73000002
   20.57139015  184.89100647    1.88000000    2.71000004
   20.57472229  185.52900696    1.89999998    2.73000002
   20.57805634  191.70700073    1.89999998    2.73000002
   20.58111191  184.44999695    1.94000006    2.73000002
   20.58444595  194.39999390    1.89999998    2.73000002
   20.58750153  187.40899658    1.89999998    2.73000002
   20.59083366  188.24099731    1.85000002    2.75000000
   20.59416771  186.82699585    1.85000002    2.75000000
   20.59722328  194.33500671    1.89999998    2.73000002
   20.60055542  188.70100403    2.00000000    2.71000004
   20.60166740  190.13099670    2.05999994    2.73000002
   20.60694504  190.13099670    2.00000000    2.73000002
   20.61111069  177.20599365    2.00000000    2.73000002
   20.61444473  174.62399292    1.98000002    2.73000002
   20.61750031  187.76899719    2.11999989    2.73000002
   20.62083435  179.82000732    2.07999992    2.73000002
   20.62388992  184.86999512    2.03999996    2.73000002
   20.62722206  184.48899841    2.07999992    2.73000002
   20.63027763  183.95399475    2.09999990    2.73000002
   20.63361168  182.71200562    2.15000010    2.73000002
   20.63500023  177.90899658    2.15000010    2.73000002
   20.63722229  180.77600098    2.15000010    2.73000002
   20.64055634  195.84300232    2.17000008    2.71000004
   20.64388847  185.98399353    2.26999998    2.71000004
   20.64972115  185.98399353    2.39000010    2.71000004
   20.65388870  185.71000671    2.39000010    2.71000004
   20.65722275  181.23300171    2.34999990    2.69000006
   20.66027832  182.00900269    2.36999989    2.69000006
   20.66361046  160.54600525    2.36999989    2.69000006
   20.66666603  164.65400696    2.36999989    2.71000004
   20.66833305  168.00900269    2.36999989    2.69000006
   20.67027664  169.44900513    2.32999992    2.69000006
   20.67361069  162.73399353    2.28999996    2.69000006
   20.67694473  164.53100586    2.26999998    2.69000006
   20.68000031  169.19700623    2.28999996    2.71000004
   20.68333244  173.66999817    2.39000010    2.71000004
   20.68638802  172.02099609    2.40000010    2.71000004
   20.69277763  172.02099609    2.36999989    2.69000006
   20.69666672  180.01199341    2.39000010    2.67000008
   20.70000076  172.06100464    2.46000004    2.67000008
   20.70166779  177.34599304    2.46000004    2.67000008
   20.70388985  178.43600464    2.51999998    2.69000006
   20.70694542  187.66799927    2.46000004    2.69000006
   20.71027946  185.97599792    2.46000004    2.69000006
   20.71333504  183.76600647    2.36999989    2.67000008
   20.71666718  181.59100342    2.42000008    2.69000006
   20.72000122  181.05499268    2.44000006    2.67000008
   20.72305679  176.23100281    2.36999989    2.69000006
   20.72638893  186.53700256    2.36999989    2.69000006
   20.72944450  174.51699829    2.39000010    2.69000006
   20.73555565  174.51699829    2.32999992    2.69000006
   20.73972321  174.50199890    2.34999990    2.69000006
   20.74277878  163.90800476    2.40000010    2.69000006
   20.74611092  179.48199463    2.44000006    2.69000006
   20.74916649  178.50700378    2.42000008    2.69000006
   20.75250053  177.14199829    2.39000010    2.69000006
   20.75583267  169.67900085    2.39000010    2.69000006
   20.75888824  175.83500671    2.36999989    2.69000006
   20.76222229  174.03300476    2.36999989    2.67000008
   20.76527786  171.60400391    2.42000008    2.67000008
   20.76833344  175.47599792    2.44000006    2.67000008
   20.76888847  178.84899902    2.44000006    2.67000008
   20.77222252  170.24899292    2.46000004    2.67000008
   20.77833366  170.24899292    2.57999992    2.67000008
   20.78249931  171.07000732    2.64000010    2.67000008
   20.78555489  181.32800293    2.64000010    2.67000008
   20.78888893  189.07600403    2.64000010    2.67000008
   20.79222107  174.38800049    2.61999989    2.67000008
   20.79527664  173.97099304    2.64000010    2.66000009
   20.79861069  185.19500732    2.66000009    2.66000009
   20.80166626  181.56500244    2.67000008    2.66000009
   20.80194283  183.88999939    2.64000010    2.66000009
   20.80527687  176.91900635    2.55999994    2.66000009
   20.80861092  178.90299988    2.53999996    2.66000009
   20.81166649  181.92100525    2.57999992    2.66000009
   20.81499863  172.51699829    2.59999990    2.66000009
   20.82111168  172.51699829    2.59999990    2.67000008
   20.82527924  179.99099731    2.67000008    2.67000008
   20.82861137  183.89700317    2.61999989    2.67000008
   20.83166695  183.78500366    2.67000008    2.67000008
   20.83500099  180.34100342    2.73000002    2.67000008
   20.83527756  183.57800293    2.73000002    2.67000008
   20.83861160  180.87699890    2.89000010    2.69000006
   20.84194565  184.41499329    3.00000000    2.69000006
   20.84500122  179.34399414    3.16000009    2.67000008
   20.84833336  169.21800232    3.21000004    2.67000008
   20.85138893  175.38900757    3.25000000    2.67000008
   20.85472298  179.47200012    3.14000010    2.67000008
   20.85805511  178.51499939    2.98000002    2.67000008
   20.86416626  178.51499939    2.84999990    2.67000008
   20.86805534  175.69200134    2.80999994    2.66000009
   20.86861038  176.61799622    2.78999996    2.67000008
   20.87194443  177.47300720    2.67000008    2.67000008
   20.87527847  177.74699402    2.64000010    2.67000008
   20.87833405  177.29600525    2.57999992    2.67000008
   20.88166618  179.80000305    2.53999996    2.67000008
   20.88472176  180.60800171    2.44000006    2.69000006
   20.88805580  180.13299561    2.42000008    2.67000008
   20.89138794  176.25100708    2.46000004    2.67000008
   20.89444351  188.43200684    2.50000000    2.67000008
   20.89777756  172.12600708    2.48000002    2.67000008
   20.90083313  184.66000366    2.48000002    2.67000008
   20.90194321  181.02699280    2.48000002    2.69000006
   20.90694427  181.02699280    2.50000000    2.66000009
   20.91110992  176.64999390    2.40000010    2.67000008
   20.91416550  173.44599915    2.46000004    2.67000008
   20.91749954  174.85400391    2.44000006    2.67000008
   20.92055511  170.83599854    2.42000008    2.66000009
   20.92388916  178.24400330    2.57999992    2.67000008
   20.92722130  184.80299377    2.66000009    2.67000008
   20.93027687  179.39700317    2.48000002    2.67000008
   20.93361092  188.64500427    2.46000004    2.67000008
   20.93527603  178.47799683    2.40000010    2.67000008
   20.93722153  176.03199768    2.42000008    2.67000008
   20.94055557  179.34500122    2.34999990    2.67000008
   20.94361115  187.73500061    2.36999989    2.67000008
   20.94972038  187.73500061    2.26999998    2.67000008
   20.95388985  194.08399963    2.30999994    2.66000009
   20.95694542  185.12899780    2.36999989    2.66000009
   20.96027946  180.29200745    2.39000010    2.66000009
   20.96361160  180.33500671    2.46000004    2.66000009
   20.96666718  181.16299438    2.44000006    2.67000008
   20.96861076  180.18699646    2.46000004    2.66000009
   20.97027779  184.36900330    2.44000006    2.66000009
   20.97361183  179.67900085    2.57999992    2.66000009
   20.97666740  181.21899414    2.86999989    2.66000009
   20.98000145  177.97200012    2.91000009    2.66000009
   20.98305511  193.21800232    2.96000004    2.66000009
   20.98638916  183.05000305    2.91000009    2.64000010
   20.99250031  183.05000305    3.05999994    2.64000010
   20.99666786  199.73100281    3.07999992    2.64000010
   21.00000000  183.02400208    3.03999996    2.64000010
   21.00194359  186.44099426    3.05999994    2.64000010
   21.00361061  190.87600708    3.07999992    2.64000010
   21.00694466  181.86500549    2.96000004    2.64000010
   21.01000023  181.84100342    2.94000006    2.64000010
   21.01333427  175.57200623    3.07999992    2.61999989
   21.01638794  179.61000061    3.07999992    2.64000010
   21.01972198  184.49299622    3.20000005    2.64000010
   21.02305603  183.52999878    3.23000002    2.61999989
   21.02611160  187.94200134    3.20000005    2.64000010
   21.02944374  186.07499695    3.18000007    2.64000010
   21.03555489  186.07499695    3.01999998    2.64000010
   21.03944397  184.41299438    3.03999996    2.64000010
   21.04277802  191.33099365    3.01999998    2.64000010
   21.04611015  180.04200745    2.91000009    2.64000010
   21.04916573  179.85899353    2.89000010    2.64000010
   21.05249977  175.92100525    2.80999994    2.64000010
   21.05555534  175.97200012    2.80999994    2.64000010
   21.05888748  177.32400513    2.80999994    2.64000010
   21.06194305  173.92799377    2.75000000    2.64000010
   21.06527710  180.54699707    2.73000002    2.64000010
   21.06861115  180.07099915    2.76999998    2.64000010
   21.06916809  185.49299622    2.76999998    2.64000010
   21.07222366  185.04400635    2.75000000    2.64000010
   21.07833481  185.04400635    2.78999996    2.61999989
   21.08250046  185.02299500    2.75000000    2.61999989
   21.08555603  185.15400696    2.73000002    2.64000010
   21.08889008  184.70700073    2.71000004    2.64000010
   21.09194565  188.99800110    2.71000004    2.61999989
   21.09527779  181.15800476    2.73000002    2.61999989
   21.09861183  185.77600098    2.76999998    2.61999989
   21.10166740  175.81199646    2.78999996    2.61999989
   21.10250092  171.54100037    2.78999996    2.61999989
   21.10527802  181.21000671    2.75000000    2.61999989
   21.10861206  183.53599548    2.78999996    2.61999989
   21.11166763  183.03500366    2.76999998    2.61999989
   21.11499977  179.16799927    2.75000000    2.61999989
   21.12111092  179.16799927    2.76999998    2.59999990
   21.12527847  179.72599792    2.78999996    2.59999990
   21.12833405  185.43299866    2.82999992    2.61999989
   21.13166618  181.14100647    2.84999990    2.59999990
   21.13500023  183.21000671    2.86999989    2.61999989
   21.13583374  183.88600159    2.89000010    2.61999989
   21.13833237  179.46400452    2.84999990    2.59999990
   21.14166641  189.51499939    2.82999992    2.59999990
   21.14472198  186.99600220    2.82999992    2.59999990
   21.14805603  197.68400574    2.80999994    2.59999990
   21.15138817  184.86099243    2.84999990    2.59999990
   21.15444374  194.08799744    2.82999992    2.59999990
   21.15777779  193.09599304    2.82999992    2.59999990
   21.16388893  193.09599304    2.78999996    2.59999990
   21.16805458  185.42199707    2.76999998    2.59999990
   21.16916656  185.27799988    2.82999992    2.59999990
   21.17166519  191.33399963    2.89000010    2.59999990
   21.17499924  188.24099731    2.89000010    2.59999990
   21.17805481  180.13200378    2.91000009    2.59999990
   21.18138885  188.99200439    2.93000007    2.59999990
   21.18472099  184.56799316    2.98000002    2.59999990
   21.18777657  183.87399292    2.96000004    2.59999990
   21.19111061  187.54100037    3.01999998    2.59999990
   21.19416618  180.51800537    3.00000000    2.59999990
   21.19749832  183.89799500    3.00000000    2.59999990
   21.20083427  175.16700745    3.01999998    2.59999990
   21.20250130  183.07299805    3.03999996    2.59999990
   21.20694542  183.07299805    2.86999989    2.59999990
   21.21083450  183.42700195    2.66000009    2.59999990
   21.21416664  178.08200073    2.55999994    2.59999990
   21.21750069  172.02699280    2.51999998    2.61999989
   21.22055626  172.47099304    2.50000000    2.59999990
   21.22389030  180.13600159    2.42000008    2.59999990
   21.22694588  176.82899475    2.42000008    2.59999990
   21.23027802  173.77200317    2.44000006    2.59999990
   21.23333359  172.02499390    2.48000002    2.59999990
   21.23583412  175.39700317    2.50000000    2.59999990
   21.23694420  178.69999695    2.51999998    2.59999990
   21.24027824  185.21499634    2.59999990    2.59999990
   21.24333382  168.78100586    2.59999990    2.59999990
   21.24972153  168.78100586    2.61999989    2.57999992
   21.25388908  175.07200623    2.73000002    2.59999990
   21.25694466  180.87800598    2.76999998    2.57999992
   21.26027870  179.33900452    2.80999994    2.57999992
   21.26333427  180.26199341    2.84999990    2.57999992
   21.26666641  189.47599792    2.84999990    2.57999992
   21.26916695  189.74000549    2.86999989    2.57999992
   21.27027702  183.04800415    2.86999989    2.55999994
   21.27361107  179.52400208    2.80999994    2.57999992
   21.27666664  183.72500610    2.71000004    2.57999992
   21.28000069  176.91600037    2.69000006    2.55999994
   21.28333282  179.32000732    2.67000008    2.55999994
   21.28638840  185.39300537    2.73000002    2.57999992
   21.29249954  185.39300537    2.71000004    2.55999994
   21.29666710  180.70700073    2.73000002    2.57999992
   21.29972076  171.01499939    2.75000000    2.55999994
   21.30249977  162.29499817    2.80999994    2.55999994
   21.30333328  170.30799866    2.80999994    2.55999994
   21.30666542  164.46000671    2.84999990    2.55999994
   21.30999947  174.12699890    2.91000009    2.55999994
   21.31305504  190.35099792    2.89000010    2.55999994
   21.31638718  226.61900330    2.82999992    2.55999994
   21.31944466  184.34100342    2.76999998    2.55999994
   21.32277870  123.18900299    2.75000000    2.55999994
   21.32611275   -1.00000000    2.76999998    2.55999994
   21.32916832   -1.00000000    2.78999996    2.53999996
   21.35361099   -1.00000000    2.71000004    2.55999994
   21.35694504   -1.00000000    2.73000002    2.53999996
   21.36000061   -1.00000000    4.90999985    2.59999990
   21.36333466   -1.00000000    2.93000007    2.69000006
   21.36638832   -1.00000000    0.13000000    0.28000000
   21.36972237   -1.00000000    0.11000000    0.15000001
   21.37305641   -1.00000000    0.11000000    0.15000001
   21.38249969   -1.00000000    0.11000000    0.15000001
   21.38555527   -1.00000000    0.11000000    0.15000001
   21.38888931   -1.00000000    0.11000000    0.15000001
   21.39222145   -1.00000000    0.11000000    0.15000001
   21.39555550   -1.00000000    0.11000000    0.15000001
   21.39861107   -1.00000000    0.11000000    0.15000001
   21.40194321   -1.00000000    0.11000000    0.15000001
   21.40499878   -1.00000000    0.11000000    0.15000001
   21.40833282   -1.00000000    0.11000000    0.15000001
   21.41138840   -1.00000000    0.11000000    0.15000001
   21.41472244   -1.00000000    0.11000000    0.15000001
   21.42527771   -1.00000000    0.11000000    0.15000001
   21.42833328   -1.00000000    0.11000000    0.15000001
   21.43166542   -1.00000000    0.11000000    0.15000001
   21.43472099   -1.00000000    0.11000000    0.15000001
   21.43805504   -1.00000000    0.11000000    0.15000001
   21.44138718   -1.00000000    0.11000000    0.15000001
   21.44444275   -1.00000000    0.11000000    0.15000001
   21.44777679   -1.00000000    0.11000000    0.15000001
   21.45083427   -1.00000000    0.11000000    0.15000001
   21.45444489   -1.00000000    0.11000000    0.15000001
   21.45777893   -1.00000000    0.11000000    0.15000001
   21.46805573   -1.00000000    0.11000000    0.15000001
   21.47138977   -1.00000000    0.11000000    0.15000001
   21.47444534   -1.00000000    0.11000000    0.15000001
   21.47777748   -1.00000000    0.11000000    0.15000001
   21.48083305   -1.00000000    0.11000000    0.15000001
   21.48416710   -1.00000000    0.11000000    0.15000001
   21.48750114   -1.00000000    0.11000000    0.15000001
   21.49083328   -1.00000000    0.11000000    0.15000001
   21.49416733   -1.00000000    0.11000000    0.15000001
   21.49722290   -1.00000000    0.11000000    0.15000001
   21.50055504   -1.00000000    0.11000000    0.15000001
   21.51083374   -1.00000000    0.11000000    0.15000001
   21.51416588   -1.00000000    0.11000000    0.15000001
   21.51722145   -1.00000000    0.11000000    0.15000001
   21.52083397   -1.00000000    0.11000000    0.15000001
   21.52416611   -1.00000000    0.11000000    0.15000001
   21.52750015   -1.00000000    0.11000000    0.15000001
   21.53055573   -1.00000000    0.11000000    0.15000001
   21.53388786   -1.00000000    0.11000000    0.15000001
   21.53694344   -1.00000000    0.11000000    0.15000001
   21.54027748   -1.00000000    0.11000000    0.15000001
   21.54333305   -1.00000000    0.11000000    0.15000001
   21.55388832   -1.00000000    0.11000000    0.15000001
   21.55694389   -1.00000000    0.11000000    0.15000001
   21.56027794   -1.00000000    0.11000000    0.15000001
   21.56333351   -1.00000000    0.11000000    0.15000001
   21.56666756   -1.00000000    0.11000000    0.15000001
   21.56972313   -1.00000000    0.11000000    0.15000001
   21.57305717   -1.00000000    0.11000000    0.15000001
   21.57638931   -1.00000000    0.11000000    0.15000001
   21.57944489   -1.00000000    0.11000000    0.15000001
   21.58277893   -1.00000000    0.11000000    0.15000001
   21.58583450   -1.00000000    0.11000000    0.15000001
   21.59666824   -1.00000000    0.11000000    0.15000001
   21.59972191   -1.00000000    0.11000000    0.15000001
   21.60305595   -1.00000000    0.11000000    0.15000001
   21.60611153   -1.00000000    0.11000000    0.15000001
   21.60944557   -1.00000000    0.11000000    0.15000001
   21.61277771   -1.00000000    0.11000000    0.15000001
   21.61583328   -1.00000000    0.11000000    0.15000001
   21.61916733   -1.00000000    0.11000000    0.15000001
   21.62249947   -1.00000000    0.11000000    0.15000001
   21.62583351   -1.00000000    0.11000000    0.15000001
   21.62916756   -1.00000000    0.11000000    0.15000001
   21.63944435   -1.00000000    0.11000000    0.15000001
   21.64277840   -1.00000000    0.11000000    0.15000001
   21.64583397   -1.00000000    0.11000000    0.15000001
   21.64916611   -1.00000000    0.11000000    0.15000001
   21.65222168   -1.00000000    0.11000000    0.15000001
   21.65555573   -1.00000000    0.11000000    0.15000001
   21.65888786   -1.00000000    0.11000000    0.15000001
   21.66222191   -1.00000000    0.11000000    0.15000001
   21.66527748   -1.00000000    0.11000000    0.15000001
   21.66860962   -1.00000000    0.11000000    0.15000001
   21.67166519   -1.00000000    0.11000000    0.15000001
   21.68222237   -1.00000000    0.11000000    0.15000001
   21.68555450   -1.00000000    0.11000000    0.15000001
   21.68888855   -1.00000000    0.11000000    0.15000001
   21.69222069   -1.00000000    0.11000000    0.15000001
   21.69555473   -1.00000000    0.11000000    0.15000001
   21.69861031   -1.00000000    0.11000000    0.15000001
   21.70194435   -1.00000000    0.11000000    0.15000001
   21.70499992   -1.00000000    0.11000000    0.15000001
   21.70833397   -1.00000000    0.11000000    0.15000001
   21.71138954   -1.00000000    0.11000000    0.15000001
   21.71472359   -1.00000000    0.11000000    0.15000001
   21.72500038   -1.00000000    0.11000000    0.15000001
   21.72833443   -1.00000000    0.11000000    0.15000001
   21.73166656   -1.00000000    0.11000000    0.15000001
   21.73472214   -1.00000000    0.11000000    0.15000001
   21.73805618   -1.00000000    0.11000000    0.15000001
   21.74111176   -1.00000000    0.11000000    0.15000001
   21.74444389   -1.00000000    0.11000000    0.15000001
   21.74749947   -1.00000000    0.11000000    0.15000001
   21.75083351   -1.00000000    0.11000000    0.15000001
   21.75444412   -1.00000000    0.11000000    0.15000001
   21.75749969   -1.00000000    0.11000000    0.15000001
   21.76805496   -1.00000000    0.11000000    0.15000001
   21.77111053   -1.00000000    0.11000000    0.15000001
   21.77444458   -1.00000000    0.11000000    0.15000001
   21.77750015   -1.00000000    0.11000000    0.15000001
   21.78083229   -1.00000000    0.11000000    0.15000001
   21.78416634   -1.00000000    0.11000000    0.15000001
   21.78777695   -1.00000000    0.11000000    0.15000001
   21.79083252   -1.00000000    0.11000000    0.15000001
   21.79416656   -1.00000000    0.11000000    0.15000001
   21.79722214   -1.00000000    0.11000000    0.15000001
   21.80055428   -1.00000000    0.11000000    0.15000001
   21.81083298   -1.00000000    0.11000000    0.15000001
   21.81416512   -1.00000000    0.11000000    0.15000001
   21.81722260   -1.00000000    0.11000000    0.15000001
   21.82083511   -1.00000000    0.11000000    0.15000001
   21.82389069   -1.00000000    0.11000000    0.15000001
   21.82722282   -1.00000000    0.11000000    0.15000001
   21.83027840   -1.00000000    0.11000000    0.15000001
   21.83361244   -1.00000000    0.11000000    0.15000001
   21.83666801   -1.00000000    0.11000000    0.15000001
   21.84000015   -1.00000000    0.11000000    0.15000001
   21.84333420   -1.00000000    0.11000000    0.15000001
   21.85361099   -1.00000000    0.11000000    0.15000001
   21.85694504   -1.00000000    0.11000000    0.15000001
   21.86000061   -1.00000000    0.11000000    0.15000001
   21.86333466   -1.00000000    0.11000000    0.15000001
   21.86638832   -1.00000000    0.11000000    0.15000001
   21.86972237   -1.00000000    0.11000000    0.15000001
   21.87305641   -1.00000000    0.11000000    0.15000001
   21.87611198   -1.00000000    0.11000000    0.15000001
   21.87944412   -1.00000000    0.11000000    0.15000001
   21.88249969   -1.00000000    0.11000000    0.15000001
   21.88583374   -1.00000000    0.11000000    0.15000001
   21.89638901   -1.00000000    0.11000000    0.15000001
   21.89972115   -1.00000000    0.11000000    0.15000001
   21.90305519   -1.00000000    0.11000000    0.15000001
   21.90611076   -1.00000000    0.11000000    0.15000001
   21.90944481   -1.00000000    0.11000000    0.15000001
   21.91250038   -1.00000000    0.11000000    0.15000001
   21.91583252   -1.00000000    0.11000000    0.15000001
   21.91888809   -1.00000000    0.11000000    0.15000001
   21.92277718   -1.00000000    0.11000000    0.15000001
   21.92583275   -1.00000000    0.11000000    0.15000001
   21.92916679   -1.00000000    0.11000000    0.15000001
   21.93944359   -1.00000000    0.11000000    0.15000001
   21.94249916   -1.00000000    0.11000000    0.15000001
   21.94583321   -1.00000000    0.11000000    0.15000001
   21.94888878   -1.00000000    0.11000000    0.15000001
   21.95222282   -1.00000000    0.11000000    0.15000001
   21.95583344   -1.00000000    0.11000000    0.15000001
   21.95888901   -1.00000000    0.11000000    0.15000001
   21.96222305   -1.00000000    0.11000000    0.15000001
   21.96527863   -1.00000000    0.11000000    0.15000001
   21.96861076   -1.00000000    0.11000000    0.15000001
   21.97166634   -1.00000000    0.11000000    0.15000001
   21.98222351   -1.00000000    0.11000000    0.15000001
   21.98555565   -1.00000000    0.11000000    0.15000001
   21.98916626   -1.00000000    0.11000000    0.15000001
   21.99222183   -1.00000000    0.11000000    0.15000001
   21.99555588   -1.00000000    0.11000000    0.15000001
   21.99861145   -1.00000000    0.11000000    0.15000001
   22.00250053   -1.00000000    0.11000000    0.15000001
   22.00583267   -1.00000000    0.11000000    0.15000001
   22.00888824   -1.00000000    0.11000000    0.15000001
   22.01222229   -1.00000000    0.11000000    0.15000001
   22.01555634   -1.00000000    0.11000000    0.15000001
   22.02555466   -1.00000000    0.11000000    0.15000001
   22.02888870   -1.00000000    0.11000000    0.15000001
   22.03222275   -1.00000000    0.11000000    0.15000001
   22.03555489   -1.00000000    0.11000000    0.15000001
   22.04027748   -1.00000000    0.11000000    0.15000001
   22.04388809   -1.00000000    0.11000000    0.15000001
   22.04777718   -1.00000000    0.11000000    0.15000001
   22.05194283   -1.00000000    0.11000000    0.15000001
   22.05638885   -1.00000000    0.11000000    0.15000001
   22.06055450   -1.00000000    0.11000000    0.15000001
   22.06888962   -1.00000000    0.11000000    0.15000001
   22.07222366   -1.00000000    0.11000000    0.15000001
   22.07527924   -1.00000000    0.11000000    0.15000001
   22.07861137   -1.00000000    0.11000000    0.15000001
   22.08194542   -1.00000000    0.11000000    0.15000001
   22.08500099   -1.00000000    0.11000000    0.15000001
   22.08861160   -1.00000000    0.11000000    0.15000001
   22.09194565   -1.00000000    0.11000000    0.15000001
   22.09527779   -1.00000000    0.11000000    0.15000001
   22.09833336   -1.00000000    0.11000000    0.15000001
   22.10166740   -1.00000000    0.11000000    0.15000001
   22.11222267   -1.00000000    0.11000000    0.15000001
   22.11583328   -1.00000000    0.11000000    0.15000001
   22.11944389   -1.00000000    0.11000000    0.15000001
   22.12361145   -1.00000000    0.11000000    0.15000001
   22.12666702   -1.00000000    0.11000000    0.15000001
   22.13000107   -1.00000000    0.11000000    0.15000001
   22.13333321   -1.00000000    0.11000000    0.15000001
   22.13638878   -1.00000000    0.11000000    0.15000001
   22.13972282   -1.00000000    0.11000000    0.15000001
   22.14305496   -1.00000000    0.11000000    0.15000001
   22.14638901   -1.00000000    0.11000000    0.15000001
   22.15499878   -1.00000000    0.11000000    0.15000001
   22.15888786   -1.00000000    0.11000000    0.15000001
   22.16222191   -1.00000000    0.11000000    0.15000001
   22.16611099   -1.00000000    0.11000000    0.15000001
   22.16944313   -1.00000000    0.11000000    0.15000001
   22.17249870   -1.00000000    0.11000000    0.15000001
   22.17583275   -1.00000000    0.11000000    0.15000001
   22.17916679   -1.00000000    0.11000000    0.15000001
   22.18249893   -1.00000000    0.11000000    0.15000001
