    HOUR (UT)   FLARE FACTOR    SKY TESTER    SUN TESTER
   12.20972157   -1.00000000   -1.00000000   -1.00000000
   12.23944473  222.33000183    0.64999998    1.91999996
   12.24277782   -1.00000000    0.64999998    1.91999996
   12.28111076  199.27200317    0.61000001    1.98000002
   12.28416729  175.60200500    0.61000001    1.98000002
   12.28750038  182.83799744    0.61000001    1.98000002
   12.29083347  179.75100708    0.63000000    1.98000002
   12.29388905  186.23800659    0.61000001    1.98000002
   12.29722309  188.03199768    0.61000001    1.98000002
   12.30138874  188.03199768    0.61000001    2.00000000
   12.30555534  176.51400757    0.61000001    2.00000000
   12.30861092  186.24699402    0.61000001    2.00000000
   12.31194496  168.00799561    0.61000001    2.00000000
   12.31444454  179.20100403    0.61000001    2.00000000
   12.31555557  190.77299500    0.61000001    2.00000000
   12.31888866  187.23800659    0.61000001    2.00000000
   12.32222176  166.90699768    0.61000001    2.00000000
   12.32527733  192.10200500    0.61000001    2.00000000
   12.32861137  247.13299561    0.58999997    2.00000000
   12.33166695  254.73399353    0.58999997    2.00000000
   12.33500004  176.82099915    0.58999997    2.01999998
   12.33833313  194.12500000    0.58999997    2.01999998
   12.34416676  194.12500000    0.58999997    2.01999998
   12.34833336  188.98500061    0.58999997    2.01999998
   12.35138893  186.85400391    0.58999997    2.01999998
   12.35472298  183.83099365    0.58999997    2.03999996
   12.35805607  169.68699646    0.58999997    2.03999996
   12.36111164  197.60200500    0.58999997    2.03999996
   12.36444473  206.26300049    0.58999997    2.03999996
   12.36777782  210.88099670    0.58999997    2.03999996
   12.37083340  217.60899353    0.56999999    2.03999996
   12.37416649  184.37699890    0.58999997    2.03999996
   12.37750053  195.91799927    0.56999999    2.03999996
   12.38055611  201.43600464    0.56999999    2.03999996
   12.38111115  182.26600647    0.56999999    2.03999996
   12.38694477  182.26600647    0.56999999    2.03999996
   12.39111137  198.94500732    0.56999999    2.03999996
   12.39444447  209.93699646    0.56999999    2.05999994
   12.39750004  192.10299683    0.56999999    2.05999994
   12.40083313  183.17100525    0.56999999    2.05999994
   12.40388870  183.45700073    0.56999999    2.05999994
   12.40722179  194.53100586    0.55000001    2.05999994
   12.41055489  181.05700684    0.55000001    2.05999994
   12.41361046  181.46200562    0.56999999    2.05999994
   12.41444397  182.65800476    0.56999999    2.05999994
   12.41750050  200.90800476    0.55000001    2.07999992
   12.42055607  207.22200012    0.55000001    2.07999992
   12.42388916  185.40100098    0.55000001    2.07999992
   12.42972279  185.40100098    0.55000001    2.07999992
   12.43388939  181.32699585    0.55000001    2.07999992
   12.43722248  233.22300720    0.55000001    2.07999992
   12.44027805  220.46200562    0.55000001    2.07999992
   12.44361115  220.81500244    0.55000001    2.07999992
   12.44694424  210.34300232    0.52999997    2.07999992
   12.44777775  219.93200684    0.52999997    2.07999992
   12.45055580  235.71499634    0.52999997    2.07999992
   12.45388889  208.58700562    0.52999997    2.09999990
   12.45694447  214.41999817    0.55000001    2.09999990
   12.46027756  238.35899353    0.55000001    2.09999990
   12.46333313  231.49899292    0.52999997    2.09999990
   12.46666622  232.32600403    0.52999997    2.09999990
   12.47277737  232.32600403    0.55000001    2.09999990
   12.47666645  226.25999451    0.52999997    2.11999989
   12.47999954  179.72500610    0.52999997    2.11999989
   12.48111057  188.29499817    0.52999997    2.11999989
   12.48361111  214.36500549    0.52999997    2.11999989
   12.48666668  204.65699768    0.52999997    2.11999989
   12.49000072  188.18499756    0.52999997    2.11999989
   12.49333382  187.63099670    0.52999997    2.11999989
   12.49638939  188.89300537    0.52999997    2.11999989
   12.49972248  180.77799988    0.52999997    2.11999989
   12.50305557  187.32200623    0.52999997    2.11999989
   12.50611115  182.03100586    0.52999997    2.13000011
   12.50944424  178.86599731    0.52999997    2.11999989
   12.51555538  178.86599731    0.52999997    2.11999989
   12.51972198  207.71000671    0.52999997    2.13000011
   12.52277756   -1.00000000    0.52999997    2.13000011
   12.52611065   -1.00000000    0.52999997    2.13000011
   12.52944374   -1.00000000    0.52999997    2.13000011
   12.53249931   -1.00000000    0.52999997    2.13000011
   12.53583336   -1.00000000    0.52999997    2.13000011
   12.53888893   54.50139999    0.52999997    2.15000010
   12.54222298  192.41799927    0.52999997    2.13000011
   12.54555607  188.62100220    0.52999997    2.13000011
   12.54777813  210.61700439    0.52999997    2.13000011
   12.54916668  187.80700684    0.52999997    2.13000011
   12.55249977  196.28300476    0.52999997    2.15000010
   12.55833340  196.28300476    0.52999997    2.15000010
   12.56250000  198.45799255    0.52999997    2.13000011
   12.56583309  203.17700195    0.52999997    2.15000010
   12.56916618   -1.00000000    0.52999997    2.17000008
   12.57222176   -1.00000000    0.52999997    2.15000010
   12.57555580   -1.00000000    0.52999997    2.15000010
   12.57888889   -1.00000000    0.52999997    2.15000010
   12.58249950  143.07800293    0.52999997    2.17000008
   12.58555508  195.57299805    0.52999997    2.15000010
   12.58888817  198.72000122    0.52999997    2.15000010
   12.59194374  215.54100037    0.52999997    2.17000008
   12.59527779  221.21099854    0.52999997    2.17000008
   12.60111141  221.21099854    0.52999997    2.17000008
   12.60527802  213.63699341    0.51999998    2.19000006
   12.60861111  214.52600098    0.52999997    2.17000008
   12.61194515  199.59599304    0.51999998    2.17000008
   12.61444473  212.45199585    0.51999998    2.17000008
   12.61555576  203.32099915    0.51999998    2.17000008
   12.61861134   -1.00000000    0.51999998    2.19000006
   12.62194443   -1.00000000    0.51999998    2.19000006
   12.62527752   -1.00000000    0.51999998    2.19000006
   12.62833309   -1.00000000    0.51999998    2.19000006
   12.63166714   -1.00000000    0.51999998    2.19000006
   12.63500023  204.76199341    0.51999998    2.19000006
   12.63805580  190.46299744    0.51999998    2.19000006
   12.64416695  190.46299744    0.52999997    2.19000006
   12.64805508  204.64399719    0.51999998    2.19000006
   12.65138817  194.49400330    0.51999998    2.19000006
   12.65472221  200.31799316    0.52999997    2.19000006
   12.65777779  208.86700439    0.52999997    2.19000006
   12.66111088  210.11599731    0.51999998    2.19000006
   12.66444397  193.65499878    0.51999998    2.19000006
   12.66750050   -1.00000000    0.51999998    2.21000004
   12.67083359   -1.00000000    0.51999998    2.21000004
   12.67416668   -1.00000000    0.55000001    2.21000004
   12.67722225   -1.00000000    0.56999999    2.21000004
   12.68055630   -1.00000000    0.55000001    2.21000004
   12.68694496   -1.00000000    0.52999997    2.21000004
   12.69111156  208.44299316    0.56999999    2.21000004
   12.69416714  199.30200195    0.61000001    2.23000002
   12.69750023  203.39399719    0.63000000    2.23000002
   12.70083332  190.16000366    0.61000001    2.23000002
   12.70388889  195.08500671    0.52999997    2.23000002
   12.70722198  209.86799622    0.51999998    2.23000002
   12.71027756  201.36999512    0.51999998    2.23000002
   12.71361065  201.55299377    0.51999998    2.23000002
   12.71722221   -1.00000000    0.51999998    2.23000002
   12.72027779   -1.00000000    0.51999998    2.23000002
   12.72361088   -1.00000000    0.51999998    2.23000002
   12.73388958  180.11000061    0.50000000    2.23000002
   12.73694515  193.52099609    0.51999998    2.25000000
   12.74027824  200.66400146    0.51999998    2.25000000
   12.74361134  196.57899475    0.51999998    2.23000002
   12.74666691  192.47799683    0.51999998    2.25000000
   12.74777794  206.28700256    0.51999998    2.25000000
   12.75027752  197.45599365    0.50000000    2.23000002
   12.75361156  191.97399902    0.50000000    2.25000000
   12.75666714  189.11999512    0.50000000    2.25000000
   12.76000023  191.32000732    0.50000000    2.25000000
   12.76305580  196.21200562    0.50000000    2.25000000
   12.76638889  194.65600586    0.50000000    2.25000000
   12.77250004  194.65600586    0.50000000    2.25000000
   12.77666664  178.43899536    0.50000000    2.25000000
   12.77999973  195.22799683    0.50000000    2.26999998
   12.78111076  190.50999451    0.50000000    2.26999998
   12.78361130  189.49000549    0.50000000    2.25000000
   12.78694534  202.08099365    0.47999999    2.26999998
   12.79000092  203.44599915    0.47999999    2.26999998
   12.79333401  195.61099243    0.47999999    2.26999998
   12.79666710  183.80999756    0.47999999    2.26999998
   12.79972267  189.63499451    0.47999999    2.26999998
   12.80305576  192.82699585    0.47999999    2.26999998
   12.80611134  188.37100220    0.47999999    2.28999996
   12.80944443  206.24400330    0.47999999    2.28999996
   12.81555557  206.24400330    0.47999999    2.26999998
   12.81944466  218.92999268    0.47999999    2.26999998
   12.82277775  202.89500427    0.47999999    2.28999996
   12.82611084  202.26699829    0.47999999    2.28999996
   12.82916641  210.81500244    0.46000001    2.28999996
   12.83249950  180.34700012    0.46000001    2.28999996
   12.83583260  210.20899963    0.46000001    2.28999996
   12.83888817  196.54800415    0.47999999    2.28999996
   12.84222221  201.95599365    0.46000001    2.28999996
   12.84527779  203.39100647    0.46000001    2.28999996
   12.84777737  210.69700623    0.46000001    2.28999996
   12.84916592  214.40299988    0.46000001    2.28999996
   12.85249996  187.11399841    0.46000001    2.28999996
   12.85833359  187.11399841    0.46000001    2.28999996
   12.86250019  204.97799683    0.46000001    2.28999996
   12.86555576  197.72399902    0.47999999    2.28999996
   12.86888885  211.59300232    0.46000001    2.28999996
   12.87222195  203.29699707    0.46000001    2.30999994
   12.87527752  194.67399597    0.46000001    2.30999994
   12.87861156  195.13000488    0.46000001    2.30999994
   12.88111115  192.69700623    0.46000001    2.30999994
   12.88222218  200.80900574    0.46000001    2.30999994
   12.88555527  193.00199890    0.46000001    2.30999994
   12.88861084  197.47700500    0.46000001    2.30999994
   12.89194393  202.11300659    0.46000001    2.30999994
   12.89499950  206.16700745    0.46000001    2.30999994
   12.90111065  206.16700745    0.46000001    2.30999994
   12.90527725  344.71200562    0.46000001    2.32999992
   12.90861034  364.08898926    0.46000001    2.30999994
   12.91166592  392.33200073    0.46000001    2.30999994
   12.91444397  370.48199463    0.46000001    2.30999994
   12.91527748  421.49798584    0.46000001    2.30999994
   12.91722298  381.86300659    0.44000000    2.30999994
   12.91888905  346.04998779    0.44000000    2.30999994
   12.91916656  421.49798584    0.46000001    2.30999994
   12.91916656  200.80900574    0.46000001    2.30999994
   12.91916656  193.00199890    0.46000001    2.30999994
   12.91944504  197.47700500    0.46000001    2.30999994
   12.91944504  202.11300659    0.46000001    2.30999994
   12.91944504  206.16700745    0.46000001    2.30999994
   12.91972256  344.71200562    0.46000001    2.32999992
   12.91972256  364.08898926    0.46000001    2.30999994
   12.91972256  392.33200073    0.46000001    2.30999994
   12.92083359  305.63000488    0.46000001    2.30999994
   12.92416668  307.01400757    0.46000001    2.32999992
   12.92750072  274.19400024    0.44000000    2.32999992
   12.93055630  306.32400513    0.44000000    2.32999992
   12.93388939  265.54501343    0.46000001    2.32999992
   12.93972206  265.54501343    0.46000001    2.32999992
   12.94388866  230.02799988    0.44000000    2.32999992
   12.94722271  245.10000610    0.44000000    2.32999992
   12.95027733  226.38200378    0.44000000    2.32999992
   12.95277786  247.16900635    0.44000000    2.32999992
   12.95416641  216.04200745    0.44000000    2.32999992
   12.95722198  237.19099426    0.44000000    2.32999992
   12.96055508  215.43200684    0.44000000    2.32999992
   12.96388912  216.60899353    0.44000000    2.32999992
   12.96694374  209.53900146    0.44000000    2.32999992
   12.97027779  220.55299377    0.44000000    2.32999992
   12.97361088  206.42199707    0.44000000    2.32999992
   12.97666645  215.56500244    0.44000000    2.32999992
   12.98277760  215.56500244    0.44000000    2.34999990
   12.98666668  243.87800598    0.44000000    2.32999992
   12.99000072  223.00500488    0.44000000    2.34999990
   12.99333382  233.82699585    0.44000000    2.34999990
   12.99638939  219.85699463    0.44000000    2.32999992
   12.99972248  233.65100098    0.44000000    2.32999992
   13.00305557  224.40600586    0.44000000    2.34999990
   13.00611115  222.27999878    0.44000000    2.34999990
   13.00944424  214.47200012    0.44000000    2.34999990
   13.01277733  203.55499268    0.44000000    2.36999989
   13.01583290  200.94999695    0.44000000    2.36999989
   13.01916599  202.40299988    0.44000000    2.34999990
   13.01972198  260.51098633    0.44000000    2.34999990
   13.02555561  260.51098633    0.44000000    2.34999990
   13.02972221  203.35600281    0.44000000    2.36999989
   13.03277779  194.02799988    0.44000000    2.36999989
   13.03611183  199.42199707    0.44000000    2.34999990
   13.03916740  199.73800659    0.44000000    2.36999989
   13.04250050  176.20799255    0.44000000    2.34999990
   13.04583359  185.49099731    0.44000000    2.34999990
   13.04888916  161.13699341    0.44000000    2.34999990
   13.05222225  180.91499329    0.46000001    2.36999989
   13.05305576  177.49800110    0.46000001    2.36999989
   13.05583382  187.48199463    0.46000001    2.34999990
   13.05916691  172.07800293    0.46000001    2.36999989
   13.06250000  180.00799561    0.46000001    2.34999990
   13.06833363  180.00799561    0.46000001    2.36999989
   13.07250023  166.66099548    0.46000001    2.34999990
   13.07555580  176.36099243    0.46000001    2.36999989
   13.07888889  170.56799316    0.44000000    2.36999989
   13.08222198  177.72599792    0.44000000    2.36999989
   13.08527756  183.62100220    0.44000000    2.36999989
   13.08638859  184.03100586    0.44000000    2.36999989
   13.08888817  242.69700623    0.44000000    2.36999989
   13.09222221  190.33299255    0.44000000    2.36999989
   13.09555531  248.39100647    0.44000000    2.36999989
   13.09861088  207.68099976    0.44000000    2.36999989
   13.10194492  216.43499756    0.44000000    2.39000010
   13.10527802  172.08599854    0.44000000    2.39000010
   13.11111164  172.08599854    0.41999999    2.36999989
   13.11527824  264.05499268    0.41999999    2.39000010
   13.11861134  177.42500305    0.41999999    2.39000010
   13.11972237  215.37199402    0.41999999    2.39000010
   13.12194443  195.69500732    0.44000000    2.39000010
   13.12527752  206.76400757    0.41999999    2.36999989
   13.12861156  218.43299866    0.41999999    2.39000010
   13.13166714  210.25500488    0.41999999    2.36999989
   13.13500023  192.11799622    0.41999999    2.39000010
   13.13833332  199.75900269    0.41999999    2.39000010
   13.14138889  177.03300476    0.41999999    2.39000010
   13.14472198  214.45100403    0.41999999    2.39000010
   13.14805508  207.09700012    0.41999999    2.39000010
   13.15388870  207.09700012    0.41999999    2.39000010
   13.15805531  205.65600586    0.41999999    2.39000010
   13.16138840  178.01100159    0.41999999    2.39000010
   13.16472149  208.13600159    0.41999999    2.39000010
   13.16777802  200.52600098    0.41999999    2.39000010
   13.17111111  215.22099304    0.41999999    2.39000010
   13.17416668  213.67300415    0.41999999    2.40000010
   13.17750072  195.15600586    0.41999999    2.39000010
   13.18083382  194.70700073    0.41999999    2.40000010
   13.18388939  183.66200256    0.41999999    2.39000010
   13.18638897  217.80400085    0.41999999    2.39000010
   13.18750000  205.38600159    0.41999999    2.39000010
   13.19083309  203.94299316    0.41999999    2.39000010
   13.19694424  203.94299316    0.41999999    2.40000010
   13.20111084  195.03500366    0.41999999    2.40000010
   13.20416641  205.87699890    0.41999999    2.39000010
   13.20749950  229.70199585    0.41999999    2.39000010
   13.21055508  189.47700500    0.41999999    2.39000010
   13.21388912  218.52999878    0.41999999    2.40000010
   13.21722221  220.55499268    0.41999999    2.40000010
   13.21972179  216.47700500    0.41999999    2.40000010
   13.22055531  192.94700623    0.41999999    2.40000010
   13.22388840  188.75500488    0.41999999    2.40000010
   13.22722149  196.00500488    0.41999999    2.40000010
   13.23027706  214.76400757    0.41999999    2.40000010
   13.23361111  202.78700256    0.41999999    2.40000010
   13.23972225  202.78700256    0.41999999    2.40000010
   13.24388885  163.72300720    0.41999999    2.40000010
   13.24694443  180.87300110    0.41999999    2.40000010
   13.25027752  190.84300232    0.41999999    2.40000010
   13.25305557  175.47599792    0.41999999    2.42000008
   13.25388908  185.83000183    0.41999999    2.42000008
   13.25722218  196.91600037    0.41999999    2.40000010
   13.26055527  186.56100464    0.40000001    2.40000010
   13.26361084  168.32899475    0.40000001    2.42000008
   13.26694393  187.33700562    0.40000001    2.42000008
   13.27027798  179.74299622    0.40000001    2.40000010
   13.27333355  174.69000244    0.40000001    2.42000008
   13.27666664  172.15299988    0.40000001    2.42000008
   13.29861164  183.50399780    0.40000001    2.42000008
   13.29916668  177.23100281    0.40000001    2.42000008
   13.30222225  182.69799805    0.40000001    2.42000008
   13.30555534  191.83200073    0.40000001    2.42000008
   13.30861092  188.91700745    0.40000001    2.42000008
   13.31194496  180.83299255    0.40000001    2.42000008
   13.31527805  194.43899536    0.40000001    2.42000008
   13.31833363  167.38099670    0.40000001    2.42000008
   13.32166672  190.89500427    0.40000001    2.42000008
   13.32583332  190.89500427    0.40000001    2.44000006
   13.32999992  179.54400635    0.40000001    2.42000008
   13.33166695  188.47099304    0.40000001    2.42000008
   13.33361053  167.77799988    0.40000001    2.42000008
   13.33666611  180.27299500    0.40000001    2.42000008
   13.34000015  189.10899353    0.38000000    2.44000006
   13.34333324  190.45700073    0.40000001    2.44000006
   13.34638882  183.91999817    0.40000001    2.44000006
   13.34972191  170.93299866    0.38000000    2.42000008
   13.35305595  160.54499817    0.38000000    2.42000008
   13.35611153  168.82099915    0.38000000    2.44000006
   13.35944462  168.66400146    0.38000000    2.44000006
   13.36250019  177.90299988    0.38000000    2.46000004
   13.36500072  176.09899902    0.38000000    2.46000004
   13.36916637  176.09899902    0.36000001    2.44000006
   13.37333393  168.06199646    0.36000001    2.44000006
   13.37638855  182.01699829    0.36000001    2.42000008
   13.37972260  167.37800598    0.38000000    2.46000004
   13.38305569  163.03100586    0.38000000    2.44000006
   13.38611126  162.59700012    0.36000001    2.46000004
   13.38944435  150.49699402    0.38000000    2.44000006
   13.39277744  160.37100220    0.36000001    2.44000006
   13.39583302  157.47200012    0.38000000    2.46000004
   13.39833355  156.24800110    0.38000000    2.46000004
   13.39972210  151.02699280    0.38000000    2.46000004
   13.40277767  158.79600525    0.36000001    2.46000004
   13.40611076  156.91700745    0.36000001    2.46000004
   13.41194439  156.91700745    0.36000001    2.46000004
   13.41611099  179.36199951    0.36000001    2.46000004
   13.41944504  179.04899597    0.36000001    2.46000004
   13.42250061  177.46099854    0.36000001    2.46000004
   13.42583370  171.83799744    0.38000000    2.46000004
   13.42916679  176.20500183    0.36000001    2.46000004
   13.43166733  177.67500305    0.36000001    2.46000004
   13.43277836  184.17799377    0.38000000    2.46000004
   13.43611145  167.69200134    0.36000001    2.46000004
   13.43916702  176.45700073    0.36000001    2.46000004
   13.44250011  170.64100647    0.36000001    2.46000004
   13.44555569  172.40800476    0.38000000    2.46000004
   13.44888878  160.43299866    0.36000001    2.46000004
   13.45472240  160.43299866    0.36000001    2.46000004
   13.45888901  170.69599915    0.38000000    2.46000004
   13.46222210  163.09700012    0.36000001    2.46000004
   13.46500015  161.72799683    0.38000000    2.46000004
   13.46583271  163.78599548    0.36000001    2.46000004
   13.46888828  167.88200378    0.36000001    2.46000004
   13.47222137  168.72900391    0.36000001    2.46000004
   13.47555542  157.78700256    0.38000000    2.46000004
   13.47861099  132.27999878    0.36000001    2.46000004
   13.48194408  166.19200134    0.38000000    2.46000004
   13.48500061  157.07600403    0.36000001    2.48000002
   13.48833370  177.18400574    0.38000000    2.48000002
   13.49166679  149.14799500    0.36000001    2.48000002
   13.49777794  149.14799500    0.36000001    2.48000002
   13.50194454  154.09500122    0.36000001    2.48000002
   13.50500011  169.89199829    0.36000001    2.48000002
   13.50833321  188.06700134    0.38000000    2.48000002
   13.51138878  194.13200378    0.38000000    2.46000004
   13.51472187  198.08599854    0.40000001    2.48000002
   13.51805496  189.52600098    0.40000001    2.48000002
   13.52111053  177.60400391    0.40000001    2.48000002
   13.52444458  158.19599915    0.41999999    2.48000002
   13.52777767  169.87199402    0.41999999    2.48000002
   13.53083324  145.63800049    0.41999999    2.48000002
   13.53277779  168.39599609    0.41999999    2.48000002
   13.53472233  137.56399536    0.41999999    2.48000002
   13.54055595  137.56399536    0.41999999    2.48000002
   13.54472256  146.05299377    0.41999999    2.48000002
   13.54777813  162.52200317    0.40000001    2.48000002
   13.55111122  158.93800354    0.40000001    2.48000002
   13.55444431  154.06399536    0.38000000    2.48000002
   13.55749989  165.86999512    0.36000001    2.48000002
   13.56083393  161.81599426    0.36000001    2.48000002
   13.56416702  168.06399536    0.36000001    2.48000002
   13.56611156  162.79100037    0.36000001    2.48000002
   13.56777763  171.25000000    0.36000001    2.48000002
   13.57083321  157.59899902    0.38000000    2.48000002
   13.57416630  171.62300110    0.38000000    2.48000002
   13.57722187  169.15100098    0.36000001    2.48000002
   13.58333302  169.15100098    0.36000001    2.48000002
   13.58749962  156.81500244    0.38000000    2.48000002
   13.59083271  157.67700195    0.36000001    2.50000000
   13.59388828  164.37600708    0.36000001    2.50000000
   13.59722233  173.16499329    0.36000001    2.48000002
   13.59972191  166.38699341    0.38000000    2.50000000
   13.60111141  138.86399841    0.36000001    2.48000002
   13.60416698  158.17999268    0.36000001    2.50000000
   13.60750008  147.91000366    0.38000000    2.50000000
   13.61055565  134.30400085    0.36000001    2.50000000
   13.61388969  170.87300110    0.36000001    2.50000000
   13.61722279  152.32600403    0.36000001    2.50000000
   13.62027836  138.66299438    0.38000000    2.50000000
   13.62611103  138.66299438    0.36000001    2.50000000
   13.63027763  169.60000610    0.36000001    2.50000000
   13.63305569  163.41999817    0.36000001    2.50000000
   13.63388920  150.29100037    0.36000001    2.50000000
   13.63722229  158.86300659    0.38000000    2.50000000
   13.64055538  176.36599731    0.38000000    2.50000000
   13.64361095  163.59399414    0.36000001    2.50000000
   13.64694405  162.00000000    0.36000001    2.50000000
   13.64999962  159.31700134    0.36000001    2.50000000
   13.65333271  164.44400024    0.36000001    2.50000000
   13.65666676  166.86700439    0.36000001    2.50000000
   13.65972137  172.19599915    0.36000001    2.50000000
   13.66305542  159.84899902    0.36000001    2.51999998
   13.66916656  159.84899902    0.36000001    2.51999998
   13.67333412  168.68499756    0.36000001    2.51999998
   13.67638874  161.43899536    0.36000001    2.51999998
   13.67972279  155.02299500    0.36000001    2.50000000
   13.68305588  156.04100037    0.36000001    2.50000000
   13.68611145  143.92300415    0.36000001    2.50000000
   13.68944454  156.48500061    0.36000001    2.51999998
   13.69277763  158.96200562    0.36000001    2.50000000
   13.69583321  148.32000732    0.34000000    2.51999998
   13.69916630  161.97999573    0.34000000    2.51999998
   13.69999981  163.19999695    0.36000001    2.51999998
   13.70277786  169.94599915    0.36000001    2.50000000
   13.70583344  161.62699890    0.34000000    2.51999998
   13.71194458  161.62699890    0.36000001    2.51999998
   13.71611118  151.80900574    0.34000000    2.51999998
   13.71916580  163.74699402    0.34000000    2.51999998
   13.72249985  151.09100342    0.34000000    2.50000000
   13.72583294  159.17799377    0.34000000    2.51999998
   13.72888851  169.21400452    0.34000000    2.51999998
   13.73222160  171.25999451    0.34000000    2.51999998
   13.73333359  166.13099670    0.34000000    2.53999996
   13.73583317  170.55099487    0.34000000    2.51999998
   13.73888874  166.31199646    0.34000000    2.51999998
   13.74222279  176.09599304    0.34000000    2.51999998
   13.74527836  176.05900574    0.34000000    2.51999998
   13.74861145  156.57299805    0.34000000    2.51999998
   13.75472260  156.57299805    0.34000000    2.53999996
   13.75888920  167.74899292    0.34000000    2.51999998
   13.76222229  158.85899353    0.34000000    2.51999998
   13.76527786  144.78900146    0.34000000    2.51999998
   13.76694393  152.41299438    0.34000000    2.51999998
   13.76916599  153.89799500    0.34000000    2.51999998
   13.77222157  159.09199524    0.34000000    2.53999996
   13.77555561  155.39399719    0.34000000    2.53999996
   13.77888870  161.23800659    0.34000000    2.51999998
   13.78194427  140.41700745    0.34000000    2.51999998
   13.78527832  147.15100098    0.34000000    2.51999998
   13.78833389  144.59800720    0.34000000    2.53999996
   13.79166698  137.45399475    0.34000000    2.51999998
   13.79750061  137.45399475    0.34000000    2.53999996
   13.80166721  141.03700256    0.31999999    2.53999996
   13.80500031  149.91799927    0.34000000    2.51999998
   13.80833340  134.92599487    0.34000000    2.53999996
   13.81138897  139.79800415    0.36000001    2.51999998
   13.81472206  135.07299805    0.40000001    2.51999998
   13.81777763  133.94400024    0.40000001    2.51999998
   13.82111073  144.10800171    0.40000001    2.51999998
   13.82444477  141.66700745    0.40000001    2.53999996
   13.82750034  139.15899658    0.34000000    2.53999996
   13.83083344  138.88600159    0.34000000    2.53999996
   13.83361053  134.41700745    0.34000000    2.53999996
   13.83444405  149.00000000    0.34000000    2.53999996
   13.84055519  149.00000000    0.52999997    2.53999996
   13.84472179  138.89599609    0.86000001    2.51999998
   13.84777737  142.43899536    0.75000000    2.53999996
   13.85111141  146.76899719    0.46000001    2.53999996
   13.85444450  136.39799500    0.46000001    2.53999996
   13.85750008  139.89399719    0.44000000    2.51999998
   13.86083412  137.98599243    0.41999999    2.53999996
   13.86388969  138.25000000    0.41999999    2.53999996
   13.86694431  137.53700256    0.34000000    2.53999996
   13.86750031  142.12399292    0.34000000    2.53999996
   13.87083340  130.66200256    0.34000000    2.55999994
   13.87416649  137.14300537    0.34000000    2.53999996
   13.87722206  136.70599365    0.34000000    2.53999996
   13.88333321  136.70599365    0.34000000    2.53999996
   13.88749981  135.21499634    0.36000001    2.53999996
   13.89055538  147.25000000    0.36000001    2.53999996
   13.89388847  153.73300171    0.36000001    2.53999996
   13.89722252  143.52000427    0.40000001    2.55999994
   13.90027714  152.73300171    0.41999999    2.55999994
   13.90055561  158.22799683    0.41999999    2.55999994
   13.90388870  154.35499573    0.41999999    2.53999996
   13.90722179  141.62100220    0.41999999    2.55999994
   13.91027737  144.81399536    0.41999999    2.55999994
   13.91361046  143.88299561    0.41999999    2.53999996
   13.91694450  153.86999512    0.41999999    2.53999996
   13.92000008  150.35000610    0.41999999    2.55999994
   13.92611122  150.35000610    0.38000000    2.53999996
   13.93027782  147.17399597    0.38000000    2.53999996
   13.93361092  149.37399292    0.34000000    2.55999994
   13.93388939  136.54600525    0.34000000    2.55999994
   13.93722248  148.51699829    0.34000000    2.55999994
   13.94055557  143.22900391    0.34000000    2.55999994
   13.94361115  137.48100281    0.34000000    2.55999994
   13.94694424  136.91299438    0.34000000    2.55999994
   13.95027733  140.54100037    0.34000000    2.55999994
   13.95333290  137.96699524    0.34000000    2.53999996
   13.95666695  143.33500671    0.31999999    2.53999996
   13.95972157  133.59800720    0.31999999    2.55999994
   13.96305561  128.69000244    0.31999999    2.55999994
   13.96888828  128.69000244    0.31999999    2.53999996
   13.97305489  143.17900085    0.31999999    2.55999994
   13.97638798  144.81799316    0.31999999    2.55999994
   13.97972202  134.60600281    0.31999999    2.55999994
   13.98277760  146.15400696    0.31999999    2.55999994
   13.98611164  140.83399963    0.31999999    2.55999994
   13.98916721  144.41000366    0.31999999    2.55999994
   13.99250031  148.35499573    0.31999999    2.55999994
   13.99583340  159.87800598    0.31999999    2.55999994
   13.99888897  143.66999817    0.31999999    2.55999994
   14.00027752  131.70100403    0.31999999    2.57999992
   14.00277805  141.27600098    0.31999999    2.55999994
   14.00583363  147.37800598    0.31999999    2.55999994
   14.01194477  147.37800598    0.31999999    2.55999994
   14.01611137  154.56700134    0.31999999    2.55999994
   14.01916599  146.92399597    0.31999999    2.55999994
   14.02250004  156.45300293    0.31999999    2.55999994
   14.02583313  159.95100403    0.31999999    2.57999992
   14.02888870  135.45799255    0.31999999    2.55999994
   14.03222179  163.46299744    0.31999999    2.55999994
   14.03361130  140.36300659    0.31999999    2.55999994
   14.03583336  146.81100464    0.31999999    2.55999994
   14.03888893  144.40199280    0.31999999    2.55999994
   14.04222298  154.61399841    0.31999999    2.55999994
   14.04527855  153.24099731    0.30000001    2.55999994
   14.04861164  147.40600586    0.31999999    2.55999994
   14.05472279  147.40600586    0.31999999    2.55999994
   14.05888939  149.07000732    0.30000001    2.57999992
   14.06194496  135.45799255    0.30000001    2.55999994
   14.06527805  145.25900269    0.30000001    2.57999992
   14.06722260  138.51400757    0.30000001    2.57999992
   14.06888866  155.13299561    0.30000001    2.57999992
   14.07222176  161.33500671    0.30000001    2.55999994
   14.07555580  127.36000061    0.31999999    2.57999992
   14.07861137  137.58299255    0.31999999    2.57999992
   14.08194447  160.32000732    0.31999999    2.57999992
   14.08500004  167.81100464    0.31999999    2.57999992
   14.08833313  205.44599915    0.31999999    2.57999992
   14.09166622  193.22099304    0.31999999    2.57999992
   14.09749985  193.22099304    0.31999999    2.57999992
   14.10166740  286.49700928    0.31999999    2.57999992
   14.10500050  283.86700439    0.31999999    2.57999992
   14.10805607  210.09700012    0.31999999    2.57999992
   14.11138916  232.87199402    0.31999999    2.57999992
   14.11472225  215.90600586    0.31999999    2.55999994
   14.11777782  179.22900391    0.31999999    2.55999994
   14.12111092  222.15899658    0.31999999    2.57999992
   14.12416649  274.70199585    0.31999999    2.57999992
   14.12750053  224.67399597    0.31999999    2.57999992
   14.13083363  201.36799622    0.31999999    2.57999992
   14.13388920  256.42999268    0.31999999    2.57999992
   14.13416672  218.89700317    0.31999999    2.57999992
   14.14027786  218.89700317    0.34000000    2.59999990
   14.14444447  209.71499634    0.36000001    2.59999990
   14.14777756  251.06300354    0.36000001    2.59999990
   14.15111065  234.25399780    0.34000000    2.57999992
   14.15416622  222.47500610    0.34000000    2.57999992
   14.15749931  181.98899841    0.34000000    2.57999992
   14.16055489  210.29699707    0.34000000    2.57999992
   14.16388893  225.75700378    0.34000000    2.57999992
   14.16722298  198.41200256    0.31999999    2.59999990
   14.16750050  197.79200745    0.31999999    2.59999990
   14.17083359  182.77999878    0.34000000    2.57999992
   14.17416668  204.53700256    0.34000000    2.57999992
   14.17722225  164.48899841    0.34000000    2.57999992
   14.18333340  164.48899841    0.98000002    2.57999992
   14.18750000  175.82099915    1.34000003    2.57999992
   14.19055557  186.76499939    1.89999998    2.53999996
   14.19388866  170.17700195    2.11999989    2.53999996
   14.19694424  159.25399780    2.07999992    2.55999994
   14.20027733  166.93400574    1.69000006    2.55999994
   14.20083332  144.78700256    1.69000006    2.55999994
   14.20416641  163.74800110    1.69000006    2.55999994
   14.20722198  141.38000488    1.50000000    2.57999992
   14.21055508  155.62899780    1.50000000    2.57999992
   14.21388912  155.36000061    0.94000000    2.57999992
   14.21694374  152.65199280    1.00000000    2.55999994
   14.22027779  153.38000488    1.00000000    2.55999994
   14.22611046  153.38000488    1.00000000    2.59999990
   14.23027706  142.80299377    1.25000000    2.57999992
   14.23361111  142.85400391    0.94000000    2.57999992
   14.23416710  156.10699463    0.94000000    2.57999992
   14.23722267  149.94299316    0.94000000    2.57999992
   14.24027824  147.79100037    0.51999998    2.57999992
   14.24361134  131.65800476    0.64999998    2.59999990
   14.24694443  143.29100037    0.76999998    2.57999992
   14.25000000  154.56900024    0.86000001    2.57999992
   14.25333309  153.39199829    1.01999998    2.57999992
   14.25638866  152.21400452    1.11000001    2.57999992
   14.25972176  142.19400024    2.05999994    2.59999990
   14.26305580  154.20100403    2.73000002    2.51999998
   14.26888847  154.20100403    3.32999992    2.50000000
   14.27305508  138.69099426    2.17000008    2.55999994
   14.27638817  154.74899292    1.64999998    2.53999996
   14.27944374  147.08999634    1.51999998    2.55999994
   14.28277779  137.13000488    1.30999994    2.55999994
   14.28611183  139.81700134    1.07000005    2.57999992
   14.28916740  149.36300659    1.13000000    2.57999992
   14.29250050  152.01899719    1.07000005    2.57999992
   14.29555607  150.72500610    1.05999994    2.57999992
   14.29888916  145.77099609    1.03999996    2.57999992
   14.31583309  128.22599792    0.92000002    2.59999990
   14.31999969  128.22599792    1.03999996    2.59999990
   14.32416630  142.08000183    1.03999996    2.59999990
   14.32750034  113.93599701    1.07000005    2.57999992
   14.33055592  127.13500214    1.41999996    2.57999992
   14.33388901  120.11799622    4.78000021    2.57999992
   14.33722210  176.78300476    4.90999985    2.53999996
   14.34027767  239.42599487    4.90999985    2.03999996
   14.34361076  150.69200134    4.90999985    1.78999996
   14.34694386  123.94999695    4.90999985    2.42000008
   14.34916592  136.84899902    4.90999985    2.53999996
   14.35055637   92.46089935    4.90999985    2.51999998
   14.35361195  125.42500305    4.90999985    1.64999998
   14.35694504  112.65699768    4.90999985    2.01999998
   14.36305618  112.65699768    4.90999985    2.40000010
   14.36694431  126.16999817    4.90999985    2.46000004
   14.37027836  132.58799744    4.90999985    2.46000004
   14.37361145  130.57099915    4.90999985    2.50000000
   14.37666702  123.43299866    4.90999985    2.42000008
   14.38000011  128.05499268    4.90999985    2.46000004
   14.38249969  122.63400269    4.90999985    2.44000006
   14.38361073  123.43399811    4.90999985    2.44000006
   14.38666630  117.26399994    4.90999985    2.51999998
   14.39000034  128.87500000    4.90999985    2.46000004
   14.39333344  111.70400238    4.90999985    2.50000000
   14.39638901  125.79900360    4.51000023    2.50000000
   14.39972210  121.49500275    4.26000023    2.50000000
   14.40583324  121.49500275    1.88000000    2.59999990
   14.40999985  100.30000305    1.34000003    2.59999990
   14.41305542  118.03600311    1.26999998    2.59999990
   14.41583252  117.28800201    1.05999994    2.59999990
   14.41694450  120.55100250    0.98000002    2.59999990
   14.42000008  118.33899689    0.94000000    2.59999990
   14.42333412  119.85700226    0.94000000    2.59999990
   14.42666721  125.99900055    0.94000000    2.61999989
   14.42972279  111.27999878    0.95999998    2.57999992
   14.43305588  123.96299744    0.95999998    2.59999990
   14.43611145  114.67199707    0.94000000    2.59999990
   14.43944454  128.69700623    0.86000001    2.59999990
   14.44277763  110.23000336    0.76999998    2.59999990
   14.44861126  110.23000336    0.67000002    2.59999990
   14.45277786  121.37799835    0.67000002    2.59999990
   14.45611095  136.39500427    0.64999998    2.61999989
   14.45916653  122.00599670    0.63000000    2.61999989
   14.46249962  111.42500305    0.61000001    2.59999990
   14.46555519  116.97000122    0.61000001    2.59999990
   14.46888828  113.75800323    0.58999997    2.61999989
   14.47222137  122.31400299    1.34000003    2.59999990
   14.47527695  125.78299713    1.39999998    2.57999992
   14.47861099  124.23600006    1.88000000    2.59999990
   14.48194408  134.51499939    2.28999996    2.59999990
   14.48361111  125.23699951    2.42000008    2.59999990
   14.48555565  123.27700043    2.26999998    2.59999990
   14.49138927  123.27700043    0.95999998    2.61999989
   14.49555588  132.75199890    0.80000001    2.59999990
   14.49888897  123.44100189    0.81999999    2.59999990
   14.50194454  152.16900635    0.81999999    2.59999990
   14.50527763  130.59199524    0.94000000    2.59999990
   14.50861073  145.61099243    0.94000000    2.59999990
   14.51166630  105.21900177    0.94000000    2.59999990
   14.51500034  147.03900146    1.05999994    2.59999990
   14.51694393  155.97999573    1.05999994    2.59999990
   14.51861095  133.04699707    1.05999994    2.59999990
   14.52194405  136.38200378    0.94000000    2.61999989
   14.52499962  137.52799988    0.94000000    2.59999990
   14.52833271  147.55599976    0.94000000    2.59999990
   14.53444481  147.55599976    0.75000000    2.61999989
   14.53833389  150.07000732    0.70999998    2.61999989
   14.54166698  155.67500305    0.67000002    2.59999990
   14.54500008  147.11000061    0.67000002    2.61999989
   14.54805565  115.49299622    0.64999998    2.59999990
   14.55055618  141.55900574    0.64999998    2.59999990
   14.55194473  133.15499878    0.64999998    2.59999990
   14.55500031  152.45599365    0.61000001    2.59999990
   14.55833340  144.34199524    0.58999997    2.61999989
   14.56166649  145.55999756    0.58999997    2.64000010
   14.56472206  147.36500549    0.58999997    2.64000010
   14.56805515  137.36999512    0.58999997    2.61999989
   14.57111073  137.66700745    0.63000000    2.61999989
   14.57722187  137.66700745    0.64999998    2.61999989
   14.58138847  129.09599304    0.83999997    2.61999989
   14.58388901  126.36900330    0.94000000    2.59999990
   14.58500004  139.44299316    0.98000002    2.59999990
   14.58805561  143.92100525    1.11000001    2.61999989
   14.59138870  133.15699768    1.21000004    2.61999989
   14.59444427  136.42300415    1.25000000    2.59999990
   14.59777737  131.65699768    1.25000000    2.61999989
   14.60111141  125.38200378    1.33000004    2.59999990
   14.60416698  135.52999878    1.34000003    2.59999990
   14.60750008  112.55500031    1.34000003    2.59999990
   14.61083412  107.27999878    1.41999996    2.59999990
   14.61388969  107.53900146    1.78999996    2.59999990
   14.61999989  107.53900146    2.17000008    2.59999990
   14.62416649  112.27500153    2.39000010    2.59999990
   14.62750053  110.82199860    2.26999998    2.59999990
   14.63055611  104.55699921    2.23000002    2.57999992
   14.63388920  108.09400177    2.30999994    2.59999990
   14.63722229  117.76300049    2.42000008    2.59999990
   14.64027786  115.72100067    2.53999996    2.57999992
   14.64361095  111.71199799    2.69000006    2.55999994
   14.64694405  112.03800201    2.84999990    2.57999992
   14.64999962  113.77600098    2.96000004    2.55999994
   14.65083313  107.23100281    3.00000000    2.53999996
   14.65361118  104.01599884    3.25000000    2.51999998
   14.65694427  116.30599976    3.41000009    2.53999996
   14.66277695  116.30599976    3.50000000    2.53999996
   14.66694450  104.12599945    3.39000010    2.55999994
   14.67027855  104.20600128    3.03999996    2.57999992
   14.67333412  105.76999664    2.86999989    2.59999990
   14.67666721  120.67700195    2.67000008    2.57999992
   14.68000031  105.44599915    2.34999990    2.57999992
   14.68305588  112.64499664    2.28999996    2.59999990
   14.68416691  116.47100067    2.25000000    2.59999990
   14.68666649  114.67199707    2.17000008    2.59999990
   14.69000053  110.04799652    2.11999989    2.61999989
   14.69305515  116.44300079    2.00000000    2.59999990
   14.69638920  118.56700134    1.73000002    2.61999989
   14.69944477  118.33799744    1.60000002    2.59999990
   14.70555496  118.33799744    1.36000001    2.61999989
   14.70972157  121.54100037    1.33000004    2.59999990
   14.71305561  118.68199921    1.30999994    2.59999990
   14.71638870  112.59200287    1.28999996    2.61999989
   14.71777725  120.19799805    1.28999996    2.61999989
   14.71999931  116.64499664    1.28999996    2.61999989
   14.72333336  117.03299713    1.30999994    2.61999989
   14.72638798  105.83499908    1.38000000    2.59999990
   14.72972202  110.74500275    1.38000000    2.61999989
   14.73305511  113.08300018    2.03999996    2.64000010
   14.73611164  111.15200043    3.73000002    2.57999992
   14.73944473  105.03900146    4.69999981    2.53999996
   14.74250031  116.30100250    4.90999985    2.55999994
   14.74861145  116.30100250    4.90999985    2.51999998
   14.75277805  114.33499908    4.73999977    2.57999992
   14.75583363  112.20200348    4.19999981    2.59999990
   14.75916672  115.81800079    2.91000009    2.61999989
   14.76222229  109.01699829    1.44000006    2.64000010
   14.76555538  106.38700104    0.67000002    2.61999989
   14.76888847  115.08499908    0.51999998    2.64000010
   14.77194405  114.18099976    0.47999999    2.64000010
   14.77527714  113.99800110    0.36000001    2.64000010
   14.77861118  117.93399811    0.34000000    2.64000010
   14.78166676  113.91500092    0.34000000    2.64000010
   14.78444481  104.50499725    0.31999999    2.64000010
   14.78555584  107.34400177    0.31999999    2.64000010
   14.79138947  107.34400177    0.31999999    2.64000010
   14.79555607  108.92099762    0.30000001    2.64000010
   14.79861164  107.55699921    0.30000001    2.64000010
   14.80194473  105.61399841    0.30000001    2.61999989
   14.80527782  103.17199707    0.30000001    2.64000010
   14.80833340  103.98000336    0.31999999    2.64000010
   14.81166649   97.14790344    0.34000000    2.64000010
   14.81500053  108.37999725    0.34000000    2.64000010
   14.81777763  105.75299835    0.34000000    2.64000010
   14.81861115  108.52999878    0.34000000    2.64000010
   14.82166672  109.27200317    0.34000000    2.64000010
   14.82499981  106.65100098    0.34000000    2.64000010
   14.82833290  114.21900177    0.36000001    2.64000010
   14.83416653  114.21900177    0.36000001    2.64000010
   14.83833313  106.57199860    0.36000001    2.64000010
   14.84166622  113.87899780    0.36000001    2.64000010
   14.84472179  111.04299927    0.51999998    2.64000010
   14.84805489  107.29799652    0.55000001    2.64000010
   14.85111141  113.15299988    1.01999998    2.59999990
   14.85166740  111.13700104    1.01999998    2.59999990
   14.85472298  113.90200043    3.45000005    2.57999992
   14.85805607  115.78800201    3.82999992    2.57999992
   14.86138916  124.48200226    4.48999977    2.50000000
   14.86444473  121.30200195    4.90999985    2.53999996
   14.86777782  122.76399994    4.90999985    2.53999996
   14.87138939  122.65899658    4.90999985    2.51999998
   14.87694454  122.65899658    4.90999985    2.50000000
   14.88111115  124.90000153    4.90999985    2.44000006
   14.88444424  119.94999695    4.90999985    2.46000004
   14.88527775  149.67599487    4.90999985    2.42000008
   14.88861084  129.82099915    4.90999985    2.42000008
   14.89166641  135.39100647    4.90999985    2.46000004
   14.89499950  137.89500427    4.90999985    2.34999990
   14.89805508  133.44599915    4.90999985    2.32999992
   14.90138817  142.49800110    4.90999985    2.32999992
   14.90472221  136.94400024    4.90999985    2.26999998
   14.90777779  126.65200043    4.90999985    2.30999994
   14.91111088  132.49299622    4.90999985    2.32999992
   14.91444397  133.41799927    4.90999985    2.28999996
   14.92000008  133.41799927    4.90999985    2.34999990
   14.92416668  136.27699280    4.90999985    2.34999990
   14.92722225  134.22799683    4.90999985    2.30999994
   14.93055630  145.73399353    4.90999985    2.26999998
   14.93361092  165.82699585    4.90999985    2.19000006
   14.93694496  162.75199890    4.90999985    2.09999990
   14.94027805  149.17599487    4.90999985    2.09999990
   14.94333363  166.51400757    4.90999985    2.15000010
   14.94666672  167.51600647    4.90999985    2.15000010
   14.94999981  169.77099609    4.90999985    2.07999992
   14.95111084  152.78799438    4.90999985    2.09999990
   14.95361137  133.06599426    4.90999985    2.19000006
   14.95666695  147.05400085    4.90999985    2.25000000
   14.96277714  147.05400085    4.90999985    2.15000010
   14.96694374  187.11999512    4.90999985    1.96000004
   14.97027779  319.34399414    4.90999985    1.98000002
   14.97333336  238.44200134    4.90999985    1.89999998
   14.97666645  179.84500122    4.90999985    2.01999998
   14.97972202  160.79100037    4.90999985    2.03999996
   14.98305511  145.47000122    4.90999985    2.15000010
   14.98444462  151.09800720    4.90999985    2.23000002
   14.98666668  159.32299805    4.90999985    2.25000000
   14.98972225  189.59199524    4.90999985    2.13000011
   14.99305534  253.64300537    4.90999985    2.03999996
   14.99638939  178.19900513    4.90999985    2.07999992
   14.99944496  163.58900452    4.90999985    2.25000000
   15.00555515  163.58900452    4.90999985    2.30999994
   15.00972176  136.90100098    4.90999985    2.26999998
   15.01305580  143.14500427    4.90999985    2.26999998
   15.01611137  148.02299500    4.90999985    2.40000010
   15.01805496  163.30999756    4.90999985    2.34999990
   15.01999950  148.00700378    4.90999985    2.11999989
   15.02305508  171.19500732    4.90999985    2.23000002
   15.02638817  162.37399292    4.90999985    2.26999998
   15.02944374  186.18299866    4.90999985    2.19000006
   15.03277779  362.64401245    4.90999985    2.00000000
   15.03611183  169.05400085    4.90999985    2.13000011
   15.03916740  176.24499512    4.90999985    2.19000006
   15.04250050  177.24299622    4.90999985    2.09999990
   15.04833412  177.24299622    4.90999985    2.07999992
   15.05249977  276.17999268    4.90999985    2.09999990
   15.05583382  205.56900024    4.90999985    1.91999996
   15.05916691  395.63198853    4.90999985    1.80999994
   15.06222248  228.12500000    4.90999985    1.76999998
   15.06555557  208.40800476    4.90999985    2.00000000
   15.06861115  154.20899963    4.90999985    2.30999994
   15.07194424  346.66799927    4.90999985    2.11999989
   15.07527733  209.48300171    4.90999985    1.86000001
   15.07833290  165.29299927    4.90999985    1.98000002
   15.08166695  147.67399597    4.90999985    2.30999994
   15.08472157  221.93299866    4.90999985    2.26999998
   15.08555508  197.76300049    4.90999985    2.26999998
   15.09527779   -1.00000000    4.90999985    0.88000000
   15.09861088   -1.00000000    4.90999985    0.86000001
   15.10166740   -1.00000000    4.90999985    0.79000002
   15.10500050   -1.00000000    4.90999985    0.88000000
   15.10833359   -1.00000000    4.90999985    0.79000002
   15.11138916   -1.00000000    4.90999985    0.70999998
   15.11472225   -1.00000000    4.90999985    1.05999994
   15.11777782   -1.00000000    4.90999985    1.28999996
   15.12166691   -1.00000000    4.90999985    1.26999998
   15.12472248   -1.00000000    4.90999985    0.83999997
   15.12805557   -1.00000000    4.90999985    0.52999997
   15.13833332   -1.00000000    4.90999985    1.26999998
   15.14138889   -1.00000000    4.90999985    1.39999998
   15.14472198   -1.00000000    4.90999985    1.44000006
   15.14805508   -1.00000000    4.90999985    1.33000004
   15.15111065   -1.00000000    4.90999985    0.83999997
   15.15472221   -1.00000000    4.90999985    1.11000001
   15.15777779   -1.00000000    4.90999985    1.21000004
   15.16111088   -1.00000000    4.90999985    0.79000002
   15.16444397   -1.00000000    4.90999985    0.51999998
   15.16750050   -1.00000000    4.90999985    0.67000002
   15.17083359   -1.00000000    4.90999985    0.69000000
   15.18111134   -1.00000000    4.90999985    1.28999996
   15.18416691  138.08799744    4.90999985    1.23000002
   15.18500042  202.65800476    4.90999985    1.33000004
   15.18777752  177.63699341    4.90999985    2.17000008
   15.19111156  171.83099365    4.90999985    2.17000008
   15.19416714  164.00300598    4.90999985    2.11999989
   15.19750023  176.01100159    4.90999985    2.11999989
   15.20083332  199.33299255    4.90999985    2.11999989
   15.20388889  185.95899963    4.90999985    2.05999994
   15.20722198  213.85800171    4.90999985    1.91999996
   15.21055508  256.20498657    4.90999985    1.94000006
   15.21361065  259.73498535    4.90999985    1.98000002
   15.21972179  259.73498535    4.90999985    1.94000006
   15.22388840  209.29800415    4.90999985    1.94000006
   15.22722149  196.30799866    4.90999985    2.01999998
   15.23055553  223.27299500    4.90999985    1.91999996
   15.23361111  144.59199524    4.90999985    2.13000011
   15.23694515  151.06199646    4.90999985    2.23000002
   15.24027824  133.27699280    4.90999985    2.32999992
   15.24333382  123.61299896    4.90999985    2.40000010
   15.24666691  142.26100159    4.90999985    2.40000010
   15.24972248  138.54899597    4.90999985    2.36999989
   15.25166702  131.83500671    4.90999985    2.39000010
   15.25333309  128.97200012    4.90999985    2.42000008
   15.25666714  129.81500244    4.90999985    2.44000006
   15.26277733  129.81500244    4.90999985    2.50000000
   15.26694393  134.58700562    4.90999985    2.53999996
   15.26999950  128.52499390    4.90999985    2.53999996
   15.27333355  123.54699707    4.51000023    2.59999990
   15.27638817  127.15200043    3.32999992    2.57999992
   15.27972221  119.32199860    3.11999989    2.59999990
   15.28305531  124.85500336    2.75000000    2.61999989
   15.28527832  116.25499725    2.53999996    2.61999989
   15.28666687  124.79699707    2.23000002    2.64000010
   15.29000092  126.35800171    1.55999994    2.64000010
   15.29305553  122.56700134    1.41999996    2.64000010
   15.29638958  118.05000305    1.19000006    2.64000010
   15.29972267  117.67099762    1.14999998    2.66000009
   15.30555534  117.67099762    1.00000000    2.66000009
   15.30972195  107.37400055    1.09000003    2.66000009
   15.31277752  123.75700378    1.41999996    2.66000009
   15.31611156  123.88200378    1.44000006    2.67000008
   15.33333302  110.13400269    0.67000002    2.66000009
   15.33611107  114.24099731    0.69000000    2.66000009
   15.33944416  112.94699860    0.67000002    2.64000010
   15.34249973  113.79599762    0.67000002    2.64000010
   15.34861088  113.79599762    0.56999999    2.66000009
   15.35277843  109.91300201    0.64999998    2.66000009
   15.35611153  118.96900177    0.70999998    2.66000009
   15.35916710   94.44280243    0.79000002    2.67000008
   15.36250019  109.31099701    0.73000002    2.67000008
   15.36555576  111.48300171    0.69000000    2.66000009
   15.36638927  116.81700134    0.69000000    2.66000009
   15.36944485  106.43699646    0.63000000    2.66000009
   15.37250042  112.34200287    0.51999998    2.67000008
   15.37583351  106.66000366    0.50000000    2.66000009
   15.37916660  104.47100067    0.50000000    2.66000009
   15.38222218  104.56099701    0.46000001    2.66000009
   15.38555527  108.25599670    0.40000001    2.67000008
   15.39138889  108.25599670    0.40000001    2.67000008
   15.39555550  107.98799896    0.40000001    2.66000009
   15.39888859  119.13999939    0.40000001    2.66000009
   15.39999962  118.74700165    0.40000001    2.66000009
   15.40249920  116.42299652    0.40000001    2.66000009
   15.40583324  110.14800262    0.40000001    2.67000008
   15.40916634  107.91400146    0.38000000    2.67000008
   15.41222191  116.65499878    0.38000000    2.67000008
   15.50777817   -1.00000000   -1.00000000   -1.00000000
   15.61472225   -1.00000000   -1.00000000   -1.00000000
   15.82666683   -1.00000000   -1.00000000   -1.00000000
   15.91527748  120.96399689    0.92000002    2.67000008
   15.91861153  113.39199829    0.89999998    2.67000008
   15.92166710  127.56900024    0.92000002    2.67000008
   15.92500019  122.57199860    1.07000005    2.67000008
   15.92833328  125.67400360    1.34000003    2.66000009
   15.93138885  116.09700012    1.51999998    2.66000009
   15.93555546  116.09700012    1.48000002    2.67000008
   15.93972206  119.14900208    1.71000004    2.66000009
   15.94305515  113.09100342    1.94000006    2.66000009
   15.94611073  127.62699890    2.51999998    2.67000008
   15.94861126  123.68299866    3.07999992    2.67000008
   15.94999981  123.72000122    3.20000005    2.69000006
   15.95305538  128.33000183    3.26999998    2.66000009
   15.95638847  127.42600250    3.99000001    2.66000009
   15.95944405  125.56900024    4.90999985    2.61999989
   15.96277714  124.30100250    4.90999985    2.64000010
   15.96611118  122.50099945    4.65999985    2.64000010
   15.96916580  116.24299622    4.90999985    2.64000010
   15.97249985  117.65799713    4.90999985    2.64000010
   15.97833252  117.65799713    4.90999985    2.28999996
   15.98249912  288.82800293    4.90999985    2.03999996
   15.98583317  272.42098999    4.90999985    1.85000002
   15.98888874   -1.00000000    4.90999985    1.66999996
   15.99222279   37.47710037    4.90999985    1.61000001
   15.99555588  207.38499451    4.90999985    1.76999998
   15.99861145  310.85501099    4.90999985    1.89999998
   16.00194359  176.20799255    4.90999985    2.05999994
   16.00527763  144.97900391    4.90999985    2.13000011
   16.00833321  145.98699951    4.90999985    2.48000002
   16.01166725  127.24800110    4.90999985    2.53999996
   16.01472282  138.07200623    4.90999985    2.50000000
   16.01527786  147.73399353    4.90999985    2.50000000
   16.02138901  147.73399353    4.90999985    2.36999989
   16.02527809  119.67199707    4.90999985    2.50000000
   16.02861023  109.23300171    4.90999985    2.53999996
   16.03194427  126.00700378    4.90999985    2.50000000
   16.03499985  145.84599304    4.90999985    2.40000010
   16.03833199  249.28300476    4.90999985    2.21000004
   16.04166603  282.70498657    4.90999985    1.85000002
   16.04472160  361.52999878    4.90999985    1.85000002
   16.04805565  384.17700195    4.90999985    1.76999998
   16.04861069  299.84298706    4.90999985    1.83000004
   16.05166626   -1.00000000    4.90999985    1.60000002
   16.05499840   -1.00000000    4.90999985    1.33000004
   16.05805397  239.06399536    4.90999985    1.66999996
   16.06416512  239.06399536    4.90999985    2.19000006
   16.06833458  154.82899475    4.90999985    2.36999989
   16.07139015  122.43699646    4.90999985    2.00000000
   16.07472229  332.98300171    4.90999985    1.61000001
   16.07805634  178.43899536    4.90999985    2.25000000
   16.08111191  373.28298950    4.90999985    2.11999989
   16.08194542   -1.00000000   -1.00000000   -1.00000000
   16.08472252   -1.00000000    4.90999985    1.63000000
   16.08805656   -1.00000000    4.90999985    1.66999996
   16.09111214  154.93400574    4.90999985    1.71000004
   16.09444427   -1.00000000    4.90999985    1.55999994
   16.09777832   -1.00000000    4.90999985    1.03999996
   16.10083389   -1.00000000    4.90999985    0.92000002
   16.11111069   -1.00000000    4.90999985    0.95999998
   16.11416626   -1.00000000    4.90999985    0.81999999
   16.11777878   -1.00000000    4.90999985    0.70999998
   16.12083435   -1.00000000    4.90999985    0.58999997
   16.12416649   -1.00000000    4.90999985    0.61000001
   16.12750053   -1.00000000    4.90999985    0.56999999
   16.13055611   -1.00000000    4.90999985    0.69000000
   16.13388824   -1.00000000    4.90999985    0.64999998
   16.13722229   -1.00000000    4.90999985    0.51999998
   16.14027786   -1.00000000    4.90999985    0.41999999
   16.14361191   -1.00000000    4.90999985    0.44000000
   16.15388870   -1.00000000    4.90999985    0.23000000
   16.15722275   -1.00000000    4.90999985    0.23000000
   16.16027832   -1.00000000    4.90999985    0.28000000
   16.16361046   -1.00000000    4.90999985    0.28000000
   16.16694450   -1.00000000    4.90999985    0.25999999
   16.17000008   -1.00000000    4.90999985    0.25000000
   16.17333221   -1.00000000    4.90999985    0.17000000
   16.17638779   -1.00000000    4.90999985    0.25000000
   16.17972183   -1.00000000    4.90999985    0.20999999
   16.18333244   -1.00000000    4.90999985    0.25999999
   16.18638802   -1.00000000    4.90999985    0.23000000
   16.19666672   -1.00000000    4.90999985    0.23000000
   16.20000076   -1.00000000    4.90999985    0.63000000
   16.20305634   -1.00000000    4.90999985    0.64999998
   16.20639038   -1.00000000    4.90999985    0.55000001
   16.20972252   -1.00000000    4.90999985    0.79000002
   16.21277809   -1.00000000    4.90999985    0.70999998
   16.21638870   -1.00000000    4.90999985    0.69000000
   16.21944427   -1.00000000    4.90999985    0.70999998
   16.22277832   -1.00000000    4.90999985    0.75000000
   16.22611237   -1.00000000    4.90999985    0.92000002
   16.22916794   -1.00000000    4.90999985    1.11000001
   16.23944473   49.14730072    4.90999985    1.26999998
   16.24277878  431.57400513    4.90999985    1.63000000
   16.24472237  345.11300659    4.90999985    1.78999996
   16.24500084   -1.00000000    4.90999985    1.11000001
   16.24500084   49.14730072    4.90999985    1.26999998
   16.24500084  431.57400513    4.90999985    1.63000000
   16.24527740   -1.00000000    4.90999985    0.79000002
   16.24527740   -1.00000000    4.90999985    0.70999998
   16.24527740   -1.00000000    4.90999985    0.69000000
   16.24555588   -1.00000000    4.90999985    0.70999998
   16.24555588   -1.00000000    4.90999985    0.75000000
   16.24555588   -1.00000000    4.90999985    0.92000002
   16.24749947  362.30599976    4.90999985    1.89999998
   16.25083351  331.66500854    4.90999985    1.85000002
   16.25416756  210.89399719    4.90999985    1.91999996
   16.25722313  183.58500671    4.90999985    2.01999998
   16.26055527  174.97000122    4.90999985    2.15000010
   16.26555634  174.97000122    4.90999985    2.23000002
   16.26972198  135.82200623    4.90999985    2.23000002
   16.27305603  145.77299500    4.90999985    2.32999992
   16.27611160  132.86099243    4.90999985    2.34999990
   16.27861023  161.72099304    4.90999985    2.39000010
   16.28000069  143.95300293    4.90999985    2.39000010
   16.28305435  135.28500366    4.90999985    2.36999989
   16.28638840  144.76300049    4.90999985    2.30999994
   16.28972244  149.15499878    4.90999985    2.30999994
   16.29277802  138.80599976    4.90999985    2.32999992
   16.29611015  134.75500488    4.90999985    2.40000010
   16.29944420  130.58599854    4.90999985    2.46000004
   16.30249977  135.30299377    4.90999985    2.53999996
   16.30833244  135.30299377    4.90999985    2.57999992
   16.31250000  125.86799622    4.67999983    2.59999990
   16.31583214  136.76300049    4.03999996    2.61999989
   16.31916809  132.02799988    3.50000000    2.64000010
   16.32222366  127.48100281    3.16000009    2.64000010
   16.32555580  123.42199707    2.57999992    2.64000010
   16.32861137  118.27100372    2.23000002    2.66000009
   16.33194542  122.40599823    2.00000000    2.66000009
   16.33527756  117.55899811    2.00000000    2.67000008
   16.33833313  125.67600250    1.78999996    2.67000008
   16.34166718  126.95700073    1.16999996    2.67000008
   16.34500122  128.97099304    1.19000006    2.67000008
   16.34555626  121.62999725    1.23000002    2.69000006
   16.35138893  121.62999725    1.25000000    2.69000006
   16.35555649  122.53399658    0.69000000    2.67000008
   16.35861206  114.15899658    0.73000002    2.69000006
   16.36194420  127.78500366    0.94000000    2.69000006
   16.36499977  118.81900024    1.14999998    2.69000006
   16.36833382  126.90699768    1.07000005    2.67000008
   16.37166595  127.91899872    0.86000001    2.69000006
   16.37472153  121.21499634    0.83999997    2.69000006
   16.37805557  115.35600281    0.83999997    2.69000006
   16.37888908  121.12000275    0.75000000    2.69000006
   16.38166618  124.37500000    2.36999989    2.66000009
   16.38500023  129.28399658    4.90999985    2.67000008
   16.38805580  126.32199860    4.90999985    2.64000010
   16.39416695  126.32199860    4.90999985    2.42000008
   16.39833260  149.19000244    4.90999985    2.53999996
   16.40138817  176.58399963    4.90999985    2.32999992
   16.40472221   -1.00000000    4.90999985    2.25000000
   16.40805435   -1.00000000    4.90999985    1.07000005
   16.41110992   -1.00000000    4.90999985    1.46000004
   16.41472244   -1.00000000    4.90999985    1.66999996
   16.41777802   -1.00000000    4.90999985    1.44000006
   16.42111015   -1.00000000    4.90999985    0.89999998
   16.42444420   -1.00000000    4.90999985    1.21000004
   16.42749977   -1.00000000    4.90999985    0.69000000
   16.43083191   -1.00000000    4.90999985    1.00000000
   16.44111061   -1.00000000    4.90999985    0.63000000
   16.44416618   -1.00000000    4.90999985    0.98000002
   16.44555473  333.61499023    4.90999985    1.07000005
   16.44777679  188.04499817    4.90999985    1.86000001
   16.45111275  171.36099243    4.90999985    2.15000010
   16.45416832  158.03500366    4.90999985    2.11999989
   16.45750046  139.57699585    4.90999985    2.42000008
   16.46083450  139.50000000    4.90999985    2.46000004
   16.46389008  135.00599670    4.90999985    2.46000004
   16.46722221  127.52999878    4.90999985    2.51999998
   16.47055626  143.19000244    4.90999985    2.50000000
   16.47361183  133.45599365    4.90999985    2.51999998
   16.47972298  133.45599365    4.90999985    2.50000000
   16.48388863  122.10800171    4.90999985    2.64000010
   16.48722267  125.22000122    4.90999985    2.57999992
   16.49055672  126.61199951    4.90999985    2.55999994
   16.49361229  122.63300323    3.95000005    2.66000009
   16.49694443  123.40299988    3.18000007    2.64000010
   16.50000000  117.53299713    2.84999990    2.64000010
   16.50333405  119.81099701    2.46000004    2.66000009
   16.50666618  118.41699982    2.11999989    2.67000008
   16.50972176  118.62599945    1.71000004    2.67000008
   16.51222229  118.44599915    1.58000004    2.67000008
   16.51333427  124.76899719    1.55999994    2.67000008
   16.51666641  121.46299744    1.50000000    2.66000009
   16.52277756  121.46299744    1.11000001    2.67000008
   16.52694511  119.53199768    0.89999998    2.69000006
   16.53000069  116.67400360    0.76999998    2.69000006
   16.53333282  114.06600189    0.69000000    2.69000006
   16.53638840  119.22100067    0.63000000    2.69000006
   16.53972244  123.27200317    0.61000001    2.69000006
   16.54305458  117.78600311    0.61000001    2.69000006
   16.54555511  112.84600067    0.70999998    2.69000006
   16.54666710  115.14399719    0.73000002    2.69000006
   16.54999924  114.86299896    0.70999998    2.69000006
   16.55305481  118.22899628    0.69000000    2.71000004
   16.55638885  119.83300018    0.75000000    2.69000006
   16.55972099  116.35199738    0.81999999    2.69000006
   16.56555557  116.35199738    0.86000001    2.69000006
   16.56972313  118.38200378    1.03999996    2.69000006
   16.57277870  120.34600067    1.28999996    2.69000006
   16.57611275  122.33300018    1.69000006    2.67000008
   16.57888985  126.69899750    2.46000004    2.69000006
   16.57972336  126.64099884    3.09999990    2.66000009
   16.58305550  121.41200256    3.89000010    2.64000010
   16.58611107  112.52799988    4.63999987    2.64000010
   16.58944511  129.81700134    4.90999985    2.64000010
   16.59277916  136.65199280    4.90999985    2.39000010
   16.59611130  120.92400360    4.90999985    2.25000000
   16.59916687  136.69599915    4.90999985    2.53999996
   16.60250092  122.55500031    4.90999985    2.53999996
   16.60833359  122.55500031    4.90999985    2.40000010
   16.61250114  131.04899597    4.90999985    2.46000004
   16.61583328  137.33900452    4.90999985    2.48000002
   16.61888885  125.67800140    4.90999985    2.48000002
   16.62222290  129.36300659    4.90999985    2.46000004
   16.62555504  113.53199768    4.90999985    2.61999989
   16.62861061  126.10199738    4.90999985    2.61999989
   16.63194466  129.40100098    4.90999985    2.61999989
   16.63500023  125.52300262    4.90999985    2.61999989
   16.63833237  124.97599792    4.90999985    2.57999992
   16.64166641  128.91900635    4.90999985    2.55999994
   16.64472198  126.79599762    4.90999985    2.57999992
   16.64555550  118.75000000    4.90999985    2.57999992
   16.65111160  118.75000000    4.90999985    2.61999989
   16.65527725  127.19200134    4.90999985    2.61999989
   16.65861130  120.35600281    4.69999981    2.64000010
   16.66166687  130.79100037    4.23999977    2.66000009
   16.66499901  116.93499756    3.53999996    2.67000008
   16.66833305  122.66200256    3.36999989    2.66000009
   16.67166519  121.52300262    3.51999998    2.66000009
   16.67472076  124.38099670    3.34999990    2.66000009
   16.67805481  118.88600159    3.21000004    2.66000009
   16.67888832  129.21099854    3.11999989    2.66000009
   16.68166542  122.93499756    2.80999994    2.66000009
   16.68499947  124.63200378    2.55999994    2.69000006
   16.68833160  118.88500214    2.26999998    2.67000008
   16.69416618  118.88500214    2.76999998    2.67000008
   16.69805527  116.56700134    2.23000002    2.67000008
   16.70138931  120.46700287    1.96000004    2.67000008
   16.70472336  125.15200043    2.23000002    2.67000008
   16.70777893  116.42900085    2.57999992    2.67000008
   16.71111107  118.80899811    2.96000004    2.66000009
   16.71222305  118.07900238    2.96000004    2.66000009
   16.71472359  118.56700134    2.96000004    2.66000009
   16.71805573  117.22799683    2.89000010    2.66000009
   16.72138977  114.50199890    2.01999998    2.67000008
   16.72444534  120.11199951    1.91999996    2.67000008
   16.72777748  116.79100037    1.76999998    2.67000008
   16.73083305  109.05899811    1.75000000    2.67000008
   16.73694420  109.05899811    4.30999994    2.67000008
   16.74111176  115.83799744    3.11999989    2.67000008
   16.74416733  113.25900269    2.94000006    2.66000009
   16.74555588  120.52400208    3.11999989    2.67000008
   16.74777794  123.33999634    2.98000002    2.66000009
   16.75111198  123.09400177    3.51999998    2.66000009
   16.75444412  130.71200562    3.66000009    2.66000009
   16.75749969  119.05300140    3.03999996    2.67000008
   16.76083374  126.71399689    2.89000010    2.67000008
   16.76388931  116.43199921    2.71000004    2.69000006
   16.76722145  116.97799683    3.07999992    2.69000006
   16.77055550  117.09799957    3.53999996    2.69000006
   16.77361107  121.58899689    4.76000023    2.66000009
   16.77972221  121.58899689    4.90999985    2.53999996
   16.78388786  122.57099915    4.90999985    2.64000010
   16.78722191  117.57700348    4.90999985    2.67000008
   16.79027748  126.61799622    4.90999985    2.61999989
   16.79361153  121.30999756    4.90999985    2.61999989
   16.79666710  129.86000061    4.90999985    2.53999996
   16.79999924  124.18000031    4.90999985    2.53999996
   16.80333328  131.31599426    4.90999985    2.59999990
   16.80638885  150.51800537    4.90999985    2.48000002
   16.80972099  127.93699646    4.90999985    2.44000006
   16.81222153  139.03700256    4.90999985    2.50000000
   16.81333351  125.11599731    4.90999985    2.50000000
   16.81666756  135.01300049    4.90999985    2.53999996
   16.82250023  135.01300049    4.90999985    2.25000000
   16.82666779  135.74899292    4.90999985    2.46000004
   16.83000183  137.52299500    4.90999985    2.48000002
   16.83305550  153.27200317    4.90999985    2.36999989
   16.83638954  153.55999756    4.90999985    2.36999989
   16.83972359  160.59500122    4.90999985    2.32999992
   16.84277916  201.89199829    4.90999985    2.21000004
   16.84555626  369.80801392    4.90999985    2.11999989
   16.84638977  326.12100220    4.90999985    2.00000000
   16.84972191  267.94601440    4.90999985    2.07999992
   16.85305595  268.20098877    4.90999985    2.07999992
   16.85611153  300.69299316    4.90999985    2.07999992
   16.85944557   -1.00000000    4.90999985    1.85000002
   16.86555672   -1.00000000    4.90999985    1.61000001
   16.86944389   -1.00000000    4.90999985    1.66999996
   16.87277794   -1.00000000    4.90999985    1.63000000
   16.87611198   -1.00000000    4.90999985    1.13000000
   16.87944412   -1.00000000    4.90999985    0.98000002
   16.88277817   -1.00000000    4.90999985    1.03999996
   16.88583374   -1.00000000    4.90999985    0.94000000
   16.88916588   -1.00000000    4.90999985    0.92000002
   16.89222145   -1.00000000    4.90999985    0.95999998
   16.89555550   -1.00000000    4.90999985    0.98000002
   16.89888954   -1.00000000    4.90999985    0.81999999
   16.90194321   -1.00000000    4.90999985    0.76999998
   16.91222191   -1.00000000    4.90999985    0.64999998
   16.91555595   -1.00000000    4.90999985    0.70999998
   16.93527603   -1.00000000    4.90999985    0.58999997
   16.93861008   -1.00000000    4.90999985    0.61000001
   16.94166565   -1.00000000    4.90999985    0.50000000
   16.94499969   -1.00000000    4.90999985    0.50000000
   16.95527840   -1.00000000    4.90999985    0.86000001
   16.95861244   -1.00000000    4.90999985    0.56999999
   16.96194458   -1.00000000    4.90999985    0.64999998
   16.96500015   -1.00000000    4.90999985    0.56999999
   16.96833420   -1.00000000    4.90999985    0.67000002
   16.97138977   -1.00000000    4.90999985    0.70999998
   16.97472191   -1.00000000    4.90999985    0.67000002
   16.97805595   -1.00000000    4.90999985    0.86000001
   16.98139000   -1.00000000    4.90999985    1.11000001
   16.98472214   -1.00000000    4.90999985    0.63000000
   16.98777771   -1.00000000    4.90999985    0.41999999
   16.99833298   -1.00000000    4.90999985    0.76999998
   17.00138855   -1.00000000    4.90999985    0.61000001
   17.00472260   -1.00000000    4.90999985    0.41999999
   17.00777817   -1.00000000    4.90999985    0.40000001
   17.01111031   -1.00000000    4.90999985    0.40000001
   17.01472282   -1.00000000    4.90999985    0.40000001
   17.01805496   -1.00000000    4.90999985    0.38000000
   17.02111053   -1.00000000    4.90999985    0.44000000
   17.02444458   -1.00000000    4.90999985    0.46000001
   17.02777672   -1.00000000    4.90999985    0.47999999
   17.03083229   -1.00000000    4.90999985    0.63000000
   17.04111099   -1.00000000    4.90999985    1.33000004
   17.04416656   -1.00000000    4.90999985    1.46000004
   17.04777718   -1.00000000    4.90999985    1.53999996
   17.05111122   -1.00000000    4.90999985    1.58000004
   17.05416679   -1.00000000    4.90999985    1.46000004
   17.05749893   -1.00000000    4.90999985    1.23000002
   17.06083298   -1.00000000    4.90999985    1.23000002
   17.06388855   -1.00000000    4.90999985    0.88000000
   17.06722260   -1.00000000    4.90999985    1.11000001
   17.07055664  122.14600372    4.90999985    1.50000000
   17.07361221  138.26300049    4.90999985    1.69000006
   17.08388901   -1.00000000    4.90999985    1.50000000
   17.08722305  209.33599854    4.90999985    1.51999998
   17.09027863  217.57000732    4.90999985    1.98000002
   17.09361267  151.25700378    4.90999985    2.00000000
   17.09694481  161.99400330    4.90999985    2.13000011
   17.10000038  131.07899475    4.90999985    2.25000000
   17.10333443  131.97099304    4.90999985    2.30999994
   17.10639000  121.37599945    4.90999985    2.34999990
   17.10972214  113.22000122    4.90999985    2.40000010
   17.11222267  111.88899994    4.90999985    2.46000004
   17.11361122  112.03900146    4.90999985    2.48000002
   17.11666679  119.51000214    4.90999985    2.51999998
   17.12277794  119.51000214    4.90999985    2.57999992
   17.12694550  114.53600311    4.90999985    2.55999994
   17.13000107  110.99900055    4.80000019    2.61999989
   17.13333321  107.16500092    3.84999990    2.61999989
   17.13666725  108.06300354    4.42999983    2.66000009
   17.13972282  114.29699707    4.90999985    2.51999998
   17.14305496  113.94000244    4.90999985    2.46000004
   17.14555550  107.92500305    4.90999985    2.48000002
   17.14694405  110.01499939    4.90999985    2.44000006
   17.14999962  119.90200043    4.90999985    2.39000010
   17.15333366  111.61699677    4.90999985    2.46000004
   17.15638924  124.24199677    4.90999985    2.40000010
   17.15972137  122.04299927    4.90999985    2.34999990
   17.16555595  122.04299927    4.90999985    2.32999992
   17.16972160  129.91900635    4.90999985    2.28999996
   17.17305565  130.75799561    4.90999985    2.40000010
   17.17611122  121.06500244    4.90999985    2.36999989
   17.17888832  113.09400177    4.90999985    2.39000010
   17.18000031  115.44599915    4.90999985    2.36999989
   17.18305397  127.29199982    4.90999985    2.36999989
   17.18638802  134.65699768    4.90999985    2.30999994
   17.18944359  122.79199982    4.90999985    2.30999994
   17.19277763  130.16999817    4.90999985    2.28999996
   17.19610977  137.11900330    4.90999985    2.26999998
   17.19916534  136.82899475    4.90999985    2.26999998
   17.20250130  132.75700378    4.90999985    2.17000008
   17.20833397  132.75700378    4.90999985    2.11999989
   17.21250153  145.78599548    4.90999985    2.09999990
   17.21583366  176.60800171    4.90999985    2.15000010
   17.21888924  139.75900269    4.90999985    2.17000008
   17.22222328  156.20700073    4.90999985    2.23000002
   17.22555542  140.78300476    4.90999985    2.19000006
   17.22861099  160.15199280    4.90999985    2.11999989
   17.23194504  169.31399536    4.90999985    2.00000000
   17.23527718  139.62699890    4.90999985    2.23000002
   17.23833275  123.36499786    4.90999985    2.25000000
   17.24166679  128.03700256    4.90999985    2.36999989
   17.24472237  127.49500275    4.90999985    2.39000010
   17.24555588  118.62699890    4.90999985    2.36999989
   17.25138855  118.62699890    4.90999985    2.34999990
   17.25527763  131.03500366    4.90999985    2.25000000
   17.25861168  150.08200073    4.90999985    2.21000004
   17.26194382  174.47799683    4.90999985    2.15000010
   17.26499939  295.37701416    4.90999985    2.11999989
   17.26833344  176.59399414    4.90999985    1.91999996
   17.27138901  199.59399414    4.90999985    2.07999992
   17.27472115  137.43600464    4.90999985    2.17000008
   17.27805519  136.39399719    4.90999985    2.15000010
   17.27888870  140.47999573    4.90999985    2.05999994
   17.28166580  133.90699768    4.90999985    2.21000004
   17.28472137  145.88900757    4.90999985    2.21000004
   17.28805542  152.87699890    4.90999985    2.23000002
   17.29416656  152.87699890    4.90999985    2.17000008
   17.29833221  144.89900208    4.90999985    2.21000004
   17.30138779  166.39199829    4.90999985    2.17000008
   17.30472183  192.87600708    4.90999985    2.11999989
   17.30805397  160.12899780    4.90999985    1.98000002
   17.31110954  238.02600098    4.90999985    2.13000011
   17.31222153  191.19400024    4.90999985    2.07999992
   17.31499863  153.48899841    4.90999985    2.05999994
   17.31805611  154.30000305    4.90999985    2.23000002
   17.32139015  199.89300537    4.90999985    2.15000010
   17.32444572  228.03100586    4.90999985    2.00000000
   17.32777786  281.88198853    4.90999985    1.71000004
   17.33111191  262.75100708    4.90999985    1.88000000
   17.33694458  262.75100708    4.90999985    2.01999998
   17.34111214  148.91299438    4.90999985    2.03999996
   17.34416771  165.01800537    4.90999985    2.09999990
   17.34555626  165.77099609    4.90999985    2.13000011
   17.34805679  168.77699280    4.90999985    2.11999989
   17.35111237  189.79899597    4.90999985    2.07999992
   17.35444450  188.85000610    4.90999985    2.09999990
   17.35777855   65.99559784    4.90999985    1.89999998
   17.36083412   -1.00000000    4.90999985    1.55999994
   17.36416626   38.45209885    4.90999985    1.60000002
   17.36722183  298.70300293    4.90999985    1.78999996
   17.37055588  174.80799866    4.90999985    2.05999994
   17.37388992  209.57299805    4.90999985    2.19000006
   17.37972260  209.57299805    4.90999985    1.86000001
   17.38388824   58.34329987    4.90999985    1.83000004
   17.38722229   -1.00000000    4.90999985    1.89999998
   17.39027786   -1.00000000    4.90999985    1.88000000
   17.39361191   -1.00000000    4.90999985    1.89999998
   17.39694405   38.17330170    4.90999985    1.98000002
   17.39999962   -1.00000000    4.90999985    2.07999992
   17.40333366   -1.00000000    4.90999985    2.07999992
   17.40638924   -1.00000000    4.90999985    2.13000011
   17.40999985   -1.00000000    4.90999985    2.19000006
   17.41361046   -1.00000000    4.90999985    2.17000008
   17.41694450   -1.00000000    4.90999985    2.21000004
   17.42666626   -1.00000000    4.90999985    2.01999998
   17.43000031   -1.00000000    4.90999985    2.15000010
   17.43305397   -1.00000000    4.90999985    2.03999996
   17.43638802   -1.00000000    4.90999985    2.01999998
   17.43972206   -1.00000000    4.90999985    2.07999992
   17.44277763   -1.00000000    4.90999985    1.88000000
   17.44638824   -1.00000000    4.90999985    1.86000001
   17.44972038   -1.00000000    4.90999985    2.09999990
   17.45305634   -1.00000000    4.90999985    1.94000006
   17.45611191   -1.00000000    4.90999985    2.13000011
   17.45944595   -1.00000000    4.90999985    2.15000010
   17.46944427   -1.00000000    4.90999985    1.86000001
   17.47277832   -1.00000000    4.90999985    1.94000006
   17.47611237   -1.00000000    4.90999985    1.91999996
   17.47944450   -1.00000000    4.90999985    1.88000000
   17.48277855   -1.00000000    4.90999985    1.33000004
   17.48611069   -1.00000000    4.90999985    1.09000003
   17.48916626   -1.00000000    4.90999985    1.55999994
   17.49250031   -1.00000000    4.90999985    1.26999998
   17.49555588   -1.00000000    4.90999985    1.19000006
   17.49888992   -1.00000000    4.90999985    1.19000006
   17.50222206   -1.00000000    4.90999985    1.16999996
   17.51222229   -1.00000000    4.90999985    1.78999996
   17.51555634   -1.00000000    4.90999985    1.96000004
   17.51888847   -1.00000000    4.90999985    1.88000000
   17.52194405   -1.00000000    4.90999985    2.00000000
   17.52527809   -1.00000000    4.90999985    2.01999998
   17.52861023   -1.00000000    4.90999985    1.75000000
   17.53166580   -1.00000000    4.90999985    1.73000002
   17.53499985   -1.00000000    4.90999985    1.94000006
   17.53805542   -1.00000000    4.90999985    2.15000010
   17.54138756   -1.00000000    4.90999985    2.25000000
   17.54472160   -1.00000000    4.90999985    2.15000010
   17.55527687   -1.00000000    4.90999985    2.30999994
   17.55833244   -1.00000000    4.90999985    2.30999994
   17.56166649   -1.00000000    4.90999985    2.34999990
   17.56499863   -1.00000000    4.90999985    2.17000008
   17.56805611   -1.00000000    4.90999985    2.09999990
   17.57139015   -1.00000000    4.90999985    2.13000011
   17.57444572   -1.00000000    4.90999985    2.21000004
   17.57777786   -1.00000000    4.90999985    2.15000010
   17.58111191   -1.00000000    4.90999985    2.15000010
   17.58444595   -1.00000000    4.90999985    2.01999998
   17.58777809   -1.00000000    4.90999985    2.25000000
   17.59805679   -1.00000000    4.90999985    1.98000002
   17.60138893   -1.00000000    4.90999985    1.98000002
   17.60444450   -1.00000000    4.90999985    1.94000006
   17.60777855   -1.00000000    4.90999985    2.09999990
   17.61083412   -1.00000000    4.90999985    2.13000011
   17.61444473   -1.00000000    4.90999985    2.01999998
   17.61777878   -1.00000000    4.90999985    1.98000002
   17.62111092   -1.00000000    4.90999985    1.91999996
   17.62416649   -1.00000000    4.90999985    2.01999998
   17.62750053   -1.00000000    4.90999985    1.94000006
   17.63083267   -1.00000000    4.90999985    1.73000002
   17.64083290   -1.00000000    4.90999985    0.94000000
   17.64416695   -1.00000000    4.90999985    1.03999996
   17.64749908   -1.00000000    4.90999985    0.83999997
   17.65083313   -1.00000000    4.90999985    1.07000005
   17.65416718   -1.00000000    4.90999985    1.01999998
   17.65722275   -1.00000000    4.90999985    1.60000002
   17.66055489   -1.00000000    4.90999985    0.89999998
   17.66388893   -1.00000000    4.90999985    1.03999996
   17.66694450   -1.00000000    4.90999985    1.75000000
   17.67027664   -1.00000000    4.90999985    1.73000002
   17.67333221   -1.00000000    4.90999985    1.58000004
   17.68388748   -1.00000000    4.90999985    2.07999992
   17.68694305   -1.00000000    4.90999985    1.76999998
   17.69027710   -1.00000000    4.90999985    1.44000006
   17.69333267   -1.00000000    4.90999985    1.76999998
   17.69666672   -1.00000000    4.90999985    1.71000004
   17.70000076   -1.00000000    4.90999985    1.48000002
   17.70305634   -1.00000000    4.90999985    1.71000004
   17.70639038   -1.00000000    4.90999985    1.46000004
   17.70972252   -1.00000000    4.90999985    1.63000000
   17.71305656   -1.00000000    4.90999985    1.55999994
   17.71638870   -1.00000000    4.90999985    1.46000004
   17.72666740   -1.00000000    4.90999985    1.16999996
   17.72972298   -1.00000000    4.90999985    1.21000004
   17.73305511   -1.00000000    4.90999985    1.28999996
   17.73638916   -1.00000000    4.90999985    0.89999998
   17.73944473   -1.00000000    4.90999985    0.76999998
   17.74277878   -1.00000000    4.90999985    1.01999998
   17.74611092   -1.00000000    4.90999985    0.95999998
   17.74944496   -1.00000000    4.90999985    1.05999994
   17.75277710   -1.00000000    4.90999985    1.14999998
   17.75583267   -1.00000000    4.90999985    1.16999996
   17.75916672   -1.00000000    4.90999985    1.33000004
   17.76944351   -1.00000000    4.90999985    1.66999996
   17.77277756   -1.00000000    4.90999985    1.71000004
   17.77583313   -1.00000000    4.90999985    1.76999998
   17.77944374   -1.00000000    4.90999985    1.63000000
   17.78277779   -1.00000000    4.90999985    1.76999998
   17.78610992   -1.00000000    4.90999985    1.76999998
   17.78916550   -1.00000000    4.90999985    1.76999998
   17.79249954   -1.00000000    4.90999985    1.80999994
   17.79583359   -1.00000000    4.90999985    1.89999998
   17.79888916   -1.00000000    4.90999985    1.89999998
   17.80222130   -1.00000000    4.90999985    1.88000000
   17.81222153   -1.00000000    4.90999985    1.71000004
   17.81555557   -1.00000000    4.90999985    1.73000002
   17.81888962   -1.00000000    4.90999985    1.83000004
   17.82194519   -1.00000000    4.90999985    1.88000000
   17.82527924   -1.00000000    4.90999985    1.91999996
   17.82833481   -1.00000000    4.90999985    1.86000001
   17.83166695  115.09100342    4.90999985    1.88000000
   17.83500099   86.73020172    4.90999985    1.86000001
   17.83805656   49.74679947    4.90999985    1.76999998
   17.84138870  109.28299713    4.90999985    1.80999994
   17.84472275   54.40150070    4.90999985    1.96000004
   17.85111237   -1.00000000    4.90999985    1.63000000
   17.85527802  144.88099670    4.90999985    1.78999996
   17.85833359  121.66600037    4.90999985    1.88000000
   17.86166763  114.32800293    4.90999985    1.98000002
   17.86499977   -1.00000000    4.90999985    1.89999998
   17.86805534   -1.00000000    4.90999985    1.53999996
   17.87138939   -1.00000000    4.90999985    1.63000000
   17.87472153  107.60199738    4.90999985    1.80999994
   17.87777710  113.83300018    4.90999985    1.88000000
   17.87888908   40.09600067    4.90999985    1.88000000
   17.88138962   -1.00000000    4.90999985    1.73000002
   17.88472176   -1.00000000    4.90999985    1.55999994
   17.88777733   -1.00000000    4.90999985    1.36000001
   17.89805603   -1.00000000    4.90999985    0.94000000
   17.90111160   -1.00000000    4.90999985    0.76999998
   17.90444374   -1.00000000    4.90999985    0.52999997
   17.90777779   -1.00000000    4.90999985    0.69000000
   17.91083336   -1.00000000    4.90999985    0.63000000
   17.91444397   -1.00000000    4.90999985    0.67000002
   17.91749954   -1.00000000    4.90999985    0.67000002
   17.92083359   -1.00000000    4.90999985    0.67000002
   17.92388916   -1.00000000    4.90999985    0.95999998
   17.92722130   -1.00000000    4.90999985    1.01999998
   17.93055534   -1.00000000    4.90999985    1.01999998
   17.95722389   -1.00000000    4.90999985    1.38000000
   17.96055603   -1.00000000    4.90999985    1.46000004
   17.96361160   -1.00000000    4.90999985    1.48000002
   17.96694565   -1.00000000    4.90999985    1.50000000
   17.97000122   -1.00000000    4.90999985    1.58000004
   17.97333336   -1.00000000    4.90999985    1.60000002
   17.97666740   -1.00000000    4.90999985    1.63000000
   17.97972298   -1.00000000    4.90999985    1.61000001
   17.98305511   -1.00000000    4.90999985    1.61000001
   17.98666763   -1.00000000    4.90999985    1.58000004
   17.98972321   -1.00000000    4.90999985    1.58000004
   17.99583435   -1.00000000    4.90999985    1.58000004
   18.00000000   27.44300079    4.90999985    1.69000006
   18.00333405   -1.00000000    4.90999985    1.66999996
   18.00638962   -1.00000000    4.90999985    1.51999998
   18.00972176   -1.00000000    4.90999985    1.63000000
   18.01305580   -1.00000000    4.90999985    1.63000000
   18.01611137   -1.00000000    4.90999985    1.36000001
   18.01972198   -1.00000000    4.90999985    1.30999994
   18.02277756   -1.00000000    4.90999985    1.34000003
   18.02611160   -1.00000000    4.90999985    1.11000001
   18.02916718   -1.00000000    4.90999985    1.26999998
   18.03249931   -1.00000000    4.90999985    1.26999998
   18.04277802   -1.00000000    4.90999985    1.03999996
   18.04611015   -1.00000000    4.90999985    1.13000000
   18.04916573   -1.00000000    4.90999985    1.07000005
   18.05277634   -1.00000000    4.90999985    0.98000002
   18.05611038   -1.00000000    4.90999985    0.89999998
   18.05944443   -1.00000000    4.90999985    0.86000001
   18.06250000   -1.00000000    4.90999985    0.76999998
   18.06583214   -1.00000000    4.90999985    0.76999998
   18.06888962   -1.00000000    4.90999985    0.76999998
   18.07222366   -1.00000000    4.90999985    0.81999999
   18.07555580   -1.00000000    4.90999985    0.76999998
   18.08555603   -1.00000000    4.90999985    0.52999997
   18.08889008   -1.00000000    4.90999985    0.58999997
   18.09222221   -1.00000000    4.90999985    0.61000001
   18.09527779   -1.00000000    4.90999985    0.56999999
   18.09861183   -1.00000000    4.90999985    0.75000000
   18.10166740   -1.00000000    4.90999985    0.73000002
   18.10499954   -1.00000000    4.90999985    0.75000000
   18.10833359   -1.00000000    4.90999985    0.76999998
   18.11138916   -1.00000000    4.90999985    0.79000002
   18.11472321   -1.00000000    4.90999985    0.76999998
   18.11805534   -1.00000000    4.90999985    0.75000000
   18.12833405   -1.00000000    4.90999985    0.73000002
   18.13166618   -1.00000000    4.90999985    0.69000000
   18.13500023   -1.00000000    4.90999985    0.67000002
   18.13805580   -1.00000000    4.90999985    0.61000001
   18.14138794   -1.00000000    4.90999985    0.58999997
   18.14472198   -1.00000000    4.90999985    0.56999999
   18.14777756   -1.00000000    4.90999985    0.61000001
   18.15138817   -1.00000000    4.90999985    0.64999998
   18.15472221   -1.00000000    4.90999985    0.73000002
   18.15805435   -1.00000000    4.90999985    0.64999998
   18.16110992   -1.00000000    4.90999985    0.63000000
   18.16722107   -1.00000000    4.90999985    1.09000003
   18.17138863   -1.00000000    4.90999985    1.39999998
   18.17472076   -1.00000000    4.90999985    1.55999994
   18.17777634   -1.00000000    4.90999985    1.61000001
   18.18111038   -1.00000000    4.90999985    1.63000000
   18.18444443   -1.00000000    4.90999985    1.44000006
   18.18777657   73.75399780    4.90999985    1.78999996
   18.19111061  163.48800659    4.90999985    1.85000002
   18.19416618  164.30999756    4.90999985    2.03999996
   18.19749832  140.77000427    4.90999985    2.17000008
   18.20055580  124.53900146    4.90999985    2.13000011
   18.20388985  124.84600067    4.90999985    2.23000002
   18.21000099  124.84600067    4.90999985    2.23000002
   18.21416664  128.08299255    4.90999985    2.36999989
   18.21750069  124.50299835    4.90999985    2.36999989
   18.21805573  123.59600067    4.90999985    2.26999998
   18.22111130  133.70199585    4.90999985    2.26999998
   18.22444534  147.41400146    4.90999985    2.25000000
   18.22777748  169.23300171    4.90999985    2.17000008
   18.23083305   -1.00000000    4.90999985    2.03999996
   18.23416710   -1.00000000    4.90999985    1.60000002
   18.23722267   -1.00000000    4.90999985    1.30999994
   18.24055672   -1.00000000    4.90999985    1.16999996
   18.24388885   -1.00000000    4.90999985    1.21000004
   18.24694443  191.51800537    4.90999985    1.53999996
   18.25305557  191.51800537    4.90999985    2.25000000
   18.25722313  112.42099762    4.90999985    2.40000010
   18.26027870  111.89600372    4.90999985    2.42000008
   18.26361084  117.13099670    4.90999985    2.40000010
   18.26666641  101.13899994    4.90999985    2.44000006
   18.27000046  112.03600311    4.90999985    2.42000008
   18.27333260  163.70899963    4.90999985    2.34999990
   18.27638817  153.76699829    4.90999985    2.01999998
   18.27972221  117.64900208    4.90999985    2.23000002
   18.28305435  105.07599640    4.90999985    2.26999998
   18.28416634  125.21299744    4.90999985    2.34999990
   18.28666687  120.90299988    4.90999985    2.30999994
   18.28972244  137.06900024    4.90999985    2.36999989
   18.29583359  137.06900024    4.90999985    2.32999992
   18.29999924  119.75700378    4.90999985    2.30999994
   18.30305481  123.52799988    4.90999985    2.32999992
   18.30638885  114.59300232    4.90999985    2.30999994
   18.30972099  125.16300201    4.90999985    2.34999990
   18.31277657  241.48699951    4.90999985    2.21000004
   18.31611061  155.84899902    4.90999985    2.03999996
   18.31750107  137.57499695    4.90999985    2.11999989
   18.31972313  130.03700256    4.90999985    2.17000008
   18.32277870   -1.00000000    4.90999985    2.17000008
   18.32611275   61.88619995    4.90999985    1.73000002
   18.32944489  125.25599670    4.90999985    1.86000001
   18.33250046   -1.00000000    4.90999985    1.86000001
   18.33861160   -1.00000000    4.90999985    2.01999998
   18.34277916   96.07810211    4.90999985    2.01999998
   18.34611130  252.33099365    4.90999985    1.75000000
   18.34916687  160.10200500    4.90999985    2.01999998
   18.35111237  134.34199524    4.90999985    2.19000006
   18.35305595  159.60499573    4.90999985    2.28999996
   18.35611153  159.47700500    4.90999985    2.00000000
   18.35944557  295.92800903    4.90999985    2.26999998
   18.36250114  208.01100159    4.90999985    2.05999994
   18.36583328  170.80000305    4.90999985    2.03999996
   18.36916733   -1.00000000   -1.00000000   -1.00000000
   18.37222290  122.72299957    4.90999985    1.78999996
   18.37555504  258.13500977    4.90999985    1.85000002
   18.38138962  258.13500977    4.90999985    1.96000004
   18.38555527  238.37100220    4.90999985    1.86000001
   18.38888931  260.05899048    4.90999985    1.78999996
   18.39222145  157.61099243    4.90999985    1.96000004
   18.39527702  239.62100220    4.90999985    1.85000002
   18.39861107  208.51800537    4.90999985    2.00000000
   18.40194321  155.24400330    4.90999985    2.01999998
   18.40499878  152.56199646    4.90999985    2.07999992
   18.40833282  149.99400330    4.90999985    2.11999989
   18.41138840  126.88600159    4.90999985    2.26999998
   18.41472244  118.00599670    4.90999985    2.23000002
   18.41777802  115.71600342    4.90999985    2.25000000
   18.41833305  120.97200012    4.90999985    2.30999994
   18.42444420  120.97200012    4.90999985    2.28999996
   18.42860985  124.02600098    4.90999985    2.32999992
   18.43166542  123.81300354    4.90999985    2.26999998
   18.43499947  110.19599915    4.90999985    2.36999989
   18.43805504  114.88899994    4.90999985    2.40000010
   18.44138718  112.12100220    4.90999985    2.50000000
   18.44472122  115.88500214    4.90999985    2.46000004
   18.44861031  125.57599640    4.90999985    2.36999989
   18.45166779  115.31099701    4.90999985    2.28999996
   18.45222282  107.01000214    4.90999985    2.34999990
   18.45527840  117.13099670    4.90999985    2.46000004
   18.45861244  106.43399811    4.90999985    2.46000004
   18.46194458  111.58999634    4.90999985    2.51999998
   18.46777916  111.58999634    4.90999985    2.44000006
   18.47194481  104.04299927    4.90999985    2.57999992
   18.47527885  114.36699677    4.90999985    2.57999992
   18.47833443  109.56099701    4.90999985    2.55999994
   18.48166656  111.79599762    4.90999985    2.55999994
   18.48500061  102.95400238    4.90999985    2.55999994
   18.48555565  100.68199921    4.90999985    2.55999994
   18.48861122  105.65000153    4.61999989    2.59999990
   18.49194527  109.98100281    3.57999992    2.59999990
   18.49527740  103.48600006    3.50000000    2.59999990
   18.49833298  109.22699738    3.32999992    2.59999990
   18.50166702  107.60299683    2.98000002    2.61999989
   18.50472260  110.10600281    2.86999989    2.61999989
   18.51055527  110.10600281    3.01999998    2.61999989
   18.51472282  103.07199860    2.30999994    2.59999990
   18.51805496  104.26599884    2.07999992    2.61999989
   18.51888847   96.32460022    2.09999990    2.59999990
   18.52166557  114.32199860    2.09999990    2.61999989
   18.52499962  104.03700256    2.01999998    2.64000010
   18.52805519  111.00499725    2.03999996    2.61999989
   18.53083229  105.23200226    2.26999998    2.64000010
   18.53388786  112.79000092    2.44000006    2.59999990
   18.53722191  100.84400177    2.82999992    2.61999989
   18.54055595  103.63899994    3.00000000    2.61999989
   18.54361153  106.61299896    2.84999990    2.61999989
   18.54694366  102.38800049    3.05999994    2.61999989
   18.55277634  102.38800049    2.73000002    2.61999989
   18.55694389  108.77799988    2.80999994    2.59999990
   18.56027794  104.63999939    2.82999992    2.59999990
   18.56361008  100.70200348    2.98000002    2.61999989
   18.56666756  104.27999878    2.94000006    2.61999989
   18.57000160  104.32900238    2.76999998    2.59999990
   18.57305717  108.54499817    2.84999990    2.61999989
   18.57638931  102.63700104    2.94000006    2.61999989
   18.57972336  104.61399841    3.00000000    2.61999989
   18.58277893  102.90899658    3.09999990    2.59999990
   18.58472252   99.95230103    3.20000005    2.59999990
   18.58638954   98.03420258    3.25000000    2.59999990
   18.58972359  107.53900146    3.26999998    2.59999990
   18.59583473  107.53900146    3.51999998    2.59999990
   18.60000038  107.51000214    3.80999994    2.59999990
   18.60305595  109.43599701    3.95000005    2.59999990
   18.60639000  110.68299866    3.57999992    2.59999990
   18.60944557  114.93699646    3.59999990    2.57999992
   18.61277771  107.04100037    4.07999992    2.57999992
   18.61611176  104.11499786    4.59999990    2.55999994
   18.61805534  110.91200256    4.90999985    2.55999994
   18.61972237  101.85900116    4.90999985    2.55999994
   18.62305641  101.58300018    4.90999985    2.55999994
   18.62611198  106.87999725    4.90999985    2.53999996
   18.62944412  111.38800049    4.90999985    2.53999996
   18.63249969  114.68599701    4.90999985    2.53999996
   18.63861084  114.68599701    4.90999985    2.55999994
   18.64277840  104.07399750    4.90999985    2.55999994
   18.64583397  111.37000275    4.90999985    2.55999994
   18.64916611  115.09899902    4.90999985    2.53999996
   18.65138817  106.65899658    4.90999985    2.51999998
   18.65277672  105.82599640    4.90999985    2.53999996
   18.65611076  111.47200012    4.90999985    2.53999996
   18.65916634  110.15100098    4.90999985    2.57999992
   18.66250038  105.28600311    4.90999985    2.55999994
   18.66555595  109.08899689    4.90999985    2.55999994
   18.66888809  106.96900177    4.82999992    2.57999992
   18.67222214  105.41100311    4.90999985    2.57999992
   18.67527771  101.79199982    4.90999985    2.57999992
   18.68138885  101.79199982    4.51000023    2.57999992
   18.68555450  106.43699646    4.34999990    2.57999992
   18.68888855  108.83799744    4.36999989    2.57999992
   18.69194412  107.28800201    4.34999990    2.59999990
   18.69527626  102.67900085    4.57999992    2.59999990
   18.69833183  109.38200378    4.90999985    2.55999994
   18.70166779  111.44599915    4.90999985    2.48000002
   18.70499992  103.25299835    4.90999985    2.50000000
   18.70805550  108.72799683    4.90999985    2.48000002
   18.71138954  108.35600281    4.90999985    2.48000002
   18.71472359  111.87200165    4.90999985    2.46000004
   18.71777916  110.60800171    4.90999985    2.46000004
   18.71833420  108.83300018    4.90999985    2.46000004
   18.72416687  108.83300018    4.90999985    2.48000002
   18.72833443  115.52400208    4.90999985    2.42000008
   18.73166656  113.03199768    4.90999985    2.42000008
   18.73472214  118.88400269    4.90999985    2.39000010
   18.73805618  121.37200165    4.90999985    2.36999989
   18.74138832  122.48999786    4.90999985    2.36999989
   18.74472237  123.16899872    4.90999985    2.30999994
   18.74777794  127.00000000    4.90999985    2.32999992
   18.75111198  114.79699707    4.90999985    2.36999989
   18.75166702  115.80500031    4.90999985    2.39000010
   18.75472260  126.72499847    4.90999985    2.36999989
   18.75777817  126.10800171    4.90999985    2.30999994
   18.76111031  123.29799652    4.90999985    2.36999989
   18.76722145  123.29799652    4.90999985    2.32999992
   18.77111053  121.55100250    4.90999985    2.34999990
   18.77444458  118.12000275    4.90999985    2.39000010
   18.77777672  113.42299652    4.90999985    2.40000010
   18.78083229  115.31400299    4.90999985    2.39000010
   18.78416634  114.84200287    4.90999985    2.39000010
   18.78499985  127.01999664    4.90999985    2.40000010
   18.78777695  119.20600128    4.90999985    2.39000010
   18.79083252  115.21399689    4.90999985    2.39000010
   18.79416656  111.46099854    4.90999985    2.39000010
   18.79749870  123.90399933    4.90999985    2.39000010
   18.80055428  117.84600067    4.90999985    2.40000010
   18.80388832  111.04499817    4.90999985    2.48000002
   18.80999947  111.04499817    4.90999985    2.44000006
   18.81416512  121.19300079    4.90999985    2.48000002
   18.81722260  109.66600037    4.90999985    2.46000004
   18.81833458  116.11499786    4.90999985    2.46000004
   18.82111168  109.58699799    4.90999985    2.48000002
   18.82416725  111.88300323    4.90999985    2.48000002
   18.82750130  119.36699677    4.90999985    2.48000002
   18.83083344  111.10700226    4.90999985    2.50000000
   18.83388901  114.01899719    4.90999985    2.51999998
   18.83722305  112.34899902    4.90999985    2.51999998
   18.84027863  110.48999786    4.90999985    2.55999994
   18.84361267  109.66899872    4.90999985    2.55999994
   18.84694481  109.64700317    4.90999985    2.55999994
   18.85277748  109.64700317    4.38999987    2.55999994
   18.85694504   94.55370331    3.86999989    2.57999992
   18.86000061  110.27700043    3.61999989    2.57999992
   18.86333466  110.70300293    3.20000005    2.57999992
   18.86666679  105.88700104    2.69000006    2.57999992
   18.86972237  106.32199860    2.34999990    2.61999989
   18.87305641  104.66999817    1.98000002    2.59999990
   18.87638855  104.12300110    1.38000000    2.61999989
   18.87944412  104.07700348    1.30999994    2.59999990
   18.88277817  104.19899750    1.38000000    2.59999990
   18.88500023  106.79599762    1.80999994    2.57999992
   18.88638878  103.22200012    2.01999998    2.59999990
   18.88944435  106.57599640    1.98000002    2.59999990
   18.89555550  106.57599640    1.75000000    2.57999992
   18.89972115  108.88700104    1.58000004    2.59999990
   18.90305519  107.30599976    1.58000004    2.59999990
   18.90611076  105.28500366    1.58000004    2.59999990
   18.90944481  110.69000244    1.60000002    2.59999990
   18.91277695  106.62999725    2.21000004    2.59999990
   18.91583252  102.15200043    2.05999994    2.59999990
   18.91833305  105.49800110    1.75000000    2.59999990
   18.91972160  105.54599762    1.75000000    2.59999990
   18.92277718  107.97200012    1.63000000    2.61999989
   18.92611122  107.62999725    1.80999994    2.59999990
   18.92944336  106.31700134    1.83000004    2.59999990
   18.93249893  101.70600128    1.80999994    2.59999990
   18.93861008  101.70600128    1.64999998    2.59999990
   18.94249916  111.75700378    1.61000001    2.59999990
   18.94583321  121.60399628    1.53999996    2.59999990
   18.94944382  110.21900177    1.39999998    2.57999992
   18.96694565  101.30300140    2.36999989    2.55999994
   18.96916771   94.66899872    2.61999989    2.55999994
   18.97249985   96.97799683    2.61999989    2.55999994
   18.97583389  100.15399933    2.42000008    2.57999992
   18.98166656  100.15399933    3.32999992    2.53999996
   18.98583412  109.08100128    4.23999977    2.51999998
   18.98916626  106.12500000    4.44999981    2.51999998
   18.99250031  105.97699738    4.21999979    2.51999998
   18.99555588  104.48899841    4.13999987    2.53999996
   18.99888992  104.57800293    3.46000004    2.57999992
   19.00000000  102.86199951    3.23000002    2.57999992
   19.00250053   98.82679749    2.80999994    2.57999992
   19.00583267  109.16600037    2.05999994    2.57999992
   19.00916672  105.45899963    2.03999996    2.57999992
   19.01222229  111.59500122    2.01999998    2.57999992
   19.01555634  103.03900146    2.03999996    2.57999992
   19.01861000   99.70069885    2.00000000    2.55999994
   19.02472115   99.70069885    1.86000001    2.59999990
   19.02861023   95.56700134    1.86000001    2.59999990
   19.03166580   98.38120270    1.94000006    2.57999992
   19.03305435   99.39769745    1.94000006    2.57999992
   19.03527641   94.25019836    1.94000006    2.57999992
   19.03861046   98.00219727    1.89999998    2.57999992
   19.04166603   99.96119690    1.88000000    2.55999994
   19.04500008   94.72550201    1.85000002    2.55999994
   19.04833221  104.22000122    1.91999996    2.59999990
   19.05138779   97.48459625    1.86000001    2.57999992
   19.05472183   98.16660309    2.00000000    2.57999992
   19.05777740  100.98000336    1.98000002    2.57999992
   19.06110954   94.37789917    1.41999996    2.57999992
   19.06722260   94.37789917    1.44000006    2.57999992
   19.07139015  100.01300049    1.51999998    2.59999990
   19.07444572   98.62740326    1.51999998    2.59999990
   19.07777786   98.49880219    1.55999994    2.57999992
   19.08111191  103.76999664    1.50000000    2.57999992
   19.08416748   98.98979950    1.76999998    2.59999990
   19.08750153  101.36399841    2.19000006    2.57999992
   19.09055710  101.82199860    2.44000006    2.55999994
   19.09388924  102.31300354    1.89999998    2.57999992
   19.09722328  104.70999908    1.36000001    2.57999992
   19.10000038   97.91649628    1.33000004    2.59999990
   19.10083389  101.37999725    1.33000004    2.59999990
   19.10416794   98.04750061    1.38000000    2.57999992
   19.11000061   98.04750061    1.39999998    2.57999992
   19.11416626  100.59799957    1.26999998    2.57999992
   19.11750031  101.55500031    1.26999998    2.57999992
   19.12055588   96.53369904    1.25000000    2.59999990
   19.12388992  105.06099701    1.25000000    2.57999992
   19.12694550   94.83200073    1.25000000    2.57999992
   19.13027763   97.82080078    1.21000004    2.57999992
   19.13333321   98.58999634    1.21000004    2.57999992
   19.13388824  103.59899902    1.21000004    2.57999992
   19.13722229  100.56300354    1.19000006    2.57999992
   19.14055634   93.97609711    1.19000006    2.57999992
   19.14361191  100.50000000    1.16999996    2.57999992
   19.14694405  100.84100342    1.16999996    2.57999992
   19.15277672  100.84100342    1.14999998    2.57999992
   19.15694427  103.82099915    1.16999996    2.59999990
   19.16027832  102.19499969    1.13000000    2.57999992
   19.16333389  105.67800140    1.09000003    2.57999992
   19.16666603  106.10399628    1.07000005    2.57999992
   19.16694450  108.25000000    1.07000005    2.57999992
   19.17027664  108.55899811    1.07000005    2.57999992
   19.17361069  106.81199646    1.07000005    2.57999992
   19.17666626  113.58300018    1.07000005    2.57999992
   19.18000031  106.64800262    1.09000003    2.57999992
   19.18333244  107.65799713    1.09000003    2.57999992
   19.18638802  109.42700195    1.13000000    2.57999992
   19.18972206  103.98899841    1.14999998    2.57999992
   19.19583321  103.98899841    1.09000003    2.57999992
   19.20000076  102.48400116    1.21000004    2.55999994
   19.20027924  104.00900269    1.21000004    2.55999994
   19.20361137  108.63500214    1.21000004    2.57999992
   19.20666695  103.95800018    1.21000004    2.55999994
   19.21000099  103.81400299    1.16999996    2.57999992
   19.21333504  105.61499786    1.16999996    2.57999992
   19.21666718  103.41699982    1.21000004    2.55999994
   19.21972275  101.16699982    1.19000006    2.57999992
   19.22305679  108.31300354    1.19000006    2.57999992
   19.22638893  106.43599701    1.21000004    2.57999992
   19.22944450  100.68900299    1.16999996    2.57999992
   19.23277855  103.13999939    1.13000000    2.55999994
   19.23333359   99.69259644    1.13000000    2.55999994
   19.23861122   99.69259644    1.07000005    2.55999994
   19.24277878  103.28500366    1.11000001    2.57999992
   19.24583435   99.40129852    1.07000005    2.55999994
   19.24916649  101.77899933    1.01999998    2.57999992
   19.25250053  101.56500244    1.01999998    2.57999992
   19.25555611  105.03299713    1.03999996    2.57999992
   19.25888824  107.19699860    1.01999998    2.57999992
   19.26194382  107.59200287    0.98000002    2.55999994
   19.26527786  105.88600159    0.98000002    2.57999992
   19.26666641  102.76599884    0.98000002    2.57999992
   19.26888847  109.65299988    0.98000002    2.57999992
   19.27222252  103.82299805    0.95999998    2.55999994
   19.27555466  102.66300201    0.98000002    2.55999994
   19.28138924  102.66300201    1.01999998    2.55999994
   19.28555489  104.77600098    1.01999998    2.55999994
   19.28888893  113.62100220    1.01999998    2.55999994
   19.29194450  106.56700134    1.05999994    2.55999994
   19.29527664  104.82700348    1.05999994    2.55999994
   19.29833221  107.65000153    1.09000003    2.55999994
   19.29999924  108.70700073    1.09000003    2.55999994
   19.30194283  102.83599854    1.14999998    2.57999992
   19.30527687  103.72100067    1.14999998    2.55999994
   19.30861092  108.10500336    1.11000001    2.55999994
   19.31194305  107.24099731    1.09000003    2.55999994
   19.31499863  103.66000366    1.09000003    2.55999994
   19.31833458  109.35099792    1.11000001    2.55999994
   19.32416725  109.35099792    1.21000004    2.55999994
   19.32833481  112.28600311    1.23000002    2.55999994
   19.33166695  107.25399780    1.25000000    2.55999994
   19.33333397  112.71399689    1.23000002    2.55999994
   19.33527756  106.11100006    1.23000002    2.55999994
   19.33861160  105.92199707    1.28999996    2.55999994
   19.34194565  107.48500061    1.23000002    2.55999994
   19.34500122  105.65699768    1.23000002    2.55999994
   19.34833336  114.45700073    1.21000004    2.55999994
   19.35138893  112.11000061    1.21000004    2.55999994
   19.35472298  101.34400177    1.19000006    2.55999994
   19.35805511  113.61599731    1.19000006    2.55999994
   19.36111069  110.70400238    1.16999996    2.55999994
   19.36722183  110.70400238    1.14999998    2.55999994
   19.37138939  112.48999786    1.16999996    2.55999994
   19.37444496  104.50800323    1.19000006    2.57999992
   19.37777710  103.58499908    1.19000006    2.57999992
   19.38083267  105.75399780    1.16999996    2.55999994
   19.38416672  108.77899933    1.13000000    2.55999994
   19.38750076  107.79799652    1.13000000    2.55999994
   19.39055634  112.62200165    1.16999996    2.55999994
   19.39388847  111.66899872    1.16999996    2.55999994
   19.39722252  113.00800323    1.13000000    2.55999994
   19.39999962  111.81800079    1.14999998    2.55999994
   19.40055466  106.24600220    1.14999998    2.55999994
   19.40388870  110.79799652    1.13000000    2.53999996
   19.40999985  110.79799652    1.11000001    2.53999996
   19.41416550  108.07299805    1.09000003    2.53999996
   19.41722107  110.17299652    1.09000003    2.53999996
   19.42055511  112.40699768    1.09000003    2.53999996
   19.42388916  108.90000153    1.09000003    2.53999996
   19.42694473  112.75399780    1.05999994    2.55999994
   19.43027687  104.56700134    1.03999996    2.55999994
   19.43333244  111.67099762    1.03999996    2.55999994
   19.43388748  110.19400024    1.03999996    2.55999994
   19.43722153  113.56500244    1.03999996    2.55999994
   19.44055557  111.26599884    1.13000000    2.53999996
   19.44361115  107.59700012    1.13000000    2.53999996
   19.44694328  118.27899933    1.13000000    2.53999996
   19.45277786  118.27899933    1.07000005    2.55999994
   19.45694542  107.01899719    1.03999996    2.53999996
   19.46027946  110.33799744    1.61000001    2.53999996
   19.46333504  112.15299988    1.61000001    2.53999996
   19.46666718  107.01999664    1.05999994    2.53999996
   19.46694565  108.45300293    3.57999992    2.53999996
   19.47027779  124.73999786    1.63000000    2.51999998
   19.47361183  116.12999725    4.51000023    2.46000004
   19.47666740  111.86299896    2.36999989    2.53999996
   19.48000145  112.16400146    2.34999990    2.53999996
   19.48333359  110.20400238    2.11999989    2.53999996
   19.48638916  110.99299622    1.39999998    2.50000000
   19.48972321  111.32499695    1.61000001    2.51999998
   19.49555588  111.32499695    1.75000000    2.53999996
   19.49972153  114.01899719    2.30999994    2.53999996
   19.50027847  109.77700043    2.30999994    2.53999996
   19.50361061  109.80999756    2.89000010    2.51999998
   19.50694466  112.70800018    3.00000000    2.51999998
   19.51000023  110.82399750    2.84999990    2.51999998
   19.51333427  105.14700317    2.40000010    2.51999998
   19.51638794  114.66999817    2.46000004    2.51999998
   19.51972198  111.84799957    2.48000002    2.51999998
   19.52305603  113.90599823    2.67000008    2.51999998
   19.52611160  118.18299866    2.42000008    2.51999998
   19.52944374  110.28800201    2.51999998    2.51999998
   19.53277779  117.49199677    2.50000000    2.51999998
   19.53361130  109.03299713    2.55999994    2.51999998
   19.53861046  109.03299713    2.42000008    2.51999998
   19.54249954  110.35900116    2.50000000    2.51999998
   19.54583359  115.17099762    2.57999992    2.51999998
   19.54916573  114.54699707    2.59999990    2.51999998
   19.55222130  113.58100128    2.36999989    2.50000000
   19.55555534  107.60600281    2.30999994    2.50000000
   19.55888748  109.44200134    2.28999996    2.51999998
   19.56194305  110.60800171    2.19000006    2.51999998
   19.56527710  107.53900146    2.09999990    2.51999998
   19.56694603  107.45300293    2.09999990    2.51999998
   19.56888962  114.92400360    2.01999998    2.51999998
   19.57194519  118.55699921    1.94000006    2.51999998
   19.57527924  112.64499664    1.86000001    2.51999998
   19.58139038  112.64499664    1.78999996    2.51999998
   19.58555603  114.53399658    1.78999996    2.51999998
   19.58861160  112.23999786    1.78999996    2.50000000
   19.59194565  113.87500000    1.83000004    2.50000000
   19.59527779  114.94000244    1.86000001    2.51999998
   19.59833336  109.82499695    1.85000002    2.51999998
   19.60027885  114.84899902    1.83000004    2.51999998
   19.60222244  114.06900024    1.83000004    2.51999998
   19.60527802  110.26699829    1.85000002    2.51999998
   19.60861206  111.14600372    2.09999990    2.51999998
   19.61194420  115.83200073    2.11999989    2.50000000
   19.61499977  118.30300140    2.09999990    2.50000000
   19.61833382  117.45099640    2.11999989    2.50000000
   19.62416649  117.45099640    2.13000011    2.50000000
   19.62833405  116.24900055    2.21000004    2.50000000
   19.63138962  120.05100250    2.19000006    2.50000000
   19.63361168  116.71900177    2.25000000    2.51999998
   19.63527679  108.74700165    2.28999996    2.50000000
   19.63833237  110.73899841    2.39000010    2.50000000
   19.64166641  116.37200165    2.40000010    2.51999998
   19.64500046  113.41600037    2.28999996    2.51999998
   19.64805603  110.52200317    2.28999996    2.50000000
   19.65138817  111.62699890    2.42000008    2.50000000
   19.65472221  112.89299774    2.30999994    2.50000000
   19.65777779  106.74299622    2.28999996    2.50000000
   19.66110992  107.04599762    2.34999990    2.50000000
   19.66694450  107.04599762    2.44000006    2.50000000
   19.67111015  119.30100250    2.51999998    2.50000000
   19.67444420  115.86199951    2.50000000    2.50000000
   19.67749977  115.66699982    2.40000010    2.50000000
   19.68083191  110.97000122    2.32999992    2.50000000
   19.68416595  120.96800232    2.19000006    2.50000000
   19.68722153  112.08300018    2.15000010    2.50000000
   19.69055557  115.63800049    2.17000008    2.50000000
   19.69361115  123.88200378    2.17000008    2.50000000
   19.69694328  120.98400116    2.17000008    2.50000000
   19.70027924  114.95099640    2.26999998    2.50000000
   19.70194435  122.29900360    2.32999992    2.50000000
   19.70388985  119.49800110    2.30999994    2.48000002
   19.71000099  119.49800110    2.28999996    2.50000000
   19.71389008  109.13200378    2.34999990    2.50000000
   19.71722221  115.20500183    2.40000010    2.50000000
   19.72055626  115.08899689    2.46000004    2.48000002
   19.72361183  115.03099823    2.50000000    2.50000000
   19.72694588  115.13700104    2.50000000    2.48000002
   19.73000145  114.62899780    2.48000002    2.48000002
   19.73333359  117.10199738    2.40000010    2.48000002
   19.73527718  117.79499817    2.30999994    2.50000000
   19.73694420  111.91999817    2.23000002    2.48000002
   19.74027824  112.27899933    2.11999989    2.48000002
   19.74333382  118.39099884    2.09999990    2.50000000
   19.74666786  114.83499908    2.01999998    2.50000000
   19.75277710  114.83499908    1.98000002    2.50000000
   19.75694466  115.14900208    1.98000002    2.50000000
   19.76000023  115.16500092    1.98000002    2.50000000
   19.76333427  112.13300323    3.20000005    2.48000002
   19.76638794  118.73699951    2.39000010    2.48000002
   19.76888847  118.33000183    2.23000002    2.48000002
   19.77027702  116.62400055    2.40000010    2.50000000
   19.77333260  116.97799683    2.50000000    2.48000002
   19.77666664  116.96099854    1.78999996    2.50000000
   19.78000069  116.42500305    1.71000004    2.48000002
   19.78305435  119.21399689    1.66999996    2.48000002
   19.78638840  108.90000153    1.71000004    2.48000002
   19.78972244  106.77300262    1.71000004    2.50000000
   19.79555511  106.77300262    1.85000002    2.48000002
   19.79972076  114.14900208    1.86000001    2.48000002
   19.80222130  114.77400208    2.00000000    2.48000002
   19.80333328  115.40499878    2.03999996    2.48000002
   19.80638885  120.67299652    2.28999996    2.48000002
   19.80972099  108.12599945    2.39000010    2.48000002
   19.81305504  116.08599854    2.53999996    2.46000004
   19.81611061  119.98699951    2.80999994    2.48000002
   19.81944466  113.53399658    2.51999998    2.48000002
   19.82277870  112.45400238    2.44000006    2.46000004
   19.82583427  110.42700195    2.42000008    2.46000004
   19.82916832  113.74099731    2.25000000    2.48000002
   19.83222389  112.61799622    2.17000008    2.46000004
   19.83833313  112.61799622    2.03999996    2.46000004
   19.84250069  111.06600189    2.19000006    2.48000002
   19.84583473  116.88700104    2.26999998    2.46000004
   19.84889030  117.63899994    2.39000010    2.46000004
   19.85222244  116.06300354    2.21000004    2.48000002
   19.85555649  111.14800262    1.89999998    2.48000002
   19.85861206  111.51300049    2.23000002    2.48000002
   19.86194420  117.63899994    1.76999998    2.48000002
   19.86527824  117.62400055    1.75000000    2.46000004
   19.86833382  119.34500122    1.73000002    2.46000004
   19.86944389  119.54199982    1.73000002    2.46000004
   19.87194443  110.76499939    1.76999998    2.46000004
   19.87527847  115.59400177    1.75000000    2.46000004
   19.88138962  115.59400177    1.73000002    2.48000002
   19.88527679  134.26199341    1.73000002    2.48000002
   19.88861084  114.44699860    1.78999996    2.46000004
   19.89194489  133.87699890    1.78999996    2.48000002
   19.89500046  148.16499329    1.78999996    2.46000004
   19.89833260  156.81199646    1.76999998    2.46000004
   19.90138817  120.49500275    1.71000004    2.46000004
   19.90277672  150.19099426    1.71000004    2.46000004
   19.90499878  232.79200745    1.66999996    2.46000004
   19.90833282   -1.00000000    1.66999996    2.46000004
   19.91166687   -1.00000000    1.66999996    2.46000004
   19.91472244   -1.00000000    1.66999996    2.46000004
   19.91805458   -1.00000000    1.66999996    2.46000004
   19.92805481   -1.00000000    1.63000000    2.46000004
   19.93138885   -1.00000000    1.64999998    2.46000004
   19.93472099   -1.00000000    1.63000000    2.46000004
   19.93805504   -1.00000000    1.63000000    2.46000004
   19.94138718   -1.00000000    1.63000000    2.46000004
   19.94472122   -1.00000000    1.66999996    2.46000004
   19.94777679   -1.00000000    1.63000000    2.46000004
   19.95111275   -1.00000000    1.63000000    2.46000004
   19.95444489   -1.00000000    1.60000002    2.46000004
   19.95750046   -1.00000000    1.58000004    2.46000004
   19.96083450   -1.00000000    1.53999996    2.46000004
   19.98527718   -1.00000000    1.64999998    2.46000004
   19.98833275   -1.00000000    1.66999996    2.46000004
   19.99166679   -1.00000000    1.71000004    2.46000004
   19.99500084   -1.00000000    1.73000002    2.46000004
   19.99805641   -1.00000000    1.73000002    2.46000004
   20.00138855   -1.00000000    1.75000000    2.46000004
   20.00472260   -1.00000000    1.83000004    2.46000004
   20.01388931   -1.00000000    1.94000006    2.46000004
   20.01722145   -1.00000000    2.03999996    2.44000006
   20.02083397   -1.00000000    2.05999994    2.44000006
   20.02416611   -1.00000000    2.05999994    2.44000006
   20.02722168   -1.00000000    2.05999994    2.46000004
   20.03055573   -1.00000000    2.09999990    2.44000006
   20.03388786   -1.00000000    2.15000010    2.46000004
   20.03694344   -1.00000000    2.21000004    2.44000006
   20.04027748   -1.00000000    2.23000002    2.44000006
   20.04361153   -1.00000000    2.26999998    2.44000006
   20.04666710   -1.00000000    2.36999989    2.44000006
   20.05694389   -1.00000000    2.42000008    2.44000006
   20.05999947   -1.00000000    2.42000008    2.44000006
   20.06333351   -1.00000000    2.42000008    2.44000006
   20.06638718   -1.00000000    2.42000008    2.44000006
   20.06972313   -1.00000000    2.44000006    2.44000006
   20.07305717   -1.00000000    2.48000002    2.44000006
   20.07611275   -1.00000000    3.07999992    2.44000006
   20.07944489   -1.00000000    3.07999992    2.44000006
   20.08277893   -1.00000000    3.18000007    2.40000010
   20.08611107   -1.00000000    3.48000002    2.40000010
   20.08944511   -1.00000000    3.48000002    2.40000010
   20.09972191   -1.00000000    3.84999990    2.42000008
   20.10277748   -1.00000000    3.57999992    2.42000008
   20.10611153   -1.00000000    3.57999992    2.42000008
   20.10944557   -1.00000000    3.36999989    2.42000008
   20.11250114   -1.00000000    3.36999989    2.42000008
   20.11583328   -1.00000000    3.36999989    2.42000008
   20.11944389   -1.00000000    3.80999994    2.36999989
   20.12277794   -1.00000000    3.80999994    2.36999989
   20.12583351   -1.00000000    3.80999994    2.36999989
   20.12916756   -1.00000000    3.80999994    2.36999989
   20.13249969   -1.00000000    3.80999994    2.36999989
   20.14249992   -1.00000000    3.80999994    2.36999989
   20.14583397   -1.00000000    3.50000000    2.40000010
   20.14888954   -1.00000000    3.50000000    2.40000010
   20.15250015   -1.00000000    3.50000000    2.40000010
   20.15583229   -1.00000000    3.50000000    2.40000010
   20.15888786   -1.00000000    2.55999994    2.42000008
   20.16222191   -1.00000000    2.55999994    2.42000008
   20.16555595   -1.00000000    2.55999994    2.40000010
   20.16860962   -1.00000000    2.53999996    2.40000010
   20.17194366   -1.00000000    2.53999996    2.40000010
   20.17527771   -1.00000000    2.53999996    2.40000010
   20.18527603   -1.00000000    2.51999998    2.42000008
   20.18861008   -1.00000000    2.51999998    2.42000008
   20.19194412   -1.00000000    2.51999998    2.42000008
   20.19499969   -1.00000000    2.51999998    2.42000008
   20.19833183   -1.00000000    2.64000010    2.40000010
   20.20138931   -1.00000000    2.64000010    2.40000010
   20.20472336   -1.00000000    2.64000010    2.40000010
   20.20805550   -1.00000000    2.61999989    2.40000010
   20.21111107   -1.00000000    2.61999989    2.40000010
   20.21444511   -1.00000000    2.61999989    2.40000010
   20.21777916   -1.00000000    2.61999989    2.40000010
   20.22833443   -1.00000000    2.61999989    2.39000010
   20.23139000   -1.00000000    2.61999989    2.39000010
   20.23472214   -1.00000000    2.51999998    2.40000010
   20.23777771   -1.00000000    2.55999994    2.39000010
   20.24111176   -1.00000000    2.55999994    2.39000010
   20.24444389   -1.00000000    2.51999998    2.40000010
   20.24749947   -1.00000000    2.51999998    2.40000010
   20.25083351   -1.00000000    2.51999998    2.39000010
   20.25416756   -1.00000000    2.50000000    2.39000010
   20.25749969   -1.00000000    2.50000000    2.39000010
   20.26055527   -1.00000000    2.50000000    2.39000010
   20.27111053   -1.00000000    2.48000002    2.39000010
   20.27416611   -1.00000000    2.48000002    2.39000010
   20.27750015   -1.00000000    2.48000002    2.39000010
   20.28083229   -1.00000000    2.30999994    2.39000010
   20.28388786   -1.00000000    2.25000000    2.39000010
   20.28750038   -1.00000000    2.23000002    2.39000010
   20.29083252   -1.00000000    2.25000000    2.39000010
   20.29416656   -1.00000000    2.25000000    2.39000010
   20.29722214   -1.00000000    2.25000000    2.39000010
   20.30055428   -1.00000000    2.25000000    2.39000010
   20.30360985   -1.00000000    2.25000000    2.39000010
   20.31388855   -1.00000000    2.28999996    2.36999989
   20.31722260   -1.00000000    2.26999998    2.36999989
   20.32055664   -1.00000000    2.25000000    2.36999989
   20.32389069   -1.00000000    2.19000006    2.36999989
   20.32722282   -1.00000000    2.17000008    2.39000010
   20.33027840   -1.00000000    2.15000010    2.36999989
   20.33361244   -1.00000000    2.17000008    2.36999989
   20.33666801   -1.00000000    2.21000004    2.36999989
   20.34000015   -1.00000000    2.25000000    2.36999989
   20.34333420   -1.00000000    2.25000000    2.36999989
   20.34638977   -1.00000000    2.26999998    2.36999989
   20.35666656   -1.00000000    2.21000004    2.36999989
   20.36000061   -1.00000000    2.26999998    2.36999989
   20.36333466   -1.00000000    2.30999994    2.36999989
   20.36638832   -1.00000000    2.26999998    2.36999989
   20.36972237   -1.00000000    2.25000000    2.36999989
   20.37305641   -1.00000000    2.25000000    2.36999989
   20.37611198   -1.00000000    2.21000004    2.36999989
   20.37944412   -1.00000000    2.15000010    2.34999990
   20.38249969   -1.00000000    2.11999989    2.34999990
   20.38611031   -1.00000000    2.07999992    2.34999990
   20.38944435   -1.00000000    2.03999996    2.34999990
   20.39972115   -1.00000000    2.01999998    2.36999989
   20.40277672   -1.00000000    2.05999994    2.36999989
   20.40611076   -1.00000000    2.09999990    2.34999990
   20.40944481   -1.00000000    2.13000011    2.34999990
   20.41250038   -1.00000000    2.17000008    2.34999990
   20.41583252   -1.00000000    2.15000010    2.34999990
   20.41916656   -1.00000000    2.21000004    2.34999990
   20.42249870   -1.00000000    2.30999994    2.34999990
   20.42583275   -1.00000000    2.34999990    2.34999990
   20.42888832   -1.00000000    2.34999990    2.34999990
   20.43222237   -1.00000000    2.34999990    2.34999990
   20.44249916   -1.00000000    2.39000010    2.34999990
   20.44555473   -1.00000000    2.48000002    2.34999990
   20.44888878   -1.00000000    2.48000002    2.34999990
   20.45250130   -1.00000000    2.48000002    2.34999990
   20.45583344   -1.00000000    2.48000002    2.34999990
   20.45916748   -1.00000000    2.48000002    2.34999990
   20.46222305   -1.00000000    2.48000002    2.34999990
   20.46555710   -1.00000000    2.48000002    2.34999990
   20.46861076   -1.00000000    2.48000002    2.34999990
   20.47194481   -1.00000000    2.48000002    2.34999990
   20.47527885   -1.00000000    2.48000002    2.34999990
   20.48527718   -1.00000000    2.50000000    2.32999992
   20.48861122   -1.00000000    2.30999994    2.32999992
   20.49166679   -1.00000000    2.36999989    2.32999992
   20.49500084   -1.00000000    2.40000010    2.30999994
   20.49833298   -1.00000000    2.40000010    2.30999994
   20.50138855   -1.00000000    2.40000010    2.30999994
   20.50472260   -1.00000000    2.40000010    2.30999994
   20.50777817   -1.00000000    2.40000010    2.32999992
   20.51111031   -1.00000000    2.40000010    2.32999992
   20.51444435   -1.00000000    2.44000006    2.32999992
   20.51749992   -1.00000000    3.75000000    2.32999992
   20.52805519   -1.00000000    4.90999985    2.30999994
   20.53138924   -1.00000000    4.90999985    2.30999994
   20.53472137   -1.00000000    4.90999985    2.30999994
   20.53777695   -1.00000000    4.90999985    2.30999994
   20.54111099   -1.00000000    4.90999985    2.30999994
   20.54416656   -1.00000000    4.90999985    2.30999994
   20.54749870   -1.00000000    4.90999985    2.30999994
   20.55083275   -1.00000000    4.90999985    2.30999994
   20.55416679   -1.00000000    4.90999985    2.30999994
   20.55749893   -1.00000000    4.90999985    2.30999994
   20.56083298   -1.00000000    4.90999985    2.30999994
   20.57111168   -1.00000000    4.90999985    2.30999994
   20.57416725   -1.00000000    4.90999985    2.34999990
   20.57750130   -1.00000000    4.90999985    2.34999990
   20.58055687   -1.00000000    4.90999985    1.89999998
   20.58388901   -1.00000000    4.90999985    2.32999992
   20.58722305   -1.00000000    2.11999989    2.28999996
   20.59055710   -1.00000000    2.05999994    2.28999996
   20.59388924   -1.00000000    2.01999998    2.28999996
