    HOUR (UT)   FLARE FACTOR    SKY TESTER    SUN TESTER
   12.06916618   -1.00000000   -1.00000000   -1.00000000
   12.09583282   -1.00000000    4.90999985    1.76999998
   12.09916592  357.49398804    4.90999985    1.76999998
   12.10111141  327.49600220    4.90999985    1.76999998
   12.10249996  362.90899658    4.90999985    1.76999998
   12.10388947  383.15899658    4.90999985    1.76999998
   12.10388947   -1.00000000    4.90999985    1.76999998
   12.10416698  357.49398804    4.90999985    1.76999998
   12.11305618  118.79199982    4.90999985    1.76999998
   12.11638927   96.48210144    4.90999985    1.78999996
   12.11944485  120.00700378    4.90999985    1.76999998
   12.12277794  125.66300201    4.90999985    1.76999998
   12.12611103  113.09100342    4.90999985    1.76999998
   12.13027763  113.09100342    4.90999985    1.78999996
   12.13444424  197.23100281    4.90999985    1.78999996
   12.13777733  263.73098755    4.90999985    1.78999996
   12.14083290  300.47000122    4.90999985    1.80999994
   12.14416695  372.58599854    4.90999985    1.80999994
   12.14750004  365.35699463    4.90999985    1.83000004
   12.15055561  405.17098999    4.90999985    1.83000004
   12.15277767  396.85598755    4.90999985    1.83000004
   12.15388870  353.37799072    4.90999985    1.83000004
   12.15416622  365.35699463    4.90999985    1.83000004
   12.15416622  405.17098999    4.90999985    1.83000004
   12.15416622  120.00700378    4.90999985    1.76999998
   12.15444374  125.66300201    4.90999985    1.76999998
   12.15444374  113.09100342    4.90999985    1.76999998
   12.15444374  197.23100281    4.90999985    1.78999996
   12.15472221  263.73098755    4.90999985    1.78999996
   12.15472221  300.47000122    4.90999985    1.80999994
   12.15472221  372.58599854    4.90999985    1.80999994
   12.15583324  347.49398804    4.90999985    1.85000002
   12.15916634  381.70001221    4.90999985    1.85000002
   12.16249943  360.86999512    4.90999985    1.85000002
   12.16555500  337.00601196    4.90999985    1.85000002
   12.16888905  324.49798584    4.90999985    1.85000002
   12.17472267  324.49798584    4.90999985    1.86000001
   12.17888927  352.20401001    4.90999985    1.86000001
   12.18222237  406.03100586    4.90999985    1.86000001
   12.18416691  330.59500122    4.90999985    1.86000001
   12.18416691  347.49398804    4.90999985    1.85000002
   12.18444443  381.70001221    4.90999985    1.85000002
   12.18444443  360.86999512    4.90999985    1.85000002
   12.18444443  337.00601196    4.90999985    1.85000002
   12.18472195  324.49798584    4.90999985    1.85000002
   12.18472195  352.20401001    4.90999985    1.86000001
   12.18472195  406.03100586    4.90999985    1.86000001
   12.18694496  396.14898682    4.90999985    1.86000001
   12.19000053  401.15701294    4.90999985    1.86000001
   12.19222260  319.51400757    4.90999985    1.86000001
   12.19222260  396.14898682    4.90999985    1.86000001
   12.19222260  401.15701294    4.90999985    1.86000001
   12.19388866  354.60900879    4.90999985    1.86000001
   12.19722271  368.44500732    4.90999985    1.86000001
   12.20055580  346.54098511    4.90999985    1.86000001
   12.20361137  326.73901367    4.90999985    1.86000001
   12.20694447  363.49600220    4.90999985    1.86000001
   12.21277714  363.49600220    4.90999985    1.88000000
   12.21694374  335.43499756    4.90999985    1.88000000
   12.22027779  328.75500488    4.90999985    1.88000000
   12.22361088  345.23901367    4.90999985    1.86000001
   12.22583294  332.32998657    4.90999985    1.86000001
   12.22722149  345.17898560    4.90999985    1.86000001
   12.23055553  359.07000732    4.90999985    1.86000001
   12.23361111  360.24600220    4.90999985    1.86000001
   12.23694515  337.75100708    4.90999985    1.86000001
   12.24027824  383.91799927    4.90999985    1.88000000
   12.24333382  337.84399414    4.90999985    1.88000000
   12.24666691  373.82901001    4.90999985    1.88000000
   12.24972248  369.22299194    4.90999985    1.86000001
   12.25583363  369.22299194    4.90999985    1.86000001
   12.26000023  336.27801514    4.90999985    1.86000001
   12.26305580  337.14401245    4.90999985    1.85000002
   12.26638889  314.23400879    4.90999985    1.83000004
   12.26944447  220.15199280    4.90999985    1.80999994
   12.27277756  138.23699951    4.90999985    1.78999996
   12.27611065  174.32800293    4.90999985    1.76999998
   12.27944374  234.98300171    4.90999985    1.76999998
   12.28249931  326.47500610    4.90999985    1.78999996
   12.28583336  324.97698975    4.90999985    1.80999994
   12.28916740  235.88099670    4.90999985    1.80999994
   12.29222298  156.17599487    4.90999985    1.80999994
   12.29277802  146.15299988    4.90999985    1.80999994
   12.29861164  146.15299988    4.90999985    1.78999996
   12.30277824  195.36500549    4.90999985    1.78999996
   12.30583382  216.00199890    4.90999985    1.78999996
   12.30916691  202.19500732    4.90999985    1.80999994
   12.31250000  231.16000366    4.90999985    1.80999994
   12.31555557  285.02999878    4.90999985    1.80999994
   12.31888866  257.18200684    4.90999985    1.83000004
   12.32222176  221.45399475    4.90999985    1.83000004
   12.32527733  147.84500122    4.90999985    1.80999994
   12.32611084  145.03199768    4.90999985    1.80999994
   12.32888889  157.25100708    4.90999985    1.80999994
   12.33194447  208.43499756    4.90999985    1.78999996
   12.33527756  197.69500732    4.90999985    1.78999996
   12.34138870  197.69500732    4.90999985    1.78999996
   12.34555531  212.16499329    4.90999985    1.80999994
   12.34888840  217.78100586    4.90999985    1.80999994
   12.35194492  214.11300659    4.90999985    1.83000004
   12.35527802  261.59698486    4.90999985    1.83000004
   12.35861111  261.09899902    4.90999985    1.83000004
   12.35944462  198.66099548    4.90999985    1.83000004
   12.36222267  204.35499573    4.90999985    1.83000004
   12.36527824  258.84799194    4.90999985    1.83000004
   12.36861134  185.75900269    4.90999985    1.83000004
   12.37194443  209.32499695    4.90999985    1.80999994
   12.37500000  157.07299805    4.90999985    1.78999996
   12.37833309  188.06300354    4.90999985    1.78999996
   12.38444424  188.06300354    4.90999985    1.80999994
   12.38833332  169.47099304    4.90999985    1.80999994
   12.39166641  142.58500671    4.90999985    1.80999994
   12.39277744  161.49299622    4.90999985    1.78999996
   12.39527798  134.84399414    4.90999985    1.78999996
   12.39833355  140.39599609    4.90999985    1.78999996
   12.40166664  205.05099487    4.90999985    1.78999996
   12.40499973  171.97999573    4.90999985    1.80999994
   12.40805531  180.73399353    4.90999985    1.80999994
   12.41138840  154.13200378    4.90999985    1.80999994
   12.41472149  148.57099915    4.90999985    1.80999994
   12.41777802  239.92199707    4.90999985    1.80999994
   12.42111111  209.22200012    4.90999985    1.80999994
   12.42722225  209.22200012    4.90999985    1.85000002
   12.43138885  217.78199768    4.90999985    1.85000002
   12.43444443  296.79998779    4.90999985    1.85000002
   12.43777752  308.66000366    4.90999985    1.86000001
   12.44111156  330.93899536    4.90999985    1.86000001
   12.44416714  472.10598755    4.90999985    1.88000000
   12.44611073  559.85198975    4.90999985    1.88000000
   12.44750023  407.93301392    4.90999985    1.88000000
   12.44888878  388.78500366    4.90999985    1.88000000
   12.45027733  428.26199341    4.90999985    1.88000000
   12.45166683  379.40301514    4.90999985    1.88000000
   12.45194435  330.93899536    4.90999985    1.86000001
   12.45194435  472.10598755    4.90999985    1.88000000
   12.45194435  154.13200378    4.90999985    1.80999994
   12.45222187  148.57099915    4.90999985    1.80999994
   12.45222187  239.92199707    4.90999985    1.80999994
   12.45222187  209.22200012    4.90999985    1.80999994
   12.45249939  217.78199768    4.90999985    1.85000002
   12.45249939  296.79998779    4.90999985    1.85000002
   12.45249939  308.66000366    4.90999985    1.86000001
   12.45305538  408.27600098    4.90999985    1.88000000
   12.45527744  430.45999146    4.90999985    1.88000000
   12.45638847  554.60699463    4.90999985    1.88000000
   12.45777798  418.53500366    4.90999985    1.88000000
   12.45916653  449.81298828    4.90999985    1.88000000
   12.46055508  455.27398682    4.90999985    1.88000000
   12.46194458  610.84002686    4.90999985    1.88000000
   12.46333313  412.01098633    4.90999985    1.89999998
   12.46472168  567.80200195    4.90999985    1.89999998
   12.46611118  410.64999390    4.90999985    1.89999998
   12.46749973  450.34298706    4.90999985    1.89999998
   12.46888828  511.66699219    4.90999985    1.89999998
   12.47027779  479.09500122    4.90999985    1.89999998
   12.47166634  360.48199463    4.90999985    1.89999998
   12.47194386  408.27600098    4.90999985    1.88000000
   12.47249985  474.20901489    4.90999985    1.89999998
   12.47444439  397.21798706    4.90999985    1.91999996
   12.47583294  420.85000610    4.90999985    1.91999996
   12.47722149  471.13500977    4.90999985    1.91999996
   12.47861099  439.48098755    4.90999985    1.91999996
   12.47999954  419.22100830    4.90999985    1.91999996
   12.48138809  432.54598999    4.90999985    1.91999996
   12.48277760  400.84399414    4.90999985    1.91999996
   12.48416710  445.16400146    4.90999985    1.91999996
   12.48555565  442.56399536    4.90999985    1.91999996
   12.48694515  429.72900391    4.90999985    1.91999996
   12.48833370  402.57400513    4.90999985    1.91999996
   12.48972225  432.95199585    4.90999985    1.91999996
   12.49111176  497.50900269    4.90999985    1.94000006
   12.49250031  392.20098877    4.90999985    1.94000006
   12.49388885  416.95700073    4.90999985    1.91999996
   12.49527836  400.48599243    4.90999985    1.94000006
   12.49666691  425.17999268    4.90999985    1.94000006
   12.49805546  389.61099243    4.90999985    1.94000006
   12.49944496  392.12399292    4.90999985    1.96000004
   12.50083351  407.03900146    4.90999985    1.96000004
   12.50222206  350.39199829    4.90999985    1.96000004
   12.50222206  474.20901489    4.90999985    1.89999998
   12.50277805  409.13198853    4.90999985    1.96000004
   12.50472260  392.79299927    4.90999985    1.98000002
   12.50611115  354.38900757    4.90999985    1.98000002
   12.50611115  409.13198853    4.90999985    1.96000004
   12.50749969  336.90798950    4.90999985    2.00000000
   12.51055527  313.66299438    4.90999985    2.01999998
   12.51388931  336.59698486    4.90999985    2.01999998
   12.51694393  315.77499390    4.90999985    2.03999996
   12.52027798  305.39498901    4.90999985    2.03999996
   12.52694416  305.39498901    4.90999985    2.07999992
   12.53111076  280.42599487    4.90999985    2.09999990
   12.53444481  267.18701172    4.90999985    2.09999990
   12.53750038  268.21200562    4.90999985    2.09999990
   12.54000092  286.28799438    4.90999985    2.09999990
   12.54138947  248.64799500    4.90999985    2.11999989
   12.54444504  249.69900513    4.90999985    2.11999989
   12.54777813  262.27801514    4.90999985    2.11999989
   12.55111122  265.28601074    4.90999985    2.11999989
   12.55416679  238.58999634    4.90999985    2.13000011
   12.55749989  229.11000061    4.90999985    2.13000011
   12.56055546  252.32800293    4.90999985    2.13000011
   12.56388950  226.83900452    4.90999985    2.15000010
   12.56972218  226.83900452    4.90999985    2.15000010
   12.57388878  227.08299255    4.90999985    2.15000010
   12.57722187  220.89700317    4.90999985    2.17000008
   12.58027744  233.23500061    4.90999985    2.15000010
   12.58361053  231.32400513    4.90999985    2.15000010
   12.58694458  231.94599915    4.90999985    2.15000010
   12.59000015  213.34599304    4.90999985    2.15000010
   12.59333324  220.33500671    4.90999985    2.17000008
   12.59666634  216.22000122    4.90999985    2.15000010
   12.59972191  248.16600037    4.90999985    2.15000010
   12.60305595  217.85200500    4.90999985    2.17000008
   12.60638905  200.93899536    4.90999985    2.17000008
   12.60666752  207.72399902    4.90999985    2.17000008
   12.61277771  207.72399902    4.90999985    2.19000006
   12.61666679  228.48699951    4.90999985    2.17000008
   12.61999989  214.70300293    4.90999985    2.17000008
   12.62333393  206.69000244    4.90999985    2.17000008
   12.62638855  207.74000549    4.90999985    2.17000008
   12.62972260  208.10200500    4.90999985    2.17000008
   12.63305569  214.72399902    4.90999985    2.17000008
   12.63611126  216.33799744    4.90999985    2.19000006
   12.63944435  219.07699585    4.90999985    2.19000006
   12.64027786  208.20300293    4.90999985    2.17000008
   12.64305496  237.95199585    4.90999985    2.17000008
   12.64638901  206.40899658    4.90999985    2.17000008
   12.64944458  234.58999634    4.90999985    2.19000006
   12.65555477  234.58999634    4.90999985    2.17000008
   12.65972137  220.14999390    4.90999985    2.15000010
   12.66277695  209.86300659    4.90999985    2.17000008
   12.66611099  197.58599854    4.90999985    2.17000008
   12.66944504  200.28999329    4.90999985    2.17000008
   12.67250061  220.41700745    4.90999985    2.19000006
   12.67361164  203.91900635    4.90999985    2.21000004
   12.67611122  246.26699829    4.90999985    2.21000004
   12.67944431  198.49400330    4.90999985    2.19000006
   12.68249989  235.72399902    4.90999985    2.19000006
   12.68583298  220.99099731    4.90999985    2.17000008
   12.68916702  216.32600403    4.90999985    2.13000011
   12.69222260  230.05400085    4.90999985    2.13000011
   12.69833374  230.05400085    4.90999985    2.17000008
   12.70249939  193.44200134    4.90999985    2.17000008
   12.70583344  209.30700684    4.90999985    2.19000006
   12.70694447  218.49600220    4.90999985    2.19000006
   12.70944405  244.47399902    4.90999985    2.19000006
   12.71277714  220.29899597    4.90999985    2.17000008
   12.71583271  223.07499695    4.90999985    2.17000008
   12.71916580  230.01100159    4.90999985    2.19000006
   12.72249985  211.71699524    4.90999985    2.19000006
   12.72555542  204.96800232    4.90999985    2.19000006
   12.72888851  203.67900085    4.90999985    2.21000004
   12.73222160  194.63400269    4.90999985    2.23000002
   12.73527813  185.24000549    4.90999985    2.21000004
   12.74111176  185.24000549    4.90999985    2.23000002
   12.74527836  206.16499329    4.90999985    2.23000002
   12.74861145  208.70700073    4.90999985    2.23000002
   12.75166702  201.64500427    4.90999985    2.21000004
   12.75500011  223.43400574    4.90999985    2.21000004
   12.75833321  209.50599670    4.90999985    2.21000004
   12.76166630  181.24699402    4.90999985    2.21000004
   12.76472187  198.98500061    4.90999985    2.23000002
   12.76805496  193.05299377    4.90999985    2.23000002
   12.77111053  185.61199951    4.90999985    2.23000002
   12.77361107  201.82299805    4.90999985    2.23000002
   12.77472210  215.58900452    4.90999985    2.23000002
   12.77805519  205.96299744    4.90999985    2.23000002
   12.78416729  205.96299744    4.90999985    2.21000004
   12.78805637  210.99600220    4.90999985    2.23000002
   12.79138947  207.51300049    4.90999985    2.23000002
   12.79472256  229.39599609    4.90999985    2.25000000
   12.79777813  218.66600037    4.90999985    2.23000002
   12.80111122  204.28199768    4.90999985    2.23000002
   12.80444431  205.39900208    4.90999985    2.23000002
   12.80694485  240.09199524    4.90999985    2.21000004
   12.80777836  215.53500366    4.90999985    2.23000002
   12.81111145  213.42799377    4.90999985    2.23000002
   12.81416702  207.30499268    4.90999985    2.21000004
   12.81750011  214.45399475    4.90999985    2.23000002
   12.82083321  191.14300537    4.90999985    2.23000002
   12.82694435  191.14300537    4.90999985    2.23000002
   12.83111095  211.30700684    4.90999985    2.25000000
   12.83416653  210.97799683    4.90999985    2.25000000
   12.83749962  212.91299438    4.90999985    2.25000000
   12.84027767  257.11801147    4.90999985    2.26999998
   12.84111118  224.58900452    4.90999985    2.25000000
   12.84444427  235.31799316    4.90999985    2.23000002
   12.84749985  258.77600098    4.90999985    2.23000002
   12.85083389  274.41101074    4.90999985    2.21000004
   12.85416698  249.88900757    4.90999985    2.21000004
   12.85722256  223.91099548    4.90999985    2.21000004
   12.86055565  249.14999390    4.90999985    2.21000004
   12.86388969  226.01800537    4.90999985    2.21000004
   12.86972237  226.01800537    4.90999985    2.21000004
   12.87388897  201.74299622    4.90999985    2.21000004
   12.87722206  222.84899902    4.90999985    2.21000004
   12.88027763  250.46099854    4.90999985    2.23000002
   12.88361073  242.27600098    4.90999985    2.23000002
   12.88666630  233.91999817    4.90999985    2.23000002
   12.89000034  231.83900452    4.90999985    2.21000004
   12.89333344  271.84399414    4.90999985    2.21000004
   12.89638901  233.73199463    4.90999985    2.21000004
   12.89972210  251.38600159    4.90999985    2.21000004
   12.90305519  223.48500061    4.90999985    2.19000006
   12.90611076  277.11801147    4.90999985    2.21000004
   12.90694427  242.88999939    4.90999985    2.21000004
   12.91249943  242.88999939    4.90999985    2.21000004
   12.91666698  340.72601318    4.90999985    2.21000004
   12.92000008  229.06100464    4.90999985    2.21000004
   12.92305565  219.22900391    4.90999985    2.23000002
   12.92638874  216.22200012    4.90999985    2.23000002
   12.92972279  257.75500488    4.90999985    2.23000002
   12.93277836  230.79600525    4.90999985    2.25000000
   12.93611145  202.23399353    4.90999985    2.25000000
   12.93944454  197.59399414    4.90999985    2.25000000
   12.94027805  218.93699646    4.90999985    2.25000000
   12.94277763  226.40600586    4.90999985    2.25000000
   12.94611073  236.62699890    4.90999985    2.25000000
   12.94944477  206.18899536    4.90999985    2.25000000
   12.95555496  206.18899536    4.90999985    2.25000000
   12.95944405  201.34800720    4.90999985    2.23000002
   12.96277714  258.20599365    4.90999985    2.21000004
   12.96611118  260.37100220    4.90999985    2.19000006
   12.96916580  261.53399658    4.90999985    2.19000006
   12.97249985  273.59201050    4.90999985    2.21000004
   12.97361088  362.70800781    4.90999985    2.21000004
   12.97611046  268.70300293    4.90999985    2.23000002
   12.97944355  266.92199707    4.90999985    2.23000002
   12.98277760  291.30200195    4.90999985    2.23000002
   12.98583317  275.40301514    4.90999985    2.23000002
   12.98916721  255.80799866    4.90999985    2.23000002
   12.99222279  261.94299316    4.90999985    2.23000002
   12.99833393  261.94299316    4.90999985    2.21000004
   13.00249958  293.53298950    4.90999985    2.23000002
   13.00555515  281.81900024    4.90999985    2.25000000
   13.00694466  233.30299377    4.90999985    2.25000000
   13.00916672  236.50999451    4.90999985    2.25000000
   13.01249981  236.59399414    4.90999985    2.25000000
   13.01583290  272.45800781    4.90999985    2.26999998
   13.01888847  220.20599365    4.90999985    2.26999998
   13.02222157  247.41799927    4.90999985    2.28999996
   13.02527714  239.34800720    4.90999985    2.28999996
   13.02861118  252.13699341    4.90999985    2.28999996
   13.03194427  236.90699768    4.90999985    2.28999996
   13.03500080  220.11700439    4.90999985    2.28999996
   13.04111195  220.11700439    4.90999985    2.28999996
   13.04527855  222.69200134    4.90999985    2.28999996
   13.04861164  237.42599487    4.90999985    2.30999994
   13.05166721  189.00300598    4.90999985    2.30999994
   13.05500031  221.21800232    4.90999985    2.30999994
   13.05805588  252.05499268    4.90999985    2.26999998
   13.06138897  237.30499268    4.90999985    2.25000000
   13.06472206  185.83200073    4.90999985    2.26999998
   13.06777763  203.34500122    4.90999985    2.28999996
   13.07111073  183.06100464    4.90999985    2.30999994
   13.07361126  181.68600464    4.90999985    2.30999994
   13.07472229  188.38900757    4.90999985    2.28999996
   13.07805538  229.69999695    4.90999985    2.30999994
   13.08388901  229.69999695    4.90999985    2.30999994
   13.08805561  174.08799744    4.90999985    2.30999994
   13.09138870  247.73500061    4.90999985    2.30999994
   13.09444427  229.65400696    4.90999985    2.30999994
   13.09777737  238.26400757    4.90999985    2.30999994
   13.10111141  205.75100708    4.90999985    2.30999994
   13.10416698  257.55398560    4.90999985    2.30999994
   13.10694504  215.16999817    4.90999985    2.28999996
   13.10777855  217.35000610    4.90999985    2.26999998
   13.13027763  217.35000610    4.90999985    2.25000000
   13.13444424  238.39399719    4.90999985    2.23000002
   13.13777733  246.72999573    4.90999985    2.23000002
   13.14027786  227.69900513    4.90999985    2.23000002
   13.14138889  251.05799866    4.90999985    2.23000002
   13.14444447  222.54899597    4.90999985    2.21000004
   13.14777756  227.80499268    4.90999985    2.21000004
   13.15111065  209.94299316    4.90999985    2.23000002
   13.15416622  210.27699280    4.90999985    2.25000000
   13.15749931  170.02299500    4.90999985    2.26999998
   13.16055489  197.96499634    4.90999985    2.28999996
   13.16388893  208.67599487    4.90999985    2.26999998
   13.16722298  203.50900269    4.90999985    2.28999996
   13.17305565  203.50900269    4.90999985    2.25000000
   13.17722225  216.37300110    4.90999985    2.26999998
   13.18055630  226.40600586    4.90999985    2.28999996
   13.18361092  223.76499939    4.90999985    2.28999996
   13.18694496  219.56300354    4.90999985    2.30999994
   13.19027805  248.73699951    4.90999985    2.26999998
   13.19333363  230.00900269    4.90999985    2.26999998
   13.19666672  204.06599426    4.90999985    2.26999998
   13.19999981  214.63699341    4.90999985    2.28999996
   13.20305538  209.23500061    4.90999985    2.28999996
   13.20638847  224.28700256    4.90999985    2.26999998
   13.20805550  222.66299438    4.90999985    2.26999998
   13.21000004  252.14300537    4.90999985    2.26999998
   13.21611118  252.14300537    4.90999985    2.26999998
   13.21999931  216.12300110    4.90999985    2.30999994
   13.22333336  198.48199463    4.90999985    2.32999992
   13.22666645  213.35699463    4.90999985    2.30999994
   13.22972202  192.69400024    4.90999985    2.30999994
   13.23305511  172.42700195    4.90999985    2.30999994
   13.23638916  188.96099854    4.90999985    2.32999992
   13.23944473  196.03599548    4.90999985    2.32999992
   13.24138927  202.61399841    4.90999985    2.32999992
   13.24305534  208.34899902    4.90999985    2.32999992
   13.24638939  205.23599243    4.90999985    2.32999992
   13.24944496  180.35200500    4.90999985    2.30999994
   13.25277805  188.50700378    4.90999985    2.28999996
   13.25888920  188.50700378    4.90999985    2.28999996
   13.26305580  171.89799500    4.90999985    2.28999996
   13.26611137  213.04499817    4.90999985    2.28999996
   13.26944447  208.72000122    4.90999985    2.30999994
   13.27277756  219.86199951    4.90999985    2.30999994
   13.27499962  183.68400574    4.90999985    2.30999994
   13.27638817  198.45799255    4.90999985    2.30999994
   13.27972221  171.27400208    4.90999985    2.32999992
   13.28277779  162.25100708    4.90999985    2.34999990
   13.28611183  186.63699341    4.90999985    2.34999990
   13.28916740  153.83500671    4.90999985    2.32999992
   13.29250050  181.65400696    4.90999985    2.34999990
   13.29583359  198.67799377    4.90999985    2.34999990
   13.30166721  198.67799377    4.90999985    2.34999990
   13.30583382  199.65199280    4.90999985    2.34999990
   13.30833340  179.08299255    4.90999985    2.36999989
   13.30944443  205.05700684    4.90999985    2.36999989
   13.31277752  204.36599731    4.90999985    2.39000010
   13.31583309  204.52799988    4.90999985    2.39000010
   13.31916618  172.93400574    4.90999985    2.36999989
   13.32222176  187.52699280    4.90999985    2.34999990
   13.32555580  179.93299866    4.90999985    2.34999990
   13.32888889  141.15499878    4.90999985    2.39000010
   13.33194447  167.80400085    4.90999985    2.39000010
   13.33527756  178.05499268    4.90999985    2.39000010
   13.33861065  155.47099304    4.90999985    2.34999990
   13.34444427  155.47099304    4.90999985    2.36999989
   13.34861088  172.16200256    4.90999985    2.34999990
   13.35194492  179.66799927    4.90999985    2.36999989
   13.35500050  166.26899719    4.90999985    2.39000010
   13.35833359  159.31199646    4.90999985    2.39000010
   13.36166668  171.43899536    4.90999985    2.40000010
   13.36500072  165.05799866    4.90999985    2.42000008
   13.36805534  183.39900208    4.90999985    2.42000008
   13.37138939  158.00199890    4.90999985    2.42000008
   13.37444496  160.19000244    4.90999985    2.42000008
   13.37527752  153.25500488    4.90999985    2.40000010
   13.37805557  168.71600342    4.90999985    2.40000010
   13.38138866  190.83799744    4.90999985    2.40000010
   13.38749981  190.83799744    4.90999985    2.40000010
   13.39138889  183.70500183    4.90999985    2.40000010
   13.39472198  183.22500610    4.90999985    2.42000008
   13.39805508  166.90499878    4.90999985    2.42000008
   13.40111065  165.86700439    4.90999985    2.40000010
   13.40444374  183.97799683    4.90999985    2.40000010
   13.40777779  184.24600220    4.90999985    2.40000010
   13.40888882  169.06700134    4.90999985    2.40000010
   13.41111088  177.30099487    4.90999985    2.40000010
   13.41444397  163.16700745    4.90999985    2.42000008
   13.41750050  152.66200256    4.90999985    2.42000008
   13.42083359  148.50700378    4.90999985    2.40000010
   13.42416668  182.97000122    4.90999985    2.40000010
   13.43027782  182.97000122    4.90999985    2.42000008
   13.43444443  162.15800476    4.90999985    2.42000008
   13.43750000  178.63099670    4.90999985    2.42000008
   13.44083309  175.55200195    4.90999985    2.42000008
   13.44222260  161.00599670    4.90999985    2.42000008
   13.44444466  166.36700439    4.90999985    2.40000010
   13.44777775  162.85000610    4.90999985    2.42000008
   13.45083332  142.99099731    4.90999985    2.44000006
   13.45416641  164.90400696    4.90999985    2.42000008
   13.45722198  142.76199341    4.90999985    2.44000006
   13.46055508  165.60299683    4.90999985    2.42000008
   13.46388912  149.45300293    4.90999985    2.44000006
   13.46694374  162.19599915    4.90999985    2.42000008
   13.47305489  162.19599915    4.90999985    2.42000008
   13.47722149  165.72599792    4.90999985    2.42000008
   13.48055553  170.87500000    4.90999985    2.44000006
   13.48361111  168.09899902    4.90999985    2.42000008
   13.48694515  143.64799500    4.90999985    2.42000008
   13.49000072  144.53999329    4.90999985    2.42000008
   13.49333382  172.41799927    4.90999985    2.40000010
   13.49666691  169.20300293    4.90999985    2.39000010
   13.49972248  165.89599609    4.90999985    2.39000010
   13.50305557  156.97500610    4.90999985    2.40000010
   13.50638866  140.19099426    4.90999985    2.39000010
   13.50888920  137.72000122    4.90999985    2.40000010
   13.51000023  163.20899963    4.90999985    2.40000010
   13.51583290  163.20899963    4.90999985    2.39000010
   13.51999950  133.93899536    4.90999985    2.40000010
   13.52333355  137.43099976    4.90999985    2.40000010
   13.52638817  130.75300598    4.90999985    2.40000010
   13.52972221  129.95100403    4.90999985    2.40000010
   13.53305531  128.58000183    4.90999985    2.42000008
   13.53611183  151.72000122    4.90999985    2.40000010
   13.53944492  151.73399353    4.90999985    2.40000010
   13.54222298  140.68200684    4.90999985    2.40000010
   13.54305553  140.64500427    4.90999985    2.40000010
   13.54638958  164.85000610    4.90999985    2.39000010
   13.54944515  145.09100342    4.90999985    2.39000010
   13.55277824  137.36099243    4.90999985    2.36999989
   13.55861092  137.36099243    4.90999985    2.36999989
   13.56277752  158.39900208    4.90999985    2.39000010
   13.56611156  144.60800171    4.90999985    2.40000010
   13.56944466  136.49299622    4.90999985    2.40000010
   13.57250023  167.58599854    4.90999985    2.40000010
   13.57555580  145.32299805    4.90999985    2.39000010
   13.57611084  144.30700684    4.90999985    2.40000010
   13.57944393  172.52900696    4.90999985    2.39000010
   13.58249950  145.54800415    4.90999985    2.36999989
   13.58583260  149.68699646    4.90999985    2.36999989
   13.58888817  147.43299866    4.90999985    2.34999990
   13.59222221  131.84500122    4.90999985    2.36999989
   13.59555531  135.33099365    4.90999985    2.34999990
   13.60166740  135.33099365    4.90999985    2.36999989
   13.60583401  185.84100342    4.90999985    2.40000010
   13.60888958  197.87199402    4.90999985    2.39000010
   13.60944462  175.31599426    4.90999985    2.39000010
   13.61277771  169.06300354    4.90999985    2.39000010
   13.61583328  155.32899475    4.90999985    2.39000010
   13.61916637  154.69799805    4.90999985    2.39000010
   13.62222195  185.59899902    4.90999985    2.40000010
   13.62555599  177.72399902    4.90999985    2.40000010
   13.62888908  188.73699951    4.90999985    2.39000010
   13.63194466  180.03799438    4.90999985    2.34999990
   13.63527775  190.66499329    4.90999985    2.36999989
   13.63861084  197.36500549    4.90999985    2.36999989
   13.64444447  197.36500549    4.90999985    2.39000010
   13.64861107  189.67700195    4.90999985    2.34999990
   13.65166664  186.56799316    4.90999985    2.39000010
   13.65499973  194.43299866    4.90999985    2.39000010
   13.65833282  168.89599609    4.90999985    2.34999990
   13.66138840  183.56399536    4.90999985    2.32999992
   13.66472149  169.90600586    4.90999985    2.39000010
   13.66805553  160.89500427    4.90999985    2.34999990
   13.67111111  173.57000732    4.90999985    2.34999990
   13.67444515  164.53199768    4.90999985    2.34999990
   13.67555618  202.96499634    4.90999985    2.34999990
   13.67805576  187.60200500    4.90999985    2.34999990
   13.68138885  196.32099915    4.90999985    2.34999990
   13.68722248  196.32099915    4.90999985    2.42000008
   13.69138908  201.70399475    4.90999985    2.39000010
   13.69472218  173.44500732    4.90999985    2.40000010
   13.69777775  172.56199646    4.90999985    2.39000010
   13.70111084  186.39999390    4.90999985    2.36999989
   13.70444393  215.29699707    4.90999985    2.39000010
   13.70749950  173.09800720    4.90999985    2.39000010
   13.70888901  149.58599854    4.90999985    2.39000010
   13.71111107  167.69500732    4.90999985    2.40000010
   13.71444416  180.99099731    4.90999985    2.40000010
   13.71749973  171.25700378    4.90999985    2.42000008
   13.72083282  159.17900085    4.90999985    2.42000008
   13.72416592  167.58399963    4.90999985    2.42000008
   13.72999954  167.58399963    4.90999985    2.42000008
   13.73416710  170.60099792    4.90999985    2.39000010
   13.73750019  179.08700562    4.90999985    2.40000010
   13.74083328  157.64599609    4.90999985    2.40000010
   13.74250031  146.38999939    4.90999985    2.42000008
   13.74444485  187.57000732    4.90999985    2.39000010
   13.74750042  166.84800720    4.90999985    2.40000010
   13.75083351  175.28199768    4.90999985    2.42000008
   13.75416660  188.20700073    4.90999985    2.40000010
   13.75722218  180.28900146    4.90999985    2.40000010
   13.76055527  164.53300476    4.90999985    2.42000008
   13.76388931  174.88499451    4.90999985    2.40000010
   13.76694393  170.18400574    4.90999985    2.40000010
   13.77305508  170.18400574    4.90999985    2.44000006
   13.77722168  183.53900146    4.90999985    2.42000008
   13.78027725  179.96800232    4.90999985    2.46000004
   13.78361130  146.79299927    4.90999985    2.42000008
   13.78694534  183.96499634    4.90999985    2.42000008
   13.79000092  171.14399719    4.90999985    2.40000010
   13.79333401  201.90400696    4.90999985    2.39000010
   13.79638958  175.17500305    4.90999985    2.36999989
   13.79972267  174.68699646    4.90999985    2.39000010
   13.80305576  163.89399719    4.90999985    2.40000010
   13.80611134  190.99400330    4.90999985    2.40000010
   13.80916691  179.70500183    4.90999985    2.40000010
   13.81000042  157.70599365    4.90999985    2.39000010
   13.81583309  157.70599365    4.90999985    2.39000010
   13.81999969  173.39399719    4.90999985    2.39000010
   13.82305527  180.95100403    4.90999985    2.39000010
   13.82638836  155.80900574    4.90999985    2.36999989
   13.82972240  166.43299866    4.90999985    2.39000010
   13.83277798  186.92500305    4.90999985    2.40000010
   13.83611107  178.16400146    4.90999985    2.39000010
   13.83944416  183.38200378    4.90999985    2.39000010
   13.84249973  207.69000244    4.90999985    2.39000010
   13.84305477  194.07800293    4.90999985    2.39000010
   13.84611034  184.37100220    4.90999985    2.39000010
   13.84944439  202.50500488    4.90999985    2.36999989
   13.85277843  179.17399597    4.90999985    2.36999989
   13.85861111  179.17399597    4.90999985    2.36999989
   13.86277771  193.24400330    4.90999985    2.34999990
   13.86611176  198.80400085    4.90999985    2.36999989
   13.86916637  174.30700684    4.90999985    2.36999989
   13.87250042  186.86399841    4.90999985    2.36999989
   13.87583351  179.74499512    4.90999985    2.34999990
   13.87611103  219.24000549    4.90999985    2.34999990
   13.87944412  196.87500000    4.90999985    2.34999990
   13.88277817  163.88400269    4.90999985    2.34999990
   13.88583279  176.99299622    4.90999985    2.34999990
   13.88916683  169.77200317    4.90999985    2.34999990
   13.89249992  173.32299805    4.90999985    2.34999990
   13.89555550  175.27600098    4.90999985    2.36999989
   13.90138817  175.27600098    4.90999985    2.36999989
   13.90555477  226.93200684    4.90999985    2.34999990
   13.90888882  184.29100037    4.90999985    2.34999990
   13.90944386  203.72999573    4.90999985    2.32999992
   13.91249943  158.58599854    4.90999985    2.34999990
   13.91583252  185.30700684    4.90999985    2.36999989
   13.91888905  215.81900024    4.90999985    2.34999990
   13.92222214  165.22500610    4.90999985    2.34999990
   13.92555618  187.24299622    4.90999985    2.34999990
   13.92861176  213.01199341    4.90999985    2.28999996
   13.93194485  205.17700195    4.90999985    2.28999996
   13.93527794  211.89799500    4.90999985    2.28999996
   13.93833351  206.89900208    4.90999985    2.28999996
   13.94444466  206.89900208    4.90999985    2.25000000
   13.94861126  178.92999268    4.90999985    2.26999998
   13.95166683  223.94299316    4.90999985    2.25000000
   13.95499992  186.82499695    4.90999985    2.28999996
   13.95805550  187.22099304    4.90999985    2.23000002
   13.96138859  180.72200012    4.90999985    2.21000004
   13.96472168  175.46099854    4.90999985    2.21000004
   13.96777725  193.27799988    4.90999985    2.23000002
   13.97111034  230.71499634    4.90999985    2.21000004
   13.97416592  221.62100220    4.90999985    2.23000002
   13.97611046  233.84199524    4.90999985    2.21000004
   13.97805500  257.81698608    4.90999985    2.21000004
   13.98138809  245.49299622    4.90999985    2.21000004
   13.98722267  245.49299622    4.90999985    2.21000004
   13.99138927  204.85400391    4.90999985    2.21000004
   13.99444485  239.71000671    4.90999985    2.21000004
   13.99777794  206.30700684    4.90999985    2.23000002
   14.00111103  209.50300598    4.90999985    2.23000002
   14.00416660  202.37899780    4.90999985    2.23000002
   14.00749969  234.38200378    4.90999985    2.23000002
   14.00944424  262.27700806    4.90999985    2.21000004
   14.01111126  212.77200317    4.90999985    2.21000004
   14.01444435  253.51600647    4.90999985    2.19000006
   14.01749992  250.69299316    4.90999985    2.19000006
   14.02083302  249.29100037    4.90999985    2.21000004
   14.02416611  236.85299683    4.90999985    2.19000006
   14.02999973  236.85299683    4.90999985    2.17000008
   14.03416729  262.36401367    4.90999985    2.15000010
   14.03750038  234.66099548    4.90999985    2.17000008
   14.04055595  226.02600098    4.90999985    2.17000008
   14.04277802  263.98001099    4.90999985    2.19000006
   14.04416752  296.27398682    4.90999985    2.19000006
   14.04750061  239.16400146    4.90999985    2.21000004
   14.05055618  247.80599976    4.90999985    2.21000004
   14.05388927  228.22000122    4.90999985    2.21000004
   14.05722237  222.34100342    4.90999985    2.21000004
   14.06027794  236.48899841    4.90999985    2.21000004
   14.06361103  259.76699829    4.90999985    2.19000006
   14.06666660  247.99299622    4.90999985    2.21000004
   14.07277775  247.99299622    4.90999985    2.19000006
   14.07694435  181.37199402    4.90999985    2.21000004
   14.08027744  204.49200439    4.90999985    2.19000006
   14.08333302  275.95498657    4.90999985    2.17000008
   14.08666611  260.51501465    4.90999985    2.15000010
   14.09000015  267.34698486    4.90999985    2.15000010
   14.09305477  277.20098877    4.90999985    2.13000011
   14.09638882  233.13000488    4.90999985    2.13000011
   14.09972191  267.22198486    4.90999985    2.15000010
   14.10277843  269.94100952    4.90999985    2.13000011
   14.10611153  294.70700073    4.90999985    2.13000011
   14.10916710  257.46099854    4.90999985    2.13000011
   14.10972214  285.25698853    4.90999985    2.13000011
   14.11583328  285.25698853    4.90999985    2.13000011
   14.11972237  230.51699829    4.90999985    2.13000011
   14.12305546  249.20100403    4.90999985    2.11999989
   14.12638855  260.38598633    4.90999985    2.11999989
   14.14388847  271.45401001    4.90999985    2.09999990
   14.14638901  283.26098633    4.90999985    2.09999990
   14.14944458  228.91799927    4.90999985    2.09999990
   14.15277767  299.55099487    4.90999985    2.09999990
   14.15888882  299.55099487    4.90999985    2.07999992
   14.16277695  307.53500366    4.90999985    2.07999992
   14.16611099  277.85101318    4.90999985    2.05999994
   14.16944504  334.39199829    4.90999985    2.05999994
   14.17250061  360.43499756    4.90999985    2.05999994
   14.17583370  360.26800537    4.90999985    2.03999996
   14.17722225  287.06298828    4.90999985    2.01999998
   14.17944431  320.10501099    4.90999985    2.05999994
   14.18277836  371.41699219    4.90999985    2.05999994
   14.18611145  335.89300537    4.90999985    2.05999994
   14.18916702  346.85699463    4.90999985    2.05999994
   14.19250011  282.18899536    4.90999985    2.05999994
   14.19583321  247.36999512    4.90999985    2.05999994
   14.20166683  247.36999512    4.90999985    2.05999994
   14.20583344  331.11898804    4.90999985    2.05999994
   14.20888901  277.29901123    4.90999985    2.03999996
   14.21055508  345.59201050    4.90999985    2.03999996
   14.21249962  300.97399902    4.90999985    2.03999996
   14.21583271  358.22900391    4.90999985    2.03999996
   14.21916580  351.45001221    4.90999985    2.01999998
   14.22222137  373.70199585    4.90999985    2.01999998
   14.22555542  369.69699097    4.90999985    2.00000000
   14.22888851  374.69799805    4.90999985    2.01999998
   14.23194408  440.99499512    4.90999985    2.01999998
   14.23416710  365.29598999    4.90999985    2.01999998
   14.23416710  374.69799805    4.90999985    2.01999998
   14.23416710  440.99499512    4.90999985    2.01999998
   14.23444462  331.11898804    4.90999985    2.05999994
   14.23444462  277.29901123    4.90999985    2.03999996
   14.23444462  300.97399902    4.90999985    2.03999996
   14.23472214  358.22900391    4.90999985    2.03999996
   14.23472214  351.45001221    4.90999985    2.01999998
   14.23472214  373.70199585    4.90999985    2.01999998
   14.23500061  369.69699097    4.90999985    2.00000000
   14.23694515  384.69198608    4.90999985    2.01999998
   14.24000072  345.69699097    4.90999985    2.01999998
   14.24333382  366.32598877    4.90999985    2.01999998
   14.24666691  347.22198486    4.90999985    2.05999994
   14.24972248  307.00799561    4.90999985    2.05999994
   14.25500011  307.00799561    4.90999985    2.05999994
   14.25888920  354.11199951    4.90999985    2.07999992
   14.26222229  314.17199707    4.90999985    2.05999994
   14.26555538  276.25299072    4.90999985    2.03999996
   14.26805496  292.77700806    4.90999985    2.07999992
   14.26916599  275.24600220    4.90999985    2.05999994
   14.27250004  259.25100708    4.90999985    2.05999994
   14.27555561  239.08000183    4.90999985    2.05999994
   14.27888870  326.93600464    4.90999985    2.05999994
   14.28222179  274.17098999    4.90999985    2.03999996
   14.28527832  394.43099976    4.90999985    2.00000000
   14.28861141  380.94100952    4.90999985    2.01999998
   14.29194450  461.95300293    4.90999985    2.03999996
   14.29388905  353.56900024    4.90999985    2.03999996
   14.29388905  259.25100708    4.90999985    2.05999994
   14.29416752  239.08000183    4.90999985    2.05999994
   14.29416752  326.93600464    4.90999985    2.05999994
   14.29416752  274.17098999    4.90999985    2.03999996
   14.29444504  394.43099976    4.90999985    2.00000000
   14.29444504  380.94100952    4.90999985    2.01999998
   14.29444504  461.95300293    4.90999985    2.03999996
   14.29472256  276.25299072    4.90999985    2.03999996
   14.29472256  275.24600220    4.90999985    2.05999994
   14.29888916  275.24600220    4.90999985    2.00000000
   14.30305576  332.31500244    4.90999985    2.03999996
   14.30638885  379.20300293    4.90999985    2.00000000
   14.30944443  401.49499512    4.90999985    2.01999998
   14.31166649  346.52999878    4.90999985    2.03999996
   14.31166649  332.31500244    4.90999985    2.03999996
   14.31166649  379.20300293    4.90999985    2.00000000
   14.31194496  401.49499512    4.90999985    2.01999998
   14.31388950  344.58700562    4.90999985    2.01999998
   14.31722260  388.34899902    4.90999985    2.01999998
   14.32027817  330.40701294    4.90999985    1.98000002
   14.32361126  361.06500244    4.90999985    1.98000002
   14.32666683  424.52999878    4.90999985    1.94000006
   14.32888889  323.87500000    4.90999985    1.96000004
   14.32888889  344.58700562    4.90999985    2.01999998
   14.32888889  388.34899902    4.90999985    2.01999998
   14.32916641  330.40701294    4.90999985    1.98000002
   14.32916641  361.06500244    4.90999985    1.98000002
   14.32944393  424.52999878    4.90999985    1.94000006
   14.33361053  424.52999878    4.90999985    1.98000002
   14.33777714  374.42300415    4.90999985    2.00000000
   14.34083271  380.20498657    4.90999985    2.00000000
   14.34416676  399.20599365    4.90999985    2.00000000
   14.34749985  138.87899780    4.90999985    1.94000006
   14.35055637  131.44700623    4.90999985    1.85000002
   14.35388947  341.52700806    4.90999985    1.86000001
   14.35722256  379.63800049    4.90999985    1.98000002
   14.36027813  404.67999268    4.90999985    1.96000004
   14.36222267  344.39199829    4.90999985    1.96000004
   14.36250019  374.42300415    4.90999985    2.00000000
   14.36250019  380.20498657    4.90999985    2.00000000
   14.36250019  399.20599365    4.90999985    2.00000000
   14.36277771  138.87899780    4.90999985    1.94000006
   14.36277771  131.44700623    4.90999985    1.85000002
   14.36277771  341.52700806    4.90999985    1.86000001
   14.36305618  379.63800049    4.90999985    1.98000002
   14.36305618  404.67999268    4.90999985    1.96000004
   14.36500072  410.37500000    4.90999985    1.98000002
   14.36722279  422.29501343    4.90999985    1.98000002
   14.36833382  363.58999634    4.90999985    1.96000004
   14.36861134  410.37500000    4.90999985    1.98000002
   14.36972237  395.47100830    4.90999985    1.96000004
   14.37277794  382.97100830    4.90999985    1.96000004
   14.37611103  340.05398560    4.90999985    1.94000006
   14.37944412  322.72698975    4.90999985    1.96000004
   14.38249969  283.99099731    4.90999985    1.91999996
   14.38916683  283.99099731    4.90999985    1.94000006
   14.39333344  450.37500000    4.90999985    1.94000006
   14.39527798  484.69699097    4.90999985    1.94000006
   14.39666653  538.66802979    4.90999985    1.94000006
   14.39805508  535.64001465    4.90999985    1.96000004
   14.39944458  567.65002441    4.90999985    1.96000004
   14.40083313  571.17199707    4.90999985    1.96000004
   14.40222168  576.12298584    4.90999985    1.96000004
   14.40361118  711.50000000    4.90999985    1.96000004
   14.40499973  572.89697266    4.90999985    1.94000006
   14.40638828  742.67602539    4.90999985    1.96000004
   14.40777779  527.02801514    4.90999985    1.96000004
   14.40916634  640.20300293    4.90999985    1.96000004
   14.41055489  525.27899170    4.90999985    1.96000004
   14.41194439  495.68301392    4.90999985    1.96000004
   14.41333294  421.07299805    4.90999985    1.98000002
   14.41472149  428.89801025    4.90999985    1.96000004
   14.41611099  374.21499634    4.90999985    1.94000006
   14.41611099  395.47100830    4.90999985    1.96000004
   14.41638851  382.97100830    4.90999985    1.96000004
   14.41638851  340.05398560    4.90999985    1.94000006
   14.41638851  322.72698975    4.90999985    1.96000004
   14.41666698  283.99099731    4.90999985    1.91999996
   14.41666698  450.37500000    4.90999985    1.94000006
   14.41722298  351.32998657    4.90999985    1.94000006
   14.42055607  418.27301025    4.90999985    1.91999996
   14.42250061  445.01000977    4.90999985    1.91999996
   14.42388916  436.53201294    4.90999985    1.91999996
   14.42527771  384.98999023    4.90999985    1.94000006
   14.42666721  373.38000488    4.90999985    1.94000006
   14.42666721  351.32998657    4.90999985    1.94000006
   14.42666721  418.27301025    4.90999985    1.91999996
   14.42722225  340.56500244    4.90999985    1.94000006
   14.43055630  355.41900635    4.90999985    1.91999996
   14.43388939  311.83898926    4.90999985    1.91999996
   14.43694496  209.66299438    4.90999985    1.91999996
   14.44027805  241.54899597    4.90999985    1.89999998
   14.44361115  367.25299072    4.90999985    1.89999998
   14.44777775  367.25299072    4.90999985    1.89999998
   14.45166683  182.82200623    4.90999985    1.89999998
   14.45499992  147.29499817    4.90999985    1.86000001
   14.45833302  143.97300720    4.90999985    1.86000001
   14.46055508  192.71299744    4.90999985    1.86000001
   14.46166611  171.90600586    4.90999985    1.86000001
   14.46500015  157.90100098    4.90999985    1.86000001
   14.46833324  164.24499512    4.90999985    1.86000001
   14.47138882  202.35499573    4.90999985    1.86000001
   14.47472191  209.64799500    4.90999985    1.86000001
   14.47777748  202.11500549    4.90999985    1.88000000
   14.48111057  184.86900330    4.90999985    1.88000000
   14.48444462  169.93400574    4.90999985    1.85000002
   14.49055576  169.93400574    4.90999985    1.89999998
   14.49472237  306.86499023    4.90999985    1.94000006
   14.49777794  217.38999939    4.90999985    1.91999996
   14.50111103  192.45100403    4.90999985    1.89999998
   14.50416660  153.51899719    4.90999985    1.86000001
   14.50749969  159.23699951    4.90999985    1.83000004
   14.51083374  216.26600647    4.90999985    1.85000002
   14.51388931  174.30599976    4.90999985    1.86000001
   14.51722240  161.02099609    4.90999985    1.86000001
   14.52055550  144.27699280    4.90999985    1.85000002
   14.52361107  143.68200684    4.90999985    1.83000004
   14.52694416  176.70899963    4.90999985    1.85000002
   14.52750015  182.77600098    4.90999985    1.86000001
   14.53333378  182.77600098    4.90999985    1.86000001
   14.53750038  140.66900635    4.90999985    1.85000002
   14.54083347  144.41499329    4.90999985    1.85000002
   14.54388905  160.99499512    4.90999985    1.85000002
   14.54722309  126.39800262    4.90999985    1.85000002
   14.55027771   97.47339630    4.90999985    1.78999996
   14.55361176   82.19400024    4.90999985    1.78999996
   14.55694485   96.78350067    4.90999985    1.76999998
   14.56000042   84.60019684    4.90999985    1.76999998
   14.56083393   46.51240158    4.90999985    1.76999998
   14.56388950   93.71279907    4.90999985    1.76999998
   14.56694412   83.61489868    4.90999985    1.78999996
   14.57027817  127.16799927    4.90999985    1.80999994
   14.57611084  127.16799927    4.90999985    1.76999998
   14.58027744   91.49310303    4.90999985    1.73000002
   14.58361053   60.60499954    4.90999985    1.69000006
   14.58666611   93.61969757    4.90999985    1.73000002
   14.59000015   83.12539673    4.90999985    1.75000000
   14.59333324   75.51460266    4.90999985    1.75000000
   14.59416676   92.41030121    4.90999985    1.76999998
   14.59694386   84.77330017    4.90999985    1.76999998
   14.60000038   58.19070053    4.90999985    1.75000000
   14.60333347   36.97999954    4.90999985    1.75000000
   14.60638905   -1.00000000    4.90999985    1.71000004
   14.60972214   -1.00000000    4.90999985    1.71000004
   14.61305618   71.36129761    4.90999985    1.71000004
   14.61916637   71.36129761    4.90999985    1.73000002
   14.62305546   -1.00000000    4.90999985    1.69000006
   14.62638855   -1.00000000    4.90999985    1.66999996
   14.63000011   -1.00000000    4.90999985    1.66999996
   14.63333321   -1.00000000   -1.00000000   -1.00000000
   14.63638878   -1.00000000    4.90999985    1.66999996
   14.63972187   58.13000107    4.90999985    1.64999998
   14.64305496   58.36700058    4.90999985    1.69000006
   14.64611053   49.86679840    4.90999985    1.69000006
   14.64944458   30.32399940    4.90999985    1.66999996
   14.65277767   23.57019997    4.90999985    1.66999996
   14.65583324   35.89149857    4.90999985    1.64999998
   14.66194439   35.89149857    4.90999985    1.63000000
   14.66611099   -1.00000000   -1.00000000   -1.00000000
   14.66916656   -1.00000000    4.90999985    1.63000000
   14.67250061   -1.00000000    4.90999985    1.61000001
   14.67555618   -1.00000000    4.90999985    1.63000000
   14.67888927   -1.00000000   -1.00000000   -1.00000000
   14.68222237   -1.00000000   -1.00000000   -1.00000000
   14.68527794   -1.00000000    4.90999985    1.63000000
   14.68861103   -1.00000000    4.90999985    1.61000001
   14.69194412   -1.00000000   -1.00000000   -1.00000000
   14.69527817   -1.00000000    4.90999985    1.60000002
   14.69861126   -1.00000000    4.90999985    1.60000002
   14.70472240   -1.00000000    4.90999985    1.51999998
   14.70888901   -1.00000000    4.90999985    1.51999998
   14.71194458   -1.00000000    4.90999985    1.50000000
   14.71527767   -1.00000000    4.90999985    1.51999998
   14.71861076   -1.00000000    4.90999985    1.51999998
   14.72166634   -1.00000000    4.90999985    1.51999998
   14.72499943   -1.00000000    4.90999985    1.51999998
   14.72861099   -1.00000000    4.90999985    1.48000002
   14.73194408   -1.00000000    4.90999985    1.48000002
   14.73500061   -1.00000000    4.90999985    1.48000002
   14.73833370   -1.00000000    4.90999985    1.48000002
   14.74166679   -1.00000000    4.90999985    1.44000006
   14.74750042   -1.00000000    4.90999985    1.46000004
   14.75166702   -1.00000000    4.90999985    1.50000000
   14.75500011   -1.00000000    4.90999985    1.50000000
   14.75805569   -1.00000000    4.90999985    1.46000004
   14.76166630   -1.00000000    4.90999985    1.46000004
   14.76500034   -1.00000000    4.90999985    1.48000002
   14.76805496   -1.00000000    4.90999985    1.46000004
   14.77138901   -1.00000000    4.90999985    1.41999996
   14.77472210   -1.00000000    4.90999985    1.46000004
   14.77777767   -1.00000000    4.90999985    1.50000000
   14.78111076   -1.00000000    4.90999985    1.55999994
   14.78416729   -1.00000000    4.90999985    1.55999994
   14.79027843   -1.00000000    4.90999985    1.50000000
   14.79444504   -1.00000000    4.90999985    1.50000000
   14.79777813   -1.00000000    4.90999985    1.50000000
   14.80111122   -1.00000000    4.90999985    1.44000006
   14.80416679   -1.00000000    4.90999985    1.39999998
   14.80749989   -1.00000000    4.90999985    1.41999996
   14.81055546   -1.00000000    4.90999985    1.38000000
   14.81388950   -1.00000000    4.90999985    1.38000000
   14.81722260   -1.00000000    4.90999985    1.36000001
   14.82027817   -1.00000000    4.90999985    1.30999994
   14.82361126   -1.00000000    4.90999985    1.36000001
   14.82694435   -1.00000000    4.90999985    1.33000004
   14.83722210   -1.00000000    4.90999985    1.25000000
   14.84055519   -1.00000000    4.90999985    1.25000000
   14.84361076   -1.00000000    4.90999985    1.26999998
   14.84694386   -1.00000000    4.90999985    1.26999998
   14.85027790   -1.00000000    4.90999985    1.28999996
   14.85333347   -1.00000000    4.90999985    1.30999994
   14.85666752   -1.00000000    4.90999985    1.33000004
   14.86000061   -1.00000000    4.90999985    1.26999998
   14.86333370   -1.00000000    4.90999985    1.28999996
   14.86666679   -1.00000000    4.90999985    1.25000000
   14.86972237   -1.00000000    4.90999985    1.25000000
   14.88000011   -1.00000000    4.90999985    1.05999994
   14.88333321   -1.00000000    4.90999985    1.01999998
   14.88666630   -1.00000000    4.90999985    1.00000000
   14.88972187   -1.00000000    4.90999985    1.07000005
   14.89305496   -1.00000000    4.90999985    1.14999998
   14.89638901   -1.00000000    4.90999985    1.21000004
   14.89972210   -1.00000000    4.90999985    1.14999998
   14.90277767   -1.00000000    4.90999985    1.16999996
   14.90611076   -1.00000000    4.90999985    1.16999996
   14.90944386   -1.00000000    4.90999985    1.13000000
   14.91249943   -1.00000000    4.90999985    1.09000003
   14.92305565   -1.00000000    4.90999985    1.00000000
   14.92611122   -1.00000000    4.90999985    0.98000002
   14.92972279   -1.00000000    4.90999985    0.95999998
   14.93305588   -1.00000000    4.90999985    0.95999998
   14.93638897   -1.00000000    4.90999985    0.89999998
   14.93944454   -1.00000000    4.90999985    0.83999997
   14.94277763   -1.00000000    4.90999985    0.80000001
   14.94583321   -1.00000000    4.90999985    0.76999998
   14.94916630   -1.00000000    4.90999985    0.76999998
   14.95249939   -1.00000000    4.90999985    0.70999998
   14.95555496   -1.00000000    4.90999985    0.76999998
   14.96583271   -1.00000000    4.90999985    0.75000000
   14.96916580   -1.00000000    4.90999985    0.69000000
   14.97222137   -1.00000000    4.90999985    0.64999998
   14.97555542   -1.00000000    4.90999985    0.63000000
   14.97888851   -1.00000000    4.90999985    0.63000000
   14.98194408   -1.00000000    4.90999985    0.63000000
   14.98527813   -1.00000000    4.90999985    0.61000001
   14.98833370   -1.00000000    4.90999985    0.58999997
   14.99166679   -1.00000000    4.90999985    0.56999999
   14.99527836   -1.00000000    4.90999985    0.55000001
   14.99861145   -1.00000000    4.90999985    0.51999998
   15.00861073   -1.00000000    4.90999985    0.47999999
   15.01194477   -1.00000000    4.90999985    0.41999999
   15.01527786   -1.00000000    4.90999985    0.40000001
   15.01833344   -1.00000000    4.90999985    0.36000001
   15.02166653   -1.00000000    4.90999985    0.36000001
   15.02472210   -1.00000000    4.90999985    0.38000000
   15.02833271   -1.00000000    4.90999985    0.44000000
   15.03166676   -1.00000000    4.90999985    0.44000000
   15.03472233   -1.00000000    4.90999985    0.44000000
   15.03805637   -1.00000000    4.90999985    0.44000000
   15.04138947   -1.00000000    4.90999985    0.38000000
   15.05166721   -1.00000000    4.90999985    0.31999999
   15.05472279   -1.00000000    4.90999985    0.30000001
   15.05805588   -1.00000000    4.90999985    0.30000001
   15.06138897   -1.00000000    4.90999985    0.36000001
   15.06472206   -1.00000000    4.90999985    0.38000000
   15.06777763   -1.00000000    4.90999985    0.38000000
   15.07111073   -1.00000000    4.90999985    0.36000001
   15.07444477   -1.00000000    4.90999985    0.34000000
   15.07750034   -1.00000000    4.90999985    0.31999999
   15.08083344   -1.00000000    4.90999985    0.30000001
   15.08416653   -1.00000000    4.90999985    0.28000000
   15.09444427   -1.00000000    4.90999985    0.28000000
   15.09749985   -1.00000000    4.90999985    0.28000000
   15.10083389   -1.00000000    4.90999985    0.25999999
   15.10416698   -1.00000000    4.90999985    0.25999999
   15.10722256   -1.00000000    4.90999985    0.25999999
   15.11055565   -1.00000000    4.90999985    0.25999999
   15.11388969   -1.00000000    4.90999985    0.25999999
   15.11694431   -1.00000000    4.90999985    0.23000000
   15.12027836   -1.00000000    4.90999985    0.23000000
   15.12333393   -1.00000000    4.90999985    0.23000000
   15.12666702   -1.00000000    4.90999985    0.25000000
   15.13722229   -1.00000000    4.90999985    0.25999999
   15.14055538   -1.00000000    4.90999985    0.28000000
   15.14361095   -1.00000000    4.90999985    0.30000001
   15.16333294   -1.00000000    4.90999985    0.31999999
   15.16666698   -1.00000000    4.90999985    0.31999999
   15.17000008   -1.00000000    4.90999985    0.28000000
   15.18027782   -1.00000000    4.90999985    0.28000000
   15.18361092   -1.00000000    4.90999985    0.25999999
   15.18666649   -1.00000000    4.90999985    0.25000000
   15.19000053   -1.00000000    4.90999985    0.23000000
   15.19333363   -1.00000000    4.90999985    0.20999999
   15.19666672   -1.00000000    4.90999985    0.20999999
   15.19999981   -1.00000000    4.90999985    0.20999999
   15.20305538   -1.00000000    4.90999985    0.19000000
   15.20638847   -1.00000000    4.90999985    0.15000001
   15.20972157   -1.00000000    4.90999985    0.15000001
   15.21277714   -1.00000000    4.90999985    0.17000000
   15.22305489   -1.00000000    4.90999985    0.13000000
   15.22638798   -1.00000000    4.90999985    0.13000000
   15.22999954   -1.00000000    4.90999985    0.15000001
   15.23333359   -1.00000000    4.90999985    0.17000000
   15.23638916   -1.00000000    4.90999985    0.17000000
   15.23972225   -1.00000000    4.90999985    0.19000000
   15.24305534   -1.00000000    4.90999985    0.23000000
   15.24611092   -1.00000000    4.90999985    0.23000000
   15.24944496   -1.00000000    4.90999985    0.23000000
   15.25249958   -1.00000000    4.90999985    0.23000000
   15.25583363   -1.00000000    4.90999985    0.25000000
   15.26611137   -1.00000000    4.90999985    0.28000000
   15.26916599   -1.00000000    4.90999985    0.30000001
   15.27250004   -1.00000000    4.90999985    0.28000000
   15.27583313   -1.00000000    4.90999985    0.36000001
   15.27888870   -1.00000000    4.90999985    0.47999999
   15.28222179   -1.00000000    4.90999985    0.56999999
   15.28555584   -1.00000000    4.90999985    0.67000002
   15.28861141   -1.00000000    4.90999985    0.89999998
   15.29194450   -1.00000000    4.90999985    0.92000002
   15.29500008   -1.00000000    4.90999985    0.94000000
   15.29861164   -1.00000000    4.90999985    0.94000000
   15.30888939   -1.00000000    4.90999985    0.88000000
   15.31222248   -1.00000000    4.90999985    0.98000002
   15.31527805   -1.00000000    4.90999985    1.01999998
   15.31861115   -1.00000000    4.90999985    1.03999996
   15.32194424   -1.00000000    4.90999985    1.03999996
   15.32499981   -1.00000000    4.90999985    1.03999996
   15.32833290   -1.00000000    4.90999985    1.05999994
   15.33166695   -1.00000000    4.90999985    1.07000005
   15.33500004   -1.00000000    4.90999985    1.09000003
   15.33833313   -1.00000000    4.90999985    1.05999994
   15.34138870   -1.00000000    4.90999985    1.05999994
   15.35166740   -1.00000000    4.90999985    1.07000005
   15.35500050   -1.00000000    4.90999985    1.09000003
   15.35833359   -1.00000000    4.90999985    1.16999996
   15.36138916   -1.00000000    4.90999985    1.30999994
   15.36500072   -1.00000000    4.90999985    1.36000001
   15.36833382   -1.00000000    4.90999985    1.38000000
   15.37138939   -1.00000000    4.90999985    1.38000000
   15.37472248   -1.00000000    4.90999985    1.44000006
   15.37805557   -1.00000000    4.90999985    1.51999998
   15.38111115   -1.00000000    4.90999985    1.53999996
   15.38444424   -1.00000000    4.90999985    1.48000002
   15.39055538   -1.00000000    4.90999985    1.48000002
   15.39472198   -1.00000000    4.90999985    1.51999998
   15.39805508   -1.00000000    4.90999985    1.55999994
   15.40138817   -1.00000000    4.90999985    1.51999998
   15.40444374   -1.00000000    4.90999985    1.50000000
   15.40777779   -1.00000000    4.90999985    1.50000000
   15.41111088   -1.00000000    4.90999985    1.50000000
   15.41416645   -1.00000000    4.90999985    1.46000004
   15.41750050   -1.00000000    4.90999985    1.41999996
   15.42055607   -1.00000000    4.90999985    1.41999996
   15.42388916   -1.00000000    4.90999985    1.38000000
   15.42722225   -1.00000000    4.90999985    1.39999998
   15.43333340   -1.00000000    4.90999985    1.41999996
   15.43750000   -1.00000000    4.90999985    1.46000004
   15.44083309   -1.00000000    4.90999985    1.46000004
   15.44388866   -1.00000000    4.90999985    1.55999994
   15.44722271   -1.00000000    4.90999985    1.50000000
   15.45055580   -1.00000000    4.90999985    1.58000004
   15.45361137   -1.00000000    4.90999985    1.66999996
   15.45694447   -1.00000000    4.90999985    1.75000000
   15.46027756   -1.00000000    4.90999985    1.73000002
   15.46333313   -1.00000000    4.90999985    1.69000006
   15.46694374   -1.00000000    4.90999985    1.71000004
   15.46999931   -1.00000000    4.90999985    1.76999998
   15.48027706   -1.00000000    4.90999985    1.39999998
   15.48361111   -1.00000000    4.90999985    1.38000000
   15.48666668   -1.00000000    4.90999985    1.38000000
   15.49000072   -1.00000000    4.90999985    1.50000000
   15.49333382   -1.00000000    4.90999985    1.60000002
   15.49638939   33.33330154    4.90999985    1.73000002
   15.50000000   38.34820175    4.90999985    1.80999994
   15.50305557   -1.00000000    4.90999985    1.78999996
   15.50638866   -1.00000000    4.90999985    1.71000004
   15.50972176   -1.00000000    4.90999985    1.61000001
   15.51277733   -1.00000000    4.90999985    1.63000000
   15.51916599   -1.00000000    4.90999985    1.91999996
   15.52333355  291.35400391    4.90999985    2.05999994
   15.52638817  258.24600220    4.90999985    2.05999994
   15.52972221  288.22799683    4.90999985    2.05999994
   15.53111076  303.32299805    4.90999985    2.07999992
   15.53333378  298.51400757    4.90999985    2.07999992
   15.53666687  296.03799438    4.90999985    2.11999989
   15.53972244  278.65100098    4.90999985    2.13000011
   15.54305553  314.66198730    4.90999985    2.13000011
   15.54638958  332.87701416    4.90999985    2.11999989
   15.54944515  199.48599243    4.90999985    2.03999996
   15.55277824  284.82901001    4.90999985    1.96000004
   15.55583382  327.09500122    4.90999985    2.05999994
   15.56194496  327.09500122    4.90999985    2.03999996
   15.56611156  198.08000183    4.90999985    2.03999996
   15.56916618  172.66200256    4.90999985    2.01999998
   15.57250023  133.41099548    4.90999985    1.98000002
   15.57583332  159.88099670    4.90999985    1.94000006
   15.57888889  134.00700378    4.90999985    2.00000000
   15.58222198  300.54699707    4.90999985    2.00000000
   15.58555508  306.64898682    4.90999985    2.15000010
   15.58861065  281.19400024    4.90999985    2.13000011
   15.59194374  345.48199463    4.90999985    2.15000010
   15.59499931  147.24499512    4.90999985    2.11999989
   15.59777737   87.59329987    4.90999985    1.96000004
   15.59888840  147.46200562    4.90999985    1.94000006
   15.60472298  147.46200562    4.90999985    1.98000002
   15.60888958  159.89900208    4.90999985    1.91999996
   15.61222267  180.00599670    4.90999985    2.00000000
   15.61527824  292.49499512    4.90999985    2.03999996
   15.61861134  265.65499878    4.90999985    2.17000008
   15.62194443  268.72799683    4.90999985    2.17000008
   15.62500000  263.81100464    4.90999985    2.19000006
   15.62833309  264.14300537    4.90999985    2.21000004
   15.63111115  284.72601318    4.90999985    2.17000008
   15.63194466  247.35099792    4.90999985    2.17000008
   15.63527775  263.25399780    4.90999985    2.17000008
   15.63833332  235.04299927    4.90999985    2.19000006
   15.64166641  204.85899353    4.90999985    2.23000002
   15.64777756  204.85899353    4.90999985    2.25000000
   15.65166664  205.14999390    4.90999985    2.21000004
   15.65499973  224.22700500    4.90999985    2.19000006
   15.65833282  187.68499756    4.90999985    2.23000002
   15.66138840  255.36099243    4.90999985    2.21000004
   15.66444397  200.93800354    4.90999985    2.19000006
   15.66527748  198.39900208    4.90999985    2.21000004
   15.66833401  219.99899292    4.90999985    2.30999994
   15.67166710  235.10200500    4.90999985    2.28999996
   15.67472267  230.47900391    4.90999985    2.26999998
   15.67805576  227.29800415    4.90999985    2.23000002
   15.68138885  239.59399414    4.90999985    2.25000000
   15.68444443  218.20399475    4.90999985    2.28999996
   15.69055557  218.20399475    4.90999985    2.30999994
   15.69472218  198.47300720    4.90999985    2.34999990
   15.69777775  221.68200684    4.90999985    2.30999994
   15.69833374  219.37100220    4.90999985    2.30999994
   15.70166683  242.51300049    4.90999985    2.26999998
   15.70472240  274.09899902    4.90999985    2.17000008
   15.70805550  187.74000549    4.90999985    2.23000002
   15.71111107  193.09500122    4.90999985    2.28999996
   15.71444416  240.00700378    4.90999985    2.25000000
   15.71777725  258.17401123    4.90999985    2.23000002
   15.72083282  258.32299805    4.90999985    2.09999990
   15.72416592  144.96899414    4.90999985    2.00000000
   15.72749996  117.59799957    4.90999985    2.00000000
   15.73333359  117.59799957    4.90999985    1.89999998
   15.73750019   66.84670258    4.90999985    1.85000002
   15.74055576   -1.00000000    4.90999985    1.80999994
   15.74388885   36.90950012    4.90999985    1.80999994
   15.74722290  139.75599670    4.90999985    1.86000001
   15.75027752  134.89199829    4.90999985    1.98000002
   15.75361156  144.64700317    4.90999985    1.96000004
   15.75694466   -1.00000000    4.90999985    1.88000000
   15.76000023   -1.00000000    4.90999985    1.64999998
   15.76333332   -1.00000000    4.90999985    1.61000001
   15.76694393   -1.00000000    4.90999985    1.58000004
   15.76999950   -1.00000000    4.90999985    1.75000000
   15.77611065   -1.00000000    4.90999985    1.80999994
   15.78027725   -1.00000000   -1.00000000   -1.00000000
   15.78361130   -1.00000000    4.90999985    1.83000004
   15.78666687   -1.00000000    4.90999985    1.80999994
   15.79000092   -1.00000000    4.90999985    1.78999996
   15.79333401   -1.00000000    4.90999985    1.69000006
   15.79638958  145.60200500    4.90999985    1.91999996
   15.79805565  138.61500549    4.90999985    1.96000004
   15.80000019   96.38819885    4.90999985    1.98000002
   15.80333328  137.90800476    4.90999985    1.91999996
   15.80666733  143.51899719    4.90999985    1.96000004
   15.80972195  105.15599823    4.90999985    2.00000000
   15.81305599  150.09199524    4.90999985    1.94000006
   15.81888866  150.09199524    4.90999985    2.05999994
   15.82305527  264.76699829    4.90999985    2.15000010
   15.82638836  272.82998657    4.90999985    2.13000011
   15.82972240  255.80799866    4.90999985    2.13000011
   15.83138847  272.41198730    4.90999985    2.13000011
   15.83333302  221.11900330    4.90999985    2.09999990
   15.83638859  191.85800171    4.90999985    2.17000008
   15.83972168  196.24800110    4.90999985    2.23000002
   15.84305477  215.58900452    4.90999985    2.23000002
   15.84611034  208.22599792    4.90999985    2.26999998
   15.84944439  194.46400452    4.90999985    2.26999998
   15.85249996  241.33799744    4.90999985    2.25000000
   15.85583401  250.67399597    4.90999985    2.21000004
   15.86194515  250.67399597    4.90999985    2.17000008
   15.86611176  278.76400757    4.90999985    2.09999990
   15.86916637  330.55200195    4.90999985    2.09999990
   15.87250042  280.91101074    4.90999985    2.05999994
   15.87555599  306.39001465    4.90999985    2.07999992
   15.87888908  277.94299316    4.90999985    2.11999989
   15.88222218  243.43699646    4.90999985    2.17000008
   15.88527775  213.25199890    4.90999985    2.15000010
   15.88861084  235.73800659    4.90999985    2.21000004
   15.89194393  187.28500366    4.90999985    2.26999998
   15.89499950  184.99400330    4.90999985    2.30999994
   15.89805508  185.24800110    4.90999985    2.30999994
   15.89888859  194.86500549    4.90999985    2.30999994
   15.90472221  194.86500549    4.90999985    2.28999996
   15.90888882  198.21600342    4.90999985    2.21000004
   15.91194439  190.67399597    4.90999985    2.28999996
   15.91527748  218.45700073    4.90999985    2.28999996
   15.91861153  191.66400146    4.90999985    2.23000002
   15.92166710  225.23699951    4.90999985    2.25000000
   15.92500019  259.27099609    4.90999985    2.13000011
   15.92833328  212.92199707    4.90999985    2.05999994
   15.93138885  144.68299866    4.90999985    2.00000000
   15.93194485  135.86000061    4.90999985    1.98000002
   15.93500042  247.02799988    4.90999985    1.96000004
   15.93833351  119.13500214    4.90999985    2.01999998
   15.94166660  324.23098755    4.90999985    1.91999996
   15.94750023  324.23098755    4.90999985    2.05999994
   15.95166683  167.28199768    4.90999985    2.01999998
   15.95499992  178.48399353    4.90999985    1.96000004
   15.95805550  326.08999634    4.90999985    2.05999994
   15.96138859  305.23098755    4.90999985    2.11999989
   15.96472168  168.25700378    4.90999985    2.19000006
   15.96500015  166.57600403    4.90999985    2.28999996
   15.96833324  161.60299683    4.90999985    2.42000008
   15.97166634  157.56199646    4.90999985    2.46000004
   15.97472191  160.39300537    4.90999985    2.42000008
   15.97805500  173.58900452    4.90999985    2.42000008
   15.98138809  204.00700378    4.90999985    2.36999989
   15.98444462  204.04299927    4.90999985    2.28999996
   15.99027824  204.04299927    4.90999985    2.32999992
   15.99444485  186.93600464    4.90999985    2.34999990
   15.99777794  178.54899597    4.90999985    2.30999994
   15.99861145  174.38299561    4.90999985    2.30999994
   16.00138855  186.23300171    4.90999985    2.32999992
   16.00472260  168.52499390    4.90999985    2.32999992
   16.00777817  166.87600708    4.90999985    2.36999989
   16.01111031  171.84100342    4.90999985    2.34999990
   16.01444435  168.89300537    4.90999985    2.39000010
   16.01749992  164.67900085    4.90999985    2.42000008
   16.02083397  171.93499756    4.90999985    2.39000010
   16.02416611  164.48300171    4.90999985    2.39000010
   16.02722168  179.79299927    4.90999985    2.34999990
   16.03333282  179.79299927    4.90999985    2.32999992
   16.03750038  180.57099915    4.90999985    2.32999992
   16.04055595  207.35400391    4.90999985    2.25000000
   16.04388809  204.53599548    4.90999985    2.26999998
   16.04694366  172.90199280    4.90999985    2.32999992
   16.05027771  191.01800537    4.90999985    2.32999992
   16.05360985  154.07800293    4.90999985    2.34999990
   16.05666542  157.18499756    4.90999985    2.39000010
   16.05999947  140.81399536    4.90999985    2.46000004
   16.06333351  170.80599976    4.90999985    2.48000002
   16.06527710  157.62300110    4.90999985    2.48000002
   16.06694603  177.67399597    4.90999985    2.48000002
   16.07027817  161.69400024    4.90999985    2.44000006
   16.07611275  161.69400024    4.90999985    2.42000008
   16.08027840  168.46699524    4.90999985    2.44000006
   16.08333397  149.70799255    4.90999985    2.46000004
   16.08666801  150.05700684    4.90999985    2.46000004
   16.09000015  150.97300720    4.90999985    2.50000000
   16.09305573  155.27900696    4.90999985    2.46000004
   16.09638977  171.61000061    4.90999985    2.46000004
   16.09861183  146.91299438    4.90999985    2.48000002
   16.10000038  167.77200317    4.90999985    2.50000000
   16.10333443  159.46099854    4.90999985    2.46000004
   16.10639000  151.68800354    4.90999985    2.51999998
   16.10972214  151.73300171    4.90999985    2.50000000
   16.11305618  159.22399902    4.90999985    2.51999998
   16.11888885  159.22399902    4.90999985    2.48000002
   16.12305641  164.91099548    4.90999985    2.46000004
   16.12638855  131.41799927    4.90999985    2.48000002
   16.12944412  139.95899963    4.90999985    2.50000000
   16.13194466  147.40800476    4.90999985    2.48000002
   16.13305473  157.48300171    4.90999985    2.46000004
   16.13638878  143.52900696    4.90999985    2.44000006
   16.13944435  146.02600098    4.90999985    2.50000000
   16.14277840  130.17700195    4.90999985    2.53999996
   16.14611053  142.59899902    4.90999985    2.53999996
   16.14916611  143.59199524    4.90999985    2.53999996
   16.15250015  150.62300110    4.90999985    2.53999996
   16.15583229  127.27700043    4.90999985    2.55999994
   16.16166687  127.27700043    4.90999985    2.51999998
   16.18027687  138.08000183    4.90999985    2.53999996
   16.18333244  139.73599243    4.90999985    2.57999992
   16.18666649  142.06500244    4.90999985    2.53999996
   16.18972206  135.75700378    4.90999985    2.53999996
   16.19305420  137.13400269    4.90999985    2.50000000
   16.19638824  157.47799683    4.90999985    2.53999996
   16.19944382  137.16799927    4.90999985    2.55999994
   16.20499992  137.16799927    4.90999985    2.57999992
   16.20888901  135.43400574    4.90999985    2.57999992
   16.21222305  157.87300110    4.90999985    2.55999994
   16.21333504  139.44099426    4.90999985    2.53999996
   16.21583366  138.13000488    4.90999985    2.51999998
   16.21916771  139.65600586    4.90999985    2.48000002
   16.22222328  136.73800659    4.90999985    2.50000000
   16.22555542  137.79600525    4.90999985    2.46000004
   16.22888947  142.29200745    4.90999985    2.46000004
   16.23194504  173.66499329    4.90999985    2.44000006
   16.23527718  196.44299316    4.90999985    2.40000010
   16.23861122  172.65299988    4.90999985    2.30999994
   16.24166679  192.99099731    4.90999985    2.25000000
   16.24777794  192.99099731    4.90999985    2.23000002
   16.25194359  278.71798706    4.90999985    2.21000004
   16.25499916  225.28700256    4.90999985    2.19000006
   16.25833321  213.82699585    4.90999985    2.23000002
   16.26138878  154.13400269    4.90999985    2.21000004
   16.26472282  182.00399780    4.90999985    2.32999992
   16.26805496  206.08099365    4.90999985    2.30999994
   16.27111053  364.08898926    4.90999985    2.23000002
   16.27444458  148.26600647    4.90999985    2.07999992
   16.27777672  227.83599854    4.90999985    1.91999996
   16.28000069  244.91400146    4.90999985    2.01999998
   16.28111076  234.51300049    4.90999985    2.09999990
   16.28444481  195.14599609    4.90999985    2.17000008
   16.29055595  195.14599609    4.90999985    2.30999994
   16.29472160  172.20300293    4.90999985    2.30999994
   16.29777718  230.75399780    4.90999985    2.25000000
   16.30111122  181.43299866    4.90999985    2.15000010
   16.30444336  173.16600037    4.90999985    2.28999996
   16.30749893  159.46699524    4.90999985    2.32999992
   16.31083298  156.11599731    4.90999985    2.36999989
   16.31333351  152.96200562    4.90999985    2.42000008
   16.31444359  152.37800598    4.90999985    2.42000008
   16.31777954  143.83799744    4.90999985    2.46000004
   16.32083511  150.97399902    4.90999985    2.44000006
   16.32416725  164.11599731    4.90999985    2.44000006
   16.32750130  185.07800293    4.90999985    2.39000010
   16.33333397  185.07800293    4.90999985    2.39000010
   16.33750153  148.46000671    4.90999985    2.39000010
   16.34083366  142.18499756    4.90999985    2.40000010
   16.34388924  138.80099487    4.90999985    2.42000008
   16.34666824  148.53500366    4.90999985    2.44000006
   16.34749985  170.13499451    4.90999985    2.44000006
   16.35083389  132.13800049    4.90999985    2.44000006
   16.35388947  134.60000610    4.90999985    2.44000006
   16.35722351  134.31700134    4.90999985    2.48000002
   16.36055565  127.39600372    4.90999985    2.48000002
   16.36361122  151.49099731    4.90999985    2.48000002
   16.36694527  147.70599365    4.90999985    2.48000002
   16.37027740  158.84700012    4.90999985    2.48000002
   16.37611198  158.84700012    4.90999985    2.48000002
   16.38027763  142.37399292    4.90999985    2.48000002
   16.38361168  149.48199463    4.90999985    2.46000004
   16.38694382  161.91000366    4.90999985    2.44000006
   16.38999939  139.37199402    4.90999985    2.44000006
   16.39333344  144.20899963    4.90999985    2.46000004
   16.39638901  142.10400391    4.90999985    2.50000000
   16.39972115  135.69799805    4.90999985    2.50000000
   16.40305519  145.61199951    4.90999985    2.50000000
   16.40611076  135.92300415    4.90999985    2.50000000
   16.40944481  135.36000061    4.90999985    2.51999998
   16.41277695  136.28799438    4.90999985    2.48000002
   16.41333389  137.84100342    4.90999985    2.48000002
   16.41916656  137.84100342    4.90999985    2.50000000
   16.42333221  125.37999725    4.90999985    2.46000004
   16.42638779  150.15899658    4.90999985    2.46000004
   16.42972183  150.26400757    4.90999985    2.48000002
   16.43277740  143.94799805    4.90999985    2.48000002
   16.43610954  147.16000366    4.90999985    2.50000000
   16.43944359  151.29800415    4.90999985    2.50000000
   16.44249916  138.32299805    4.90999985    2.48000002
   16.44583321  142.21299744    4.90999985    2.48000002
   16.44666672  155.44700623    4.90999985    2.48000002
   16.44944382  149.93099976    4.90999985    2.50000000
   16.45277786  138.92300415    4.90999985    2.50000000
   16.45611191  144.19599915    4.90999985    2.48000002
   16.46194458  144.19599915    4.90999985    2.46000004
   16.46611214  153.74299622    4.90999985    2.46000004
   16.46916771  149.89500427    4.90999985    2.48000002
   16.47249985  139.04100037    4.90999985    2.53999996
   16.47583389  159.83500671    4.90999985    2.53999996
   16.47888947  141.22200012    4.90999985    2.53999996
   16.48000145  148.27799988    4.90999985    2.51999998
   16.48250008  151.32800293    4.90999985    2.51999998
   16.48583412  150.51400757    4.90999985    2.50000000
   16.48916626  145.70799255    4.90999985    2.50000000
   16.49222183  156.03799438    4.90999985    2.48000002
   16.49555588  164.60600281    4.90999985    2.50000000
   16.49861145  174.24000549    4.90999985    2.50000000
   16.50472260  174.24000549    4.90999985    2.50000000
   16.50888824  162.10899353    4.90999985    2.51999998
   16.51222229  144.44700623    4.90999985    2.48000002
   16.51333427  149.38400269    4.90999985    2.48000002
   16.51555634  136.64799500    4.90999985    2.48000002
   16.51888847  150.01499939    4.90999985    2.48000002
   16.52222252  140.32600403    4.90999985    2.46000004
   16.52527809  125.82700348    4.90999985    2.50000000
   16.52861023  146.62800598    4.90999985    2.48000002
   16.53166580  145.53700256    4.90999985    2.48000002
   16.53499985  142.01499939    4.90999985    2.44000006
   16.53833199  161.14500427    4.90999985    2.44000006
   16.54138756  166.57200623    4.90999985    2.42000008
   16.54749870  166.57200623    4.90999985    2.19000006
   16.55166626  174.63400269    4.90999985    2.26999998
   16.55499840  222.42999268    4.90999985    2.28999996
   16.55833244  184.86999512    4.90999985    2.26999998
   16.56138802  187.09199524    4.90999985    2.26999998
   16.56472206  163.04200745    4.90999985    2.28999996
   16.56805611  158.93800354    4.90999985    2.30999994
   16.57111168  207.24899292    4.90999985    2.17000008
   16.57444572  219.72399902    4.90999985    2.17000008
   16.57750130  227.98199463    4.90999985    2.19000006
   16.58000183  210.34700012    4.90999985    2.15000010
   16.58111191  194.32099915    4.90999985    2.19000006
   16.58444595  235.24299622    4.90999985    2.17000008
   16.59055710  235.24299622    4.90999985    2.19000006
   16.59472275  184.91499329    4.90999985    2.26999998
   16.59777832  198.29699707    4.90999985    2.26999998
   16.60111237  174.55099487    4.90999985    2.25000000
   16.60416794  180.99899292    4.90999985    2.30999994
   16.60750008  176.89300537    4.90999985    2.28999996
   16.61083412  155.68099976    4.90999985    2.34999990
   16.61333466  143.18600464    4.90999985    2.39000010
   16.61416626  127.67600250    4.90999985    2.42000008
   16.61750031  149.60099792    4.90999985    2.48000002
   16.62083435  146.06700134    4.90999985    2.46000004
   16.62388992  152.08599854    4.90999985    2.44000006
   16.62722206  155.97799683    4.90999985    2.44000006
   16.63333321  155.97799683    4.90999985    2.48000002
   16.63750076  144.22900391    4.90999985    2.48000002
   16.64055634  143.89199829    4.90999985    2.50000000
   16.64388847  136.61300659    4.90999985    2.51999998
   16.64666748  136.44999695    4.90999985    2.55999994
   16.64749908  131.48399353    4.90999985    2.55999994
   16.65083313  137.41400146    4.90999985    2.55999994
   16.65416718  124.55799866    4.90999985    2.53999996
   16.65722275  135.55599976    4.90999985    2.55999994
   16.66055489  132.07699585    4.90999985    2.53999996
   16.66361046  126.19300079    4.90999985    2.55999994
   16.66694450  127.92099762    4.90999985    2.59999990
   16.67027664  114.98000336    4.90999985    2.59999990
   16.67611122  114.98000336    4.90999985    2.59999990
   16.68027687  134.06700134    4.90999985    2.59999990
   16.68361092  124.11199951    4.90999985    2.64000010
   16.68666649  121.31800079    4.90999985    2.61999989
   16.68999863  131.27099609    4.90999985    2.64000010
   16.69333267  122.81800079    4.90999985    2.61999989
   16.69638824  126.19799805    4.90999985    2.64000010
   16.69972038  129.14100647    4.90999985    2.61999989
   16.70277786  117.56700134    4.90999985    2.61999989
   16.70611191  121.34400177    4.90999985    2.64000010
   16.70944595  121.09700012    4.90999985    2.61999989
   16.71250153  117.71199799    4.90999985    2.61999989
   16.71333504  123.27700043    4.90999985    2.61999989
   16.71888924  123.27700043    4.90999985    2.61999989
   16.72305679  118.26399994    4.90999985    2.64000010
   16.72638893  117.07700348    4.90999985    2.64000010
   16.72972298  122.27899933    4.90999985    2.61999989
   16.73277855  132.16099548    4.90999985    2.64000010
   16.73611069  123.39099884    4.90999985    2.64000010
   16.73944473  127.50000000    4.90999985    2.64000010
   16.74250031  114.69799805    4.90999985    2.61999989
   16.74583435  122.01899719    4.90999985    2.61999989
   16.74666786  131.66999817    4.90999985    2.61999989
   16.74944496  126.23300171    4.90999985    2.57999992
   16.75277710  126.16600037    4.90999985    2.55999994
   16.75611115  119.03199768    4.90999985    2.57999992
   16.76194382  119.03199768    4.90999985    2.59999990
   16.76611137  128.19299316    4.90999985    2.55999994
   16.76916695  134.87399292    4.90999985    2.51999998
   16.77249908  126.10700226    4.90999985    2.48000002
   16.77555466  127.70099640    4.90999985    2.51999998
   16.77888870  132.99400330    4.90999985    2.55999994
   16.78000069  122.28800201    4.90999985    2.55999994
   16.78249931  132.88999939    4.90999985    2.57999992
   16.78583336  131.83999634    4.90999985    2.57999992
   16.78916550  137.61999512    4.90999985    2.57999992
   16.79222107  137.89100647    4.90999985    2.53999996
   16.79555511  120.59999847    4.90999985    2.51999998
   16.79888916  117.00499725    4.90999985    2.55999994
   16.80472183  117.00499725    4.90999985    2.61999989
   16.80888748  123.79199982    4.90999985    2.64000010
   16.81194305  126.76899719    4.90999985    2.61999989
   16.81333351  135.72500610    4.90999985    2.64000010
   16.81555557  136.31599426    4.90999985    2.61999989
   16.81888962  130.89599609    4.90999985    2.59999990
   16.82222366  136.52000427    4.90999985    2.61999989
   16.82555580  130.16999817    4.90999985    2.61999989
   16.82861137  134.21899414    4.90999985    2.61999989
   16.83194542  128.26100159    4.90999985    2.61999989
   16.83527756  128.57600403    4.90999985    2.61999989
   16.83833313  135.86799622    4.90999985    2.55999994
   16.84166718  132.22799683    4.90999985    2.55999994
   16.84749985  132.22799683    4.90999985    2.55999994
   16.85166740  124.45300293    4.90999985    2.57999992
   16.85499954  127.15200043    4.90999985    2.57999992
   16.85805511  128.02200317    4.90999985    2.55999994
   16.86138916  131.03700256    4.90999985    2.55999994
   16.86472321  131.18200684    4.90999985    2.51999998
   16.86777878  133.07400513    4.90999985    2.55999994
   16.87111092  143.44200134    4.90999985    2.55999994
   16.87416649  127.22899628    4.90999985    2.55999994
   16.87750053  128.87100220    4.90999985    2.57999992
   16.88000107  126.56400299    4.90999985    2.59999990
   16.88111115  133.29800415    4.90999985    2.59999990
   16.88444519  126.37200165    4.90999985    2.59999990
   16.89027786  126.37200165    4.90999985    2.57999992
   16.89444351  134.57899475    4.90999985    2.57999992
   16.89777756  132.73599243    4.90999985    2.59999990
   16.90111160  123.53900146    4.90999985    2.57999992
   16.90416718  140.40199280    4.90999985    2.57999992
   16.90749931  124.14800262    4.90999985    2.59999990
   16.91055489  133.32200623    4.90999985    2.57999992
   16.91333389  129.49400330    4.90999985    2.55999994
   16.91416550  132.33200073    4.90999985    2.57999992
   16.91749954  122.78600311    4.90999985    2.57999992
   16.92083359  133.67500305    4.90999985    2.55999994
   16.92388916  130.02400208    4.90999985    2.57999992
   16.92722130  139.58700562    4.90999985    2.57999992
   16.93333244  139.58700562    4.90999985    2.55999994
   16.93750000  123.60900116    4.90999985    2.57999992
   16.94055557  134.57499695    4.90999985    2.59999990
   16.94388771  148.85499573    4.90999985    2.59999990
   16.94666672  136.05900574    4.90999985    2.59999990
   16.94722176  134.76600647    4.90999985    2.57999992
   16.95055580  127.97699738    4.90999985    2.57999992
   16.95388985  131.85400391    4.90999985    2.57999992
   16.95694542  127.09999847    4.90999985    2.59999990
   16.96027946  130.64199829    4.90999985    2.53999996
   16.96361160  121.31300354    4.90999985    2.59999990
   16.96666718  123.45800018    4.90999985    2.59999990
   16.97000122  133.29600525    4.90999985    2.59999990
   16.97611237  133.29600525    4.90999985    2.57999992
   16.98027802  133.10699463    4.90999985    2.50000000
   16.98333359  166.44999695    4.90999985    2.51999998
   16.98666763  140.42199707    4.90999985    2.53999996
   16.98999977  150.35000610    4.90999985    2.51999998
   16.99305534  132.94700623    4.90999985    2.53999996
   16.99638939  151.26600647    4.90999985    2.53999996
   16.99972153  137.83999634    4.90999985    2.51999998
   17.00277710  134.24099731    4.90999985    2.50000000
   17.00611115  132.20100403    4.90999985    2.51999998
   17.00916672  141.76300049    4.90999985    2.51999998
   17.01250076  155.96600342    4.90999985    2.51999998
   17.01333427  141.92100525    4.90999985    2.51999998
   17.01888847  141.92100525    4.90999985    2.51999998
   17.02305603  165.25100708    4.90999985    2.51999998
   17.02638817  160.68200684    4.90999985    2.55999994
   17.02944374  178.85800171    4.90999985    2.51999998
   17.03277779  152.52900696    4.90999985    2.39000010
   17.03610992  155.11099243    4.90999985    2.48000002
   17.03916550  154.44200134    4.90999985    2.46000004
   17.04249954  150.33799744    4.90999985    2.40000010
   17.04555511  183.89199829    4.90999985    2.40000010
   17.04666710  179.78900146    4.90999985    2.36999989
   17.04944420  177.19000244    4.90999985    2.34999990
   17.05249977  162.98399353    4.90999985    2.36999989
   17.05583191  165.78900146    4.90999985    2.34999990
   17.06166649  165.78900146    4.90999985    2.42000008
   17.06583214  165.96400452    4.90999985    2.40000010
   17.06916809  176.18299866    4.90999985    2.42000008
   17.07250023  163.88200378    4.90999985    2.46000004
   17.07555580  158.85299683    4.90999985    2.46000004
   17.07888985  164.30099487    4.90999985    2.44000006
   17.08000183  158.38200378    4.90999985    2.46000004
   17.08250046  155.86300659    4.90999985    2.42000008
   17.08555603  174.60099792    4.90999985    2.46000004
   17.08889008  179.63600159    4.90999985    2.46000004
   17.09194565  165.80000305    4.90999985    2.44000006
   17.09527779  161.43200684    4.90999985    2.42000008
   17.09861183  181.11199951    4.90999985    2.42000008
   17.10472298  181.11199951    4.90999985    2.40000010
   17.10888863  178.01899719    4.90999985    2.44000006
   17.11194420  195.05900574    4.90999985    2.42000008
   17.11333466  185.14999390    4.90999985    2.40000010
   17.11583328  202.96000671    4.90999985    2.40000010
   17.11888885  203.75900269    4.90999985    2.36999989
   17.12222290  187.96000671    4.90999985    2.34999990
   17.12527847  205.47099304    4.90999985    2.32999992
   17.12861061  189.25700378    4.90999985    2.34999990
   17.13194466  212.40899658    4.90999985    2.36999989
   17.13500023  181.52900696    4.90999985    2.39000010
   17.13833237  214.41299438    4.90999985    2.36999989
   17.14166641  181.51400757    4.90999985    2.36999989
   17.14749908  181.51400757    4.90999985    2.42000008
   17.15166664  172.98199463    4.90999985    2.44000006
   17.15472221  166.08599854    4.90999985    2.46000004
   17.15805435  169.90699768    4.90999985    2.46000004
   17.16138840  172.86099243    4.90999985    2.46000004
   17.16444397  180.17300415    4.90999985    2.46000004
   17.16777802  168.08500671    4.90999985    2.44000006
   17.17111015  165.71899414    4.90999985    2.42000008
   17.17416573  157.97099304    4.90999985    2.40000010
   17.17749977  166.67199707    4.90999985    2.42000008
   17.18000031  177.51100159    4.90999985    2.44000006
   17.20055580  177.51100159    4.90999985    2.36999989
   17.20472336  184.75100708    4.90999985    2.30999994
   17.20805550  173.68600464    4.90999985    2.32999992
   17.21111107  165.24400330    4.90999985    2.39000010
   17.21333504  187.41700745    4.90999985    2.40000010
   17.21500015  163.62699890    4.90999985    2.40000010
   17.21805573  155.70700073    4.90999985    2.44000006
   17.22138977  173.49800110    4.90999985    2.44000006
   17.22472191  155.77000427    4.90999985    2.44000006
   17.22777748  156.05499268    4.90999985    2.44000006
   17.23111153  155.24400330    4.90999985    2.44000006
   17.23416710  152.95300293    4.90999985    2.39000010
   17.23750114  173.84800720    4.90999985    2.42000008
   17.24333382  173.84800720    4.90999985    2.40000010
   17.24749947  189.48199463    4.90999985    2.36999989
   17.25083351  215.89700317    4.90999985    2.32999992
   17.25388908  159.69700623    4.90999985    2.30999994
   17.25722313  198.43899536    4.90999985    2.30999994
   17.26055527  204.39199829    4.90999985    2.28999996
   17.26361084  179.09599304    4.90999985    2.28999996
   17.26694489  212.74299622    4.90999985    2.30999994
   17.27000046  198.95599365    4.90999985    2.25000000
   17.27333260  216.46899414    4.90999985    2.28999996
   17.27666664  204.31199646    4.90999985    2.28999996
   17.27972221  225.20399475    4.90999985    2.26999998
   17.28027725  206.36500549    4.90999985    2.26999998
   17.28610992  206.36500549    4.90999985    2.36999989
   17.29027748  189.78999329    4.90999985    2.36999989
   17.29361153  213.47399902    4.90999985    2.34999990
   17.29694366  188.14100647    4.90999985    2.32999992
   17.29999924  208.22000122    4.90999985    2.32999992
   17.30333328  257.13299561    4.90999985    2.32999992
   17.30638885  313.87701416    4.90999985    2.21000004
   17.30972099  263.45498657    4.90999985    2.17000008
   17.31305504  321.61700439    4.90999985    2.19000006
   17.31361008  280.96099854    4.90999985    2.19000006
   17.31666756  245.98899841    4.90999985    2.23000002
   17.32000160  278.20001221    4.90999985    2.23000002
   17.32305717  304.31100464    4.90999985    2.23000002
   17.32916832  304.31100464    4.90999985    2.15000010
   17.33333397  273.82998657    4.90999985    2.17000008
   17.33638954  314.68301392    4.90999985    2.17000008
   17.33972359  260.19500732    4.90999985    2.15000010
   17.34277916  232.16000366    4.90999985    2.23000002
   17.34611130  259.50201416    4.90999985    2.26999998
   17.34694481  247.21099854    4.90999985    2.26999998
   17.34972191  309.74499512    4.90999985    2.25000000
   17.35305595  269.54800415    4.90999985    2.21000004
   17.35611153  241.86900330    4.90999985    2.23000002
   17.35944557  239.10000610    4.90999985    2.25000000
   17.36250114  261.48199463    4.90999985    2.23000002
   17.36583328  211.65899658    4.90999985    2.23000002
   17.37194443  211.65899658    4.90999985    2.30999994
   17.37611198  171.29800415    4.90999985    2.36999989
   17.37916756  180.61000061    4.90999985    2.36999989
   17.38027763  193.68299866    4.90999985    2.36999989
   17.38305473  205.11300659    4.90999985    2.34999990
   17.38638878  207.44999695    4.90999985    2.30999994
   17.38944435  268.40100098    4.90999985    2.28999996
   17.39277840  271.46200562    4.90999985    2.23000002
   17.39583397  217.39900208    4.90999985    2.25000000
   17.39916611  207.47300720    4.90999985    2.28999996
   17.40250015  216.37600708    4.90999985    2.28999996
   17.40555573  217.26600647    4.90999985    2.30999994
   17.40888786  211.83599854    4.90999985    2.32999992
   17.41472244  211.83599854    4.90999985    2.34999990
   17.41888809  180.09700012    4.90999985    2.39000010
   17.42222214  217.55499268    4.90999985    2.42000008
   17.42527771  188.12399292    4.90999985    2.40000010
   17.42860985  206.75300598    4.90999985    2.40000010
   17.43194389  213.60200500    4.90999985    2.40000010
   17.43499947  209.33299255    4.90999985    2.32999992
   17.43833160  225.16099548    4.90999985    2.34999990
   17.44138718  265.50601196    4.90999985    2.23000002
   17.44472122  237.99899292    4.90999985    2.26999998
   17.44694328  252.68699646    4.90999985    2.25000000
   17.44833183  269.01400757    4.90999985    2.25000000
   17.45166779  241.53199768    4.90999985    2.23000002
   17.45750046  241.53199768    4.90999985    2.13000011
   17.46166801  193.67399597    4.90999985    2.15000010
   17.46500015  203.89300537    4.90999985    2.30999994
   17.46833420  197.50399780    4.90999985    2.30999994
   17.47138977  204.35699463    4.90999985    2.30999994
   17.47472191  214.81900024    4.90999985    2.28999996
   17.47777748  216.86900330    4.90999985    2.25000000
   17.48027802  253.42500305    4.90999985    2.25000000
   17.48166656  313.43798828    4.90999985    2.21000004
   17.48500061  293.97500610    4.90999985    2.11999989
   17.48805618  269.74398804    4.90999985    2.17000008
   17.49138832  259.00799561    4.90999985    2.19000006
   17.49444389  296.59799194    4.90999985    2.17000008
   17.50055504  296.59799194    4.90999985    2.21000004
   17.50444412  238.47500610    4.90999985    2.19000006
   17.50777817  281.19900513    4.90999985    2.21000004
   17.51111031  306.22500610    4.90999985    2.19000006
   17.51361084  251.92300415    4.90999985    2.25000000
   17.51472282  248.11799622    4.90999985    2.28999996
   17.51805496  242.42199707    4.90999985    2.25000000
   17.52111053  245.97799683    4.90999985    2.25000000
   17.52444458  218.65199280    4.90999985    2.26999998
   17.52750015  203.24699402    4.90999985    2.28999996
   17.53083229  220.75100708    4.90999985    2.25000000
   17.53416634  291.77801514    4.90999985    2.25000000
   17.53722191  317.74499512    4.90999985    2.21000004
   17.54333305  317.74499512    4.90999985    2.09999990
   17.54749870  321.38299561    4.90999985    2.11999989
   17.55055428  350.12500000    4.90999985    2.15000010
   17.55388832  331.61300659    4.90999985    2.13000011
   17.55722237  239.39300537    4.90999985    2.11999989
   17.56027794  191.53900146    4.90999985    2.05999994
   17.56361008  285.07299805    4.90999985    2.05999994
   17.56666756  334.57901001    4.90999985    2.09999990
   17.57000160  261.56698608    4.90999985    2.11999989
   17.57333374  266.51699829    4.90999985    2.07999992
   17.57638931  314.70300293    4.90999985    2.09999990
   17.57972336  262.20800781    4.90999985    2.09999990
   17.58027840  335.80999756    4.90999985    2.07999992
   17.58611107  335.80999756    4.90999985    2.05999994
   17.59027863  167.66099548    4.90999985    2.01999998
   17.59361267  137.55200195    4.90999985    1.98000002
   17.59666824  126.53800201    4.90999985    2.01999998
   17.60000038  155.26800537    4.90999985    2.05999994
   17.60333443  151.31900024    4.90999985    1.98000002
   17.60639000  168.55400085    4.90999985    1.94000006
   17.60972214  211.97200012    4.90999985    2.00000000
   17.61305618  317.22698975    4.90999985    2.09999990
   17.61361122  372.52499390    4.90999985    2.09999990
   17.61666679  265.00799561    4.90999985    2.11999989
   17.62000084  249.59300232    4.90999985    2.05999994
   17.62305641  245.63600159    4.90999985    2.11999989
   17.62888908  245.63600159    4.90999985    2.07999992
   17.63305473  166.02200317    4.90999985    2.03999996
   17.63638878  144.12100220    4.90999985    2.01999998
   17.63944435  122.91100311    4.90999985    1.98000002
   17.64277840  136.75199890    4.90999985    2.01999998
   17.64611053  179.29600525    4.90999985    2.00000000
   17.64694405  164.05000305    4.90999985    2.01999998
   17.64972115  155.96600342    4.90999985    2.07999992
   17.65305519  167.83599854    4.90999985    2.03999996
   17.65611076  142.67300415    4.90999985    2.05999994
   17.65944481  155.88200378    4.90999985    1.96000004
   17.66277695  123.90399933    4.90999985    1.89999998
   17.66583252  155.60899353    4.90999985    1.91999996
   17.67194366  155.60899353    4.90999985    1.98000002
   17.67583275  126.92700195    4.90999985    2.05999994
   17.67916679   84.75910187    4.90999985    1.94000006
   17.68027687  117.47799683    4.90999985    1.91999996
   17.68277740  183.27699280    4.90999985    1.91999996
   17.68610954  148.09100342    4.90999985    1.94000006
   17.68944359  139.15699768    4.90999985    1.91999996
   17.69249916   57.75749969    4.90999985    1.89999998
   17.69583321   33.59270096    4.90999985    1.83000004
   17.69888878  125.90899658    4.90999985    1.85000002
   17.70222282  234.25199890    4.90999985    1.89999998
   17.70555687   69.49389648    4.90999985    1.94000006
   17.70861244   75.18750000    4.90999985    1.86000001
   17.71472359   75.18750000    4.90999985    1.89999998
   17.71888924   56.73880005    4.90999985    1.85000002
   17.72194481  141.15600586    4.90999985    1.83000004
   17.72527885  203.60699463    4.90999985    1.89999998
   17.72861099  142.45199585    4.90999985    1.96000004
   17.73166656  157.47399902    4.90999985    1.96000004
   17.73500061  127.93699646    4.90999985    1.96000004
   17.73805618  135.36099243    4.90999985    1.98000002
   17.74138832   88.65529633    4.90999985    1.94000006
   17.74472237  118.31199646    4.90999985    1.89999998
   17.74694443   36.80870056    4.90999985    1.86000001
   17.74833298   -1.00000000    4.90999985    1.86000001
   17.75166702   -1.00000000    4.90999985    1.85000002
   17.75749969   -1.00000000    4.90999985    1.94000006
   17.76166725   73.82900238    4.90999985    1.88000000
   17.76499939   45.04159927    4.90999985    1.83000004
   17.76805496   -1.00000000    4.90999985    1.76999998
   17.77138901   -1.00000000    4.90999985    1.66999996
   17.77444458   -1.00000000   -1.00000000   -1.00000000
   17.77777672   86.61489868    4.90999985    1.83000004
   17.78027725   36.86370087    4.90999985    1.85000002
   17.78138924   71.90070343    4.90999985    1.83000004
   17.78472137   -1.00000000    4.90999985    1.83000004
   17.78777695   -1.00000000    4.90999985    1.83000004
   17.79111099   -1.00000000    4.90999985    1.78999996
   17.79444313   -1.00000000    4.90999985    1.83000004
   17.80027771   -1.00000000    4.90999985    1.86000001
   17.80444336  111.87200165    4.90999985    1.88000000
   17.80777740  152.54100037    4.90999985    1.94000006
   17.81083298  136.00100708    4.90999985    1.89999998
   17.81361008   88.90570068    4.90999985    1.91999996
   17.81444359   84.54889679    4.90999985    1.91999996
   17.81777954  110.97100067    4.90999985    1.86000001
   17.82083511  123.51599884    4.90999985    1.86000001
   17.82416725  149.86300659    4.90999985    1.89999998
   17.82750130  128.21499634    4.90999985    1.91999996
   17.83055687  193.55099487    4.90999985    1.94000006
   17.83388901  266.56100464    4.90999985    2.03999996
   17.83694458  225.69200134    4.90999985    2.03999996
   17.84333420  225.69200134    4.90999985    2.05999994
   17.84749985  181.91099548    4.90999985    1.98000002
   17.85055542  188.22599792    4.90999985    2.01999998
   17.85388947  249.83399963    4.90999985    2.00000000
   17.85694504  179.36900330    4.90999985    2.03999996
   17.86027908  173.64999390    4.90999985    1.96000004
   17.86361122  188.62800598    4.90999985    2.01999998
   17.86666679  173.84399414    4.90999985    2.01999998
   17.87000084  209.68200684    4.90999985    2.00000000
   17.87333298  174.29600525    4.90999985    1.98000002
   17.87638855  168.78300476    4.90999985    1.98000002
   17.87972260  120.21399689    4.90999985    1.91999996
   17.88027763  128.67100525    4.90999985    1.91999996
   17.88611031  128.67100525    4.90999985    1.88000000
   17.89027786  173.17900085    4.90999985    2.00000000
   17.89333344  169.23500061    4.90999985    2.00000000
   17.89666748  155.81500244    4.90999985    2.01999998
   17.89999962  151.13000488    4.90999985    1.96000004
   17.90305519  137.32099915    4.90999985    2.01999998
   17.90638924  144.49200439    4.90999985    1.96000004
   17.90972137   83.99340057    4.90999985    1.91999996
   17.91277695  137.41799927    4.90999985    1.91999996
   17.91361046  158.00599670    4.90999985    1.91999996
   17.91638756  132.74299622    4.90999985    1.94000006
   17.91972160  168.07499695    4.90999985    1.91999996
   17.92277718  120.65499878    4.90999985    1.94000006
   17.92888832  120.65499878    4.90999985    1.86000001
   17.93305397   23.57019997    4.90999985    1.85000002
   17.93638802   -1.00000000    4.90999985    1.78999996
   17.93944359   -1.00000000    4.90999985    1.78999996
   17.94277763   -1.00000000    4.90999985    1.78999996
   17.94583321   40.23120117    4.90999985    1.80999994
   17.94722176   32.14360046    4.90999985    1.85000002
   17.94944382   -1.00000000    4.90999985    1.80999994
   17.95277786   -1.00000000    4.90999985    1.76999998
   17.95583344   -1.00000000    4.90999985    1.78999996
   17.95916748   -1.00000000    4.90999985    1.75000000
   17.96250153   23.57019997    4.90999985    1.76999998
   17.96555710   -1.00000000   -1.00000000   -1.00000000
   17.97166634   -1.00000000   -1.00000000   -1.00000000
   17.97583389   86.09069824    4.90999985    1.86000001
   17.97916794  110.24400330    4.90999985    1.88000000
   17.98055649  173.49499512    4.90999985    1.89999998
   17.98277855  126.02400208    4.90999985    1.94000006
   17.98611069   77.89579773    4.90999985    1.88000000
   17.98916626   71.89119720    4.90999985    1.86000001
   17.99250031  140.28599548    4.90999985    1.89999998
   17.99583435   71.11360168    4.90999985    1.89999998
   17.99888992   -1.00000000    4.90999985    1.83000004
   18.00222206   57.26240158    4.90999985    1.78999996
   18.00555611   56.69260025    4.90999985    1.85000002
   18.00861168  109.67299652    4.90999985    1.86000001
   18.01472282  109.67299652    4.90999985    1.88000000
   18.01861000  102.54499817    4.90999985    1.86000001
   18.02194405  132.53300476    4.90999985    1.86000001
   18.02527809  141.27200317    4.90999985    1.96000004
   18.02833366  138.30999756    4.90999985    2.00000000
   18.03166580  178.64999390    4.90999985    1.96000004
   18.03499985  129.22599792    4.90999985    2.00000000
   18.03805542  175.13600159    4.90999985    2.00000000
   18.04138756  224.40699768    4.90999985    1.98000002
   18.04444313  189.59199524    4.90999985    2.00000000
   18.04722214  417.02999878    4.90999985    2.01999998
   18.04805565  441.56900024    4.90999985    2.05999994
   18.04999924  442.54000854    4.90999985    2.09999990
   18.05138779  461.17599487    4.90999985    2.11999989
   18.05277634  351.72799683    4.90999985    2.09999990
   18.05277634  132.53300476    4.90999985    1.86000001
   18.05305481  141.27200317    4.90999985    1.96000004
   18.05305481  138.30999756    4.90999985    2.00000000
   18.05333328  178.64999390    4.90999985    1.96000004
   18.05333328  129.22599792    4.90999985    2.00000000
   18.05333328  175.13600159    4.90999985    2.00000000
   18.05360985  224.40699768    4.90999985    1.98000002
   18.05360985  189.59199524    4.90999985    2.00000000
   18.05360985  441.56900024    4.90999985    2.05999994
   18.05416679  382.81698608    4.90999985    2.09999990
   18.05749893  216.31700134    4.90999985    2.05999994
   18.06083298  209.69500732    4.90999985    2.01999998
   18.06388855  424.24600220    4.90999985    2.01999998
   18.06611061  390.53298950    4.90999985    2.05999994
   18.06722260  270.45001221    4.90999985    2.05999994
   18.06750107  382.81698608    4.90999985    2.09999990
   18.06750107  216.31700134    4.90999985    2.05999994
   18.06750107  209.69500732    4.90999985    2.01999998
   18.06777954  424.24600220    4.90999985    2.01999998
   18.06888962  209.25700378    4.90999985    2.05999994
   18.07194519  199.94299316    4.90999985    1.96000004
   18.07527924  317.67098999    4.90999985    2.00000000
   18.07861137  209.94999695    4.90999985    2.05999994
   18.08166695  179.88900757    4.90999985    1.96000004
   18.08805656  179.88900757    4.90999985    1.96000004
   18.09222221  198.10600281    4.90999985    1.94000006
   18.09555626  167.08500671    4.90999985    1.89999998
   18.09861183  185.90199280    4.90999985    1.94000006
   18.10111237  173.16299438    4.90999985    1.96000004
   18.10250092  164.11199951    4.90999985    1.98000002
   18.10583305  187.39300537    4.90999985    1.98000002
   18.10888863  231.85499573    4.90999985    2.00000000
   18.11222267  181.20399475    4.90999985    2.00000000
   18.11527824  212.89399719    4.90999985    2.00000000
   18.11861038  170.05000305    4.90999985    2.01999998
   18.12194443  152.68600464    4.90999985    1.94000006
   18.12500000  154.38299561    4.90999985    1.96000004
   18.13083267  154.38299561    4.90999985    1.96000004
   18.13500023  164.76100159    4.90999985    1.96000004
   18.13833237  151.66600037    4.90999985    1.96000004
   18.14166641  125.84300232    4.90999985    1.94000006
   18.14472198  140.91700745    4.90999985    1.89999998
   18.14805603  134.85800171    4.90999985    1.88000000
   18.15111160  126.13500214    4.90999985    1.86000001
   18.15444374   91.12580109    4.90999985    1.86000001
   18.15777779  128.96299744    4.90999985    1.86000001
   18.16083336  117.98000336    4.90999985    1.86000001
   18.16416550  120.19599915    4.90999985    1.89999998
   18.16749954  128.29800415    4.90999985    1.88000000
   18.16777802  174.62699890    4.90999985    1.88000000
   18.17388916  174.62699890    4.90999985    1.86000001
   18.17805481  136.57200623    4.90999985    1.91999996
   18.18111038  142.80000305    4.90999985    1.98000002
   18.18444443  286.20300293    4.90999985    2.00000000
   18.18750000  197.58500671    4.90999985    2.03999996
   18.19083214  166.65299988    4.90999985    1.98000002
   18.19416618  162.58599854    4.90999985    1.96000004
   18.19722176  200.31100464    4.90999985    2.01999998
   18.21444511  169.66400146    4.90999985    2.00000000
   18.21861076  169.66400146    4.90999985    2.01999998
   18.22249985  243.83799744    4.90999985    2.05999994
   18.22583389  483.50500488    4.90999985    2.03999996
   18.22777748  405.72100830    4.90999985    2.07999992
   18.22916794  420.25799561    4.90999985    2.09999990
   18.23055649  339.87200928    4.90999985    2.07999992
   18.23055649  136.57200623    4.90999985    1.91999996
   18.23083305  142.80000305    4.90999985    1.98000002
   18.23083305  286.20300293    4.90999985    2.00000000
   18.23083305  197.58500671    4.90999985    2.03999996
   18.23111153  166.65299988    4.90999985    1.98000002
   18.23111153  162.58599854    4.90999985    1.96000004
   18.23139000  200.31100464    4.90999985    2.01999998
   18.23139000  243.83799744    4.90999985    2.05999994
   18.23139000  483.50500488    4.90999985    2.03999996
   18.23194504  352.91699219    4.90999985    2.07999992
   18.23527718  318.61300659    4.90999985    2.05999994
   18.23861122  477.16198730    4.90999985    2.05999994
   18.24055672  410.14498901    4.90999985    2.11999989
   18.24166679  423.48999023    4.90999985    2.13000011
   18.24305534  439.65600586    4.90999985    2.13000011
   18.24444389  418.43701172    4.90999985    2.13000011
   18.24583435  439.19500732    4.90999985    2.13000011
   18.24722290  425.39801025    4.90999985    2.17000008
   18.24861145  383.27801514    4.90999985    2.11999989
   18.25000000  377.09698486    4.90999985    2.13000011
   18.25027847  352.91699219    4.90999985    2.07999992
   18.25027847  318.61300659    4.90999985    2.05999994
   18.25055504  477.16198730    4.90999985    2.05999994
   18.25111198  437.39599609    4.90999985    2.15000010
   18.25305557  352.99798584    4.90999985    2.15000010
   18.25499916  434.27999878    4.90999985    2.17000008
   18.25694466  449.75601196    4.90999985    2.17000008
   18.25833321  360.76400757    4.90999985    2.15000010
   18.25833321  434.27999878    4.90999985    2.17000008
   18.25944519  438.99499512    4.90999985    2.17000008
   18.26166725  435.62799072    4.90999985    2.19000006
   18.26277733  385.17401123    4.90999985    2.19000006
   18.26416588  428.72500610    4.90999985    2.21000004
   18.26555634  372.51400757    4.90999985    2.23000002
   18.26583290  438.99499512    4.90999985    2.17000008
   18.26638794  390.51199341    4.90999985    2.23000002
   18.26972198  335.81500244    4.90999985    2.19000006
   18.27277756  397.04998779    4.90999985    2.17000008
   18.27611160  429.14199829    4.90999985    2.21000004
   18.27805519  452.24700928    4.90999985    2.19000006
   18.27944374  378.23400879    4.90999985    2.21000004
   18.27944374  390.51199341    4.90999985    2.23000002
   18.27944374  335.81500244    4.90999985    2.19000006
   18.27972221  397.04998779    4.90999985    2.17000008
   18.27972221  429.14199829    4.90999985    2.21000004
   18.28055573  318.26000977    4.90999985    2.21000004
   18.28388786  354.70498657    4.90999985    2.23000002
   18.28694344  352.31799316    4.90999985    2.17000008
   18.29027748  406.53698730    4.90999985    2.19000006
   18.29222107  292.46499634    4.90999985    2.19000006
   18.29249954  318.26000977    4.90999985    2.21000004
   18.29249954  354.70498657    4.90999985    2.23000002
   18.29249954  352.31799316    4.90999985    2.17000008
   18.29277802  406.53698730    4.90999985    2.19000006
   18.29472160  345.87100220    4.90999985    2.19000006
   18.29777718  415.04299927    4.90999985    2.19000006
   18.29999924  433.92401123    4.90999985    2.15000010
   18.30111122  444.65798950    4.90999985    2.13000011
   18.30249977  497.07800293    4.90999985    2.15000010
   18.30388832  368.85000610    4.90999985    2.15000010
   18.30416679  345.87100220    4.90999985    2.19000006
   18.30416679  415.04299927    4.90999985    2.19000006
   18.30472183  394.22698975    4.90999985    2.13000011
   18.30805397  393.60699463    4.90999985    2.17000008
   18.31110954  451.45098877    4.90999985    2.15000010
   18.31333351  464.03500366    4.90999985    2.15000010
   18.31444359  405.85998535    4.90999985    2.15000010
   18.31583214  519.93798828    4.90999985    2.17000008
   18.31722260  477.33898926    4.90999985    2.15000010
   18.31861115  566.17999268    4.90999985    2.13000011
   18.32000160  488.70098877    4.90999985    2.15000010
   18.32139015  386.05899048    4.90999985    2.15000010
   18.32277870  427.63198853    4.90999985    2.15000010
   18.32416725  376.44100952    4.90999985    2.17000008
   18.32444572  394.22698975    4.90999985    2.13000011
   18.32444572  393.60699463    4.90999985    2.17000008
   18.32472229  451.45098877    4.90999985    2.15000010
   18.32527924  426.93301392    4.90999985    2.19000006
   18.32722282  370.46398926    4.90999985    2.21000004
   18.32916832  392.35598755    4.90999985    2.21000004
   18.33250046  375.35000610    4.90999985    2.26999998
   18.33555603  344.82000732    4.90999985    2.30999994
   18.33889008  268.88400269    4.90999985    2.34999990
   18.34222221  288.33499146    4.90999985    2.36999989
   18.34805679  288.33499146    4.90999985    2.30999994
   18.35222244  359.49600220    4.90999985    2.34999990
   18.35527802  252.74200439    4.90999985    2.34999990
   18.35861206  207.53999329    4.90999985    2.39000010
   18.36111069  289.92800903    4.90999985    2.36999989
   18.36250114  287.71798706    4.90999985    2.36999989
   18.36555672  301.50399780    4.90999985    2.34999990
   18.36888885  300.22900391    4.90999985    2.32999992
   18.37194443  269.82699585    4.90999985    2.34999990
   18.37527847  298.97399902    4.90999985    2.34999990
   18.37861061  258.69601440    4.90999985    2.34999990
   18.38166618  230.05799866    4.90999985    2.34999990
   18.38500023  210.28300476    4.90999985    2.34999990
   18.39083290  210.28300476    4.90999985    2.39000010
   18.39500046  258.83499146    4.90999985    2.36999989
   18.39833260  224.79200745    4.90999985    2.36999989
   18.40138817  299.82199097    4.90999985    2.34999990
   18.40472221  285.22299194    4.90999985    2.30999994
   18.40777779  321.36300659    4.90999985    2.32999992
   18.41110992  272.26000977    4.90999985    2.32999992
   18.41444397  301.51998901    4.90999985    2.36999989
   18.41749954  227.56599426    4.90999985    2.39000010
   18.42083359  212.61999512    4.90999985    2.36999989
   18.42416573  225.69299316    4.90999985    2.36999989
   18.42722130  243.94900513    4.90999985    2.39000010
   18.42777634  225.58200073    4.90999985    2.39000010
   18.43361092  225.58200073    4.90999985    2.42000008
   18.43777657  226.60000610    4.90999985    2.42000008
   18.44111061  213.38800049    4.90999985    2.40000010
   18.44416618  251.49200439    4.90999985    2.44000006
   18.44749832  212.97099304    4.90999985    2.46000004
   18.45083427  249.99000549    4.90999985    2.48000002
   18.45388985  218.73500061    4.90999985    2.48000002
   18.45722389  205.68600464    4.90999985    2.48000002
   18.46055603  204.91499329    4.90999985    2.51999998
   18.46111107  217.77600098    4.90999985    2.51999998
   18.46416664  192.17100525    4.90999985    2.53999996
   18.46722221  193.60299683    4.90999985    2.53999996
   18.47055626  196.41299438    4.90999985    2.53999996
   18.47666740  196.41299438    4.90999985    2.55999994
   18.48055649  194.97900391    4.90999985    2.57999992
   18.48388863  186.03700256    4.90999985    2.55999994
   18.48722267  184.35499573    4.90999985    2.53999996
   18.49027824  222.98899841    4.90999985    2.53999996
   18.49361229  194.90400696    4.90999985    2.53999996
   18.49444389  172.08599854    4.90999985    2.53999996
   18.49722290  170.85899353    4.90999985    2.55999994
   18.50027847  187.90699768    4.90999985    2.53999996
   18.50361061  194.08399963    4.90999985    2.55999994
   18.50694466  192.81700134    4.90999985    2.53999996
   18.51000023  208.19700623    4.90999985    2.57999992
   18.51333427  174.46099854    4.90999985    2.57999992
   18.51944351  174.46099854    4.90999985    2.53999996
   18.52361107  216.73500061    4.90999985    2.55999994
   18.52666664  211.38400269    4.90999985    2.53999996
   18.52777672  236.20700073    4.90999985    2.53999996
   18.53055573  194.95500183    4.90999985    2.51999998
   18.53361130  185.70899963    4.90999985    2.48000002
   18.53694344  193.60800171    4.90999985    2.50000000
   18.54027748  192.96699524    4.90999985    2.50000000
   18.54333305  192.36700439    4.90999985    2.48000002
   18.54666710  179.82000732    4.90999985    2.51999998
   18.54999924  210.96899414    4.90999985    2.51999998
   18.55305481  193.46099854    4.90999985    2.50000000
   18.55638885  167.06799316    4.90999985    2.53999996
   18.56222153  167.06799316    4.90999985    2.53999996
   18.56638718  185.26499939    4.90999985    2.50000000
   18.56972313  173.75199890    4.90999985    2.48000002
   18.57277870  248.03399658    4.90999985    2.46000004
   18.57611275  285.73699951    4.90999985    2.42000008
   18.57916832  254.54400635    4.90999985    2.36999989
   18.58250046  250.04400635    4.90999985    2.32999992
   18.58583450  301.56799316    4.90999985    2.30999994
   18.58889008  279.98699951    4.90999985    2.26999998
   18.59222221  330.83898926    4.90999985    2.23000002
   18.59444427  177.64700317    4.90999985    2.11999989
   18.59583473  214.33399963    4.90999985    2.05999994
   18.59889030  141.52799988    4.90999985    2.00000000
   18.60499954  141.52799988    4.90999985    1.94000006
   18.60916710   49.54550171    4.90999985    1.85000002
   18.61250114   -1.00000000   -1.00000000   -1.00000000
   18.61555672  119.01100159    4.90999985    1.86000001
   18.61888885  100.13899994    4.90999985    2.00000000
   18.62222290  105.55300140    4.90999985    1.89999998
   18.62527847   57.36489868    4.90999985    1.88000000
   18.62777710   64.09899902    4.90999985    1.78999996
   18.62916756   -1.00000000    4.90999985    1.78999996
   18.63249969  190.21400452    4.90999985    1.89999998
   18.63555527  330.71701050    4.90999985    2.05999994
   18.63888931  149.29100037    4.90999985    2.13000011
   18.64194489  198.13200378    4.90999985    1.91999996
   18.64805603  198.13200378    4.90999985    1.96000004
   18.65194321   -1.00000000    4.90999985    1.88000000
   18.65527725  216.86999512    4.90999985    1.94000006
   18.65861130  308.20098877    4.90999985    2.09999990
   18.66110992  205.30099487    4.90999985    2.09999990
   18.66222191  180.04400635    4.90999985    2.07999992
   18.66555595  155.50100708    4.90999985    1.98000002
   18.66860962  115.26499939    4.90999985    1.91999996
   18.67194366  107.52999878    4.90999985    1.89999998
   18.67499924  164.61900330    4.90999985    1.91999996
   18.67833328  195.15699768    4.90999985    2.03999996
   18.68166542  497.20800781    4.90999985    2.13000011
   18.68361092  442.06201172    4.90999985    2.13000011
   18.68499947  319.56698608    4.90999985    2.11999989
   18.68499947  195.15699768    4.90999985    2.03999996
   18.68499947  497.20800781    4.90999985    2.13000011
   18.68527603  216.86999512    4.90999985    1.94000006
   18.68527603  308.20098877    4.90999985    2.09999990
   18.68527603  180.04400635    4.90999985    2.07999992
   18.68555450  155.50100708    4.90999985    1.98000002
   18.68555450  115.26499939    4.90999985    1.91999996
   18.68555450  107.52999878    4.90999985    1.89999998
   18.68583298  164.61900330    4.90999985    1.91999996
   18.68694305  213.60200500    4.90999985    2.09999990
   18.68999863  367.48999023    4.90999985    2.05999994
   18.69333267  230.08900452    4.90999985    2.07999992
   18.69666672  253.69200134    4.90999985    2.05999994
   18.69972038  406.69299316    4.90999985    2.05999994
   18.70194435  282.50698853    4.90999985    2.07999992
   18.70194435  213.60200500    4.90999985    2.09999990
   18.70194435  367.48999023    4.90999985    2.05999994
   18.70222282  230.08900452    4.90999985    2.07999992
   18.70222282  253.69200134    4.90999985    2.05999994
   18.70222282  406.69299316    4.90999985    2.05999994
   18.70666695  406.69299316    4.90999985    2.09999990
   18.71083450  132.31799316    4.90999985    2.00000000
   18.71389008  417.53601074    4.90999985    2.00000000
   18.71611214  419.39999390    4.90999985    2.11999989
   18.71722221  473.15399170    4.90999985    2.11999989
   18.71861076  413.24899292    4.90999985    2.09999990
   18.72000122  423.99499512    4.90999985    2.09999990
   18.72138977  391.10598755    4.90999985    2.11999989
   18.72277832  388.48901367    4.90999985    2.09999990
   18.72416687  375.52600098    4.90999985    2.09999990
   18.72444534  132.31799316    4.90999985    2.00000000
   18.72444534  417.53601074    4.90999985    2.00000000
   18.72500038  384.17300415    4.90999985    2.07999992
   18.72833443  481.70199585    4.90999985    2.09999990
   18.73027802  409.57199097    4.90999985    2.09999990
   18.73166656  319.38299561    4.90999985    2.09999990
   18.73166656  384.17300415    4.90999985    2.07999992
   18.73166656  481.70199585    4.90999985    2.09999990
   18.73277855  380.29400635    4.90999985    2.07999992
   18.73611069  348.52398682    4.90999985    2.05999994
   18.73944473  404.17300415    4.90999985    2.05999994
   18.74138832  331.09600830    4.90999985    2.09999990
   18.74138832  380.29400635    4.90999985    2.07999992
   18.74166679  348.52398682    4.90999985    2.05999994
   18.74166679  404.17300415    4.90999985    2.05999994
   18.74361229  471.93499756    4.90999985    2.11999989
   18.74555588  422.07101440    4.90999985    2.11999989
   18.74694443  534.90197754    4.90999985    2.09999990
   18.74833298  318.88800049    4.90999985    2.07999992
   18.74833298  471.93499756    4.90999985    2.11999989
   18.74916649  349.40798950    4.90999985    2.05999994
   18.75222206  244.19000244    4.90999985    2.03999996
   18.75555611  260.09399414    4.90999985    2.01999998
   18.75861168  275.45800781    4.90999985    2.03999996
   18.76194382  280.66400146    4.90999985    1.98000002
   18.76527786  173.94599915    4.90999985    1.98000002
   18.76944351  173.94599915    4.90999985    1.88000000
   18.77333260  167.64599609    4.90999985    1.88000000
   18.77666664  233.29100037    4.90999985    1.91999996
   18.78000069   -1.00000000   -1.00000000   -1.00000000
   18.78333282   -1.00000000    4.90999985    1.66999996
   18.78666687   -1.00000000    4.90999985    1.39999998
   18.78999901   -1.00000000    4.90999985    1.38000000
   18.79305458   -1.00000000    4.90999985    1.33000004
   18.79638863   -1.00000000    4.90999985    1.25000000
   18.79944420   -1.00000000    4.90999985    1.21000004
   18.80277634   -1.00000000    4.90999985    1.25000000
   18.80611038   -1.00000000    4.90999985    1.28999996
   18.81611061   -1.00000000    4.90999985    1.44000006
   18.81944466   -1.00000000    4.90999985    1.50000000
   18.82277870   -1.00000000    4.90999985    1.46000004
   18.82583427   -1.00000000    4.90999985    1.41999996
   18.82916832   -1.00000000    4.90999985    1.33000004
   18.83250046   -1.00000000    4.90999985    1.44000006
   18.83555603   -1.00000000    4.90999985    1.25000000
   18.83889008   -1.00000000    4.90999985    1.48000002
   18.84194565   -1.00000000    4.90999985    1.61000001
   18.84527779   77.05819702    4.90999985    1.76999998
   18.84861183   -1.00000000    4.90999985    1.76999998
   18.85499954   -1.00000000    4.90999985    1.80999994
   18.85916710  425.98098755    4.90999985    2.03999996
   18.86111069  283.19500732    4.90999985    2.03999996
   18.86138916   -1.00000000    4.90999985    1.76999998
   18.86138916  425.98098755    4.90999985    2.03999996
   18.86138916   -1.00000000    4.90999985    1.41999996
   18.86166763   -1.00000000    4.90999985    1.33000004
   18.86166763   -1.00000000    4.90999985    1.44000006
   18.86166763   -1.00000000    4.90999985    1.25000000
   18.86194420   -1.00000000    4.90999985    1.48000002
   18.86194420   -1.00000000    4.90999985    1.61000001
   18.86194420   77.05819702    4.90999985    1.76999998
   18.86388969  298.47000122    4.90999985    2.00000000
   18.86722183  396.14401245    4.90999985    2.05999994
   18.87055588  309.36801147    4.90999985    2.09999990
   18.87361145  363.92498779    4.90999985    2.11999989
   18.87694550  367.73001099    4.90999985    2.13000011
   18.88194466  367.73001099    4.90999985    2.13000011
   18.88611031  345.78399658    4.90999985    2.15000010
   18.88944435  331.80200195    4.90999985    2.11999989
   18.89249992  348.61099243    4.90999985    2.13000011
   18.89500046  283.41799927    4.90999985    2.17000008
   18.89638901  289.46701050    4.90999985    2.19000006
   18.89944458  300.80801392    4.90999985    2.17000008
   18.90277672  342.60299683    4.90999985    2.23000002
   18.90611076  303.07501221    4.90999985    2.21000004
   18.90916634  340.54098511    4.90999985    2.21000004
   18.91250038  436.08898926    4.90999985    2.17000008
   18.91444397  125.82900238    4.90999985    2.11999989
   18.91472244  300.80801392    4.90999985    2.17000008
   18.91472244  342.60299683    4.90999985    2.23000002
   18.91472244  303.07501221    4.90999985    2.21000004
   18.91499901  340.54098511    4.90999985    2.21000004
   18.91499901  436.08898926    4.90999985    2.17000008
   18.91499901  345.78399658    4.90999985    2.15000010
   18.91527748  331.80200195    4.90999985    2.11999989
   18.91527748  348.61099243    4.90999985    2.13000011
   18.91555595  289.46701050    4.90999985    2.19000006
   18.91749954  128.50500488    4.90999985    1.91999996
   18.92055511   -1.00000000    4.90999985    1.71000004
   18.92388916  120.93699646    4.90999985    1.64999998
   18.92694473   -1.00000000    4.90999985    1.63000000
   18.93027687   26.85969925    4.90999985    1.60000002
   18.93527603   26.85969925    4.90999985    1.75000000
   18.93944359  387.82598877    4.90999985    2.01999998
   18.94277763  359.67700195    4.90999985    2.09999990
   18.94583321  347.29998779    4.90999985    2.17000008
   18.94833183  290.77099609    4.90999985    2.19000006
   18.94972038  292.82400513    4.90999985    2.21000004
   18.95277786  272.11099243    4.90999985    2.23000002
   18.95611191  286.01901245    4.90999985    2.25000000
   18.95944595  282.60501099    4.90999985    2.28999996
   18.96250153  259.77600098    4.90999985    2.26999998
   18.96583366  267.76998901    4.90999985    2.26999998
   18.96916771  309.71701050    4.90999985    2.21000004
   18.97222328  250.40499878    4.90999985    2.25000000
   18.97833443  250.40499878    4.90999985    2.30999994
   18.98222351  236.51499939    4.90999985    2.32999992
   18.98555565  224.31599426    4.90999985    2.30999994
   18.98888969  204.13800049    4.90999985    2.34999990
   18.99194527  259.85299683    4.90999985    2.34999990
   18.99527740  262.17001343    4.90999985    2.26999998
   18.99833298  253.01300049    4.90999985    2.25000000
   19.00166702  363.83599854    4.90999985    2.21000004
   19.00499916  262.63800049    4.90999985    1.96000004
   19.00805473  361.69601440    4.90999985    2.07999992
   19.01138878  347.12200928    4.90999985    2.15000010
   19.01472282  355.23699951    4.90999985    2.21000004
   19.01527786  316.77899170    4.90999985    2.21000004
   19.02111053  316.77899170    4.90999985    2.00000000
   19.02527809   77.32620239    4.90999985    1.89999998
   19.02833366   89.32800293    4.90999985    1.85000002
   19.03166580  111.02400208    4.90999985    1.88000000
   19.03472137  120.60399628    4.90999985    1.88000000
   19.03805542  140.53399658    4.90999985    1.89999998
   19.04138756   -1.00000000    4.90999985    1.58000004
   19.04444313   -1.00000000    4.90999985    1.55999994
   19.04777718   -1.00000000    4.90999985    1.51999998
   19.05138779   -1.00000000    4.90999985    1.58000004
   19.05444336   89.27349854    4.90999985    1.63000000
   19.05777740  196.87800598    4.90999985    1.86000001
   19.06388855  196.87800598    4.90999985    1.98000002
   19.06805611  164.86500549    4.90999985    2.01999998
   19.07111168  392.54998779    4.90999985    2.01999998
   19.07444572  182.60299683    4.90999985    2.11999989
   19.07777786  187.61399841    4.90999985    1.91999996
   19.08083344  129.75500488    4.90999985    1.91999996
   19.08194542  142.54499817    4.90999985    1.91999996
   19.08444595  109.19000244    4.90999985    1.96000004
   19.08777809   87.29720306    4.90999985    1.98000002
   19.09083366   38.48350143    4.90999985    1.80999994
   19.09416771   58.05509949    4.90999985    1.69000006
   19.09749985   82.37770081    4.90999985    1.86000001
   19.10055542  139.23599243    4.90999985    1.88000000
   19.10666656  139.23599243    4.90999985    2.00000000
   19.11083412  124.34400177    4.90999985    1.94000006
   19.11416626  120.99299622    4.90999985    1.96000004
   19.11527824  110.80699921    4.90999985    1.94000006
   19.11777878  152.19000244    4.90999985    1.98000002
   19.12111092  124.60600281    4.90999985    2.00000000
   19.12416649  109.17700195    4.90999985    1.98000002
   19.12750053  130.85099792    4.90999985    1.94000006
   19.13083267  152.14399719    4.90999985    1.96000004
   19.13388824  151.17900085    4.90999985    1.91999996
   19.13722229  135.26499939    4.90999985    1.94000006
   19.14055634   93.62280273    4.90999985    1.91999996
   19.14361191  104.17600250    4.90999985    1.89999998
   19.14972115  104.17600250    4.90999985    1.85000002
   19.15361023  317.60598755    4.90999985    2.01999998
   19.15694427  365.48400879    4.90999985    2.07999992
   19.16027832   78.14129639    4.90999985    2.07999992
   19.16333389   -1.00000000    4.90999985    1.63000000
   19.16666603   -1.00000000    4.90999985    1.55999994
   19.16972160   -1.00000000    4.90999985    1.63000000
   19.17305565   -1.00000000    4.90999985    1.69000006
   19.17638779   -1.00000000    4.90999985    1.64999998
   19.17944336   -1.00000000    4.90999985    1.53999996
   19.18194389   82.78589630    4.90999985    1.64999998
   19.18305397   98.50820160    4.90999985    1.73000002
   19.18638802  107.86599731    4.90999985    1.89999998
   19.19249916  107.86599731    4.90999985    1.76999998
   19.19666672  129.87300110    4.90999985    1.76999998
   19.19972038  122.44799805    4.90999985    1.80999994
   19.20305634  166.22200012    4.90999985    2.03999996
   19.20611191  273.07699585    4.90999985    2.07999992
   19.20944595   -1.00000000    4.90999985    1.96000004
   19.21277809   -1.00000000   -1.00000000   -1.00000000
   19.23944473   -1.00000000    4.90999985    0.95999998
   19.24277878   -1.00000000    4.90999985    0.94000000
   19.24583435   -1.00000000    4.90999985    1.05999994
   19.24916649   -1.00000000    4.90999985    1.46000004
   19.25250053   -1.00000000    4.90999985    1.44000006
   19.25555611   -1.00000000    4.90999985    1.07000005
   19.25888824   -1.00000000    4.90999985    1.33000004
   19.26194382   -1.00000000    4.90999985    1.38000000
   19.26555634   -1.00000000    4.90999985    1.26999998
   19.26888847   -1.00000000    4.90999985    1.09000003
   19.27222252   -1.00000000    4.90999985    1.14999998
   19.28222275   -1.00000000    4.90999985    1.55999994
   19.28555489   -1.00000000    4.90999985    1.66999996
   19.28888893   -1.00000000    4.90999985    1.83000004
   19.29194450   -1.00000000    4.90999985    1.66999996
   19.29527664   -1.00000000    4.90999985    1.53999996
   19.29861069   -1.00000000    4.90999985    1.26999998
   19.30194283   -1.00000000    4.90999985    1.23000002
   19.30527687   -1.00000000    4.90999985    1.58000004
   19.30833244   -1.00000000    4.90999985    1.61000001
   19.31166649   -1.00000000    4.90999985    1.58000004
   19.31499863   -1.00000000    4.90999985    1.60000002
   19.32111168   -1.00000000    4.90999985    1.63000000
   19.32527924   36.23400116    4.90999985    1.78999996
   19.32861137   23.57019997    4.90999985    1.83000004
   19.33111191   73.36920166    4.90999985    1.75000000
   19.33222389  120.62699890    4.90999985    1.75000000
   19.33555603   52.13869858    4.90999985    1.86000001
   19.33861160   59.77780151    4.90999985    1.91999996
   19.34194565  217.43600464    4.90999985    1.96000004
   19.34527779  173.81700134    4.90999985    1.94000006
   19.34833336  147.80299377    4.90999985    1.96000004
   19.35166740  145.29899597    4.90999985    1.88000000
   19.35472298  148.65600586    4.90999985    1.91999996
   19.35805511  147.74099731    4.90999985    1.94000006
   19.36388969  147.74099731    4.90999985    1.91999996
   19.36805534  145.05799866    4.90999985    1.91999996
   19.37138939  156.08000183    4.90999985    1.94000006
   19.37444496  112.73300171    4.90999985    1.94000006
   19.37777710  108.08100128    4.90999985    1.91999996
   19.38111115  130.37500000    4.90999985    1.86000001
   19.38416672  119.15499878    4.90999985    1.85000002
   19.38750076  150.71200562    4.90999985    1.89999998
   19.39083290  100.48000336    4.90999985    1.89999998
   19.39388847  143.51899719    4.90999985    1.83000004
   19.39722252  147.78799438    4.90999985    1.85000002
   19.39916611  109.02500153    4.90999985    1.85000002
   19.40083313   73.89959717    4.90999985    1.85000002
   19.40694427   73.89959717    4.90999985    1.69000006
   19.41083336   -1.00000000   -1.00000000   -1.00000000
   19.41416550   -1.00000000   -1.00000000   -1.00000000
   19.41749954   -1.00000000    4.90999985    1.73000002
   19.42055511   38.48070145    4.90999985    1.71000004
   19.42388916   50.23550034    4.90999985    1.71000004
   19.42722130   77.27320099    4.90999985    1.76999998
   19.43027687  104.89700317    4.90999985    1.80999994
   19.43249893  156.55900574    4.90999985    1.83000004
   19.43388748  141.17500305    4.90999985    1.89999998
   19.43722153  137.35299683    4.90999985    1.85000002
   19.44027710  120.82299805    4.90999985    1.85000002
   19.44361115  118.89499664    4.90999985    1.80999994
   19.44972038  118.89499664    4.90999985    1.58000004
   19.45388985   -1.00000000    4.90999985    1.55999994
   19.45694542   -1.00000000   -1.00000000   -1.00000000
   19.46027946  152.23300171    4.90999985    1.80999994
   19.46361160   65.10639954    4.90999985    1.80999994
   19.46583366  106.67299652    4.90999985    1.78999996
   19.46722221   94.18769836    4.90999985    1.78999996
   19.47055626  130.08399963    4.90999985    1.83000004
   19.47361183  114.94599915    4.90999985    1.85000002
   19.47694588  143.50700378    4.90999985    1.86000001
   19.48000145  193.34300232    4.90999985    1.86000001
   19.48333359  446.77301025    4.90999985    1.94000006
   19.48527718  319.04199219    4.90999985    2.01999998
   19.48555565   65.10639954    4.90999985    1.80999994
   19.48555565   94.18769836    4.90999985    1.78999996
   19.48555565  130.08399963    4.90999985    1.83000004
   19.48583412  114.94599915    4.90999985    1.85000002
   19.48583412  143.50700378    4.90999985    1.86000001
   19.48611069  193.34300232    4.90999985    1.86000001
   19.48611069  446.77301025    4.90999985    1.94000006
   19.48611069   -1.00000000   -1.00000000   -1.00000000
   19.48638916  152.23300171    4.90999985    1.80999994
   19.48833275  344.41598511    4.90999985    2.09999990
   19.49138832  355.83499146    4.90999985    2.11999989
   19.49472237  271.48400879    4.90999985    2.15000010
   19.49805641  305.46301270    4.90999985    2.13000011
   19.50111198  334.27099609    4.90999985    2.15000010
   19.50611115  334.27099609    4.90999985    2.13000011
   19.51027870  284.85198975    4.90999985    2.13000011
   19.51361084  298.32299805    4.90999985    2.17000008
   19.51666641  316.26000977    4.90999985    2.17000008
   19.51916695  370.69601440    4.90999985    2.17000008
   19.52055550  274.56500244    4.90999985    2.17000008
   19.52388954  301.90499878    4.90999985    2.17000008
   19.52694511  269.25201416    4.90999985    2.23000002
   19.53027725  289.30200195    4.90999985    2.25000000
   19.53333282  343.17700195    4.90999985    2.17000008
   19.53666687  362.16400146    4.90999985    2.15000010
   19.53999901  374.75698853    4.90999985    2.13000011
   19.54305458  394.87799072    4.90999985    2.09999990
   19.54916573  394.87799072    4.90999985    2.15000010
   19.55305481  379.30499268    4.90999985    2.13000011
   19.55638885  289.88299561    4.90999985    2.13000011
   19.55972099  249.72099304    4.90999985    2.17000008
   19.56277657  298.91699219    4.90999985    2.21000004
   19.56611061  245.83799744    4.90999985    2.21000004
   19.56944466  254.87300110    4.90999985    2.25000000
   19.57250023  259.58599854    4.90999985    2.25000000
   19.57583427  261.18600464    4.90999985    2.23000002
   19.57916832  255.08599854    4.90999985    2.25000000
   19.58222389  256.99398804    4.90999985    2.25000000
   19.58555603  247.76100159    4.90999985    2.25000000
   19.58611107  295.12298584    4.90999985    2.25000000
   19.59194565  295.12298584    4.90999985    2.17000008
   19.59611130  381.84799194    4.90999985    2.15000010
   19.59916687  330.16598511    4.90999985    2.11999989
   19.60250092  409.16799927    4.90999985    2.09999990
   19.60444450  402.80999756    4.90999985    2.07999992
   19.60583305  414.17498779    4.90999985    2.07999992
   19.60722351  433.60699463    4.90999985    2.05999994
   19.60861206  366.11898804    4.90999985    2.07999992
   19.60861206  381.84799194    4.90999985    2.15000010
   19.60888863  330.16598511    4.90999985    2.11999989
   19.60888863  409.16799927    4.90999985    2.09999990
   19.60888863  254.87300110    4.90999985    2.25000000
   19.60916710  259.58599854    4.90999985    2.25000000
   19.60916710  261.18600464    4.90999985    2.23000002
   19.60916710  255.08599854    4.90999985    2.25000000
   19.60944557  256.99398804    4.90999985    2.25000000
   19.60944557  247.76100159    4.90999985    2.25000000
   19.61000061  404.08898926    4.90999985    2.05999994
   19.61222267  413.50601196    4.90999985    2.05999994
   19.61333466  376.09399414    4.90999985    2.03999996
   19.61361122  404.08898926    4.90999985    2.05999994
   19.61472321  369.07901001    4.90999985    2.03999996
   19.61777878  351.79998779    4.90999985    2.01999998
   19.62111092  433.29199219    4.90999985    2.03999996
   19.62305641  370.61499023    4.90999985    2.05999994
   19.62333298  369.07901001    4.90999985    2.03999996
   19.62333298  351.79998779    4.90999985    2.01999998
   19.62333298  433.29199219    4.90999985    2.03999996
   19.62527847  356.14700317    4.90999985    2.05999994
   19.62861061  147.13699341    4.90999985    2.01999998
   19.63194466  182.91299438    4.90999985    1.94000006
   19.63500023  138.56199646    4.90999985    1.91999996
   19.63833237  166.15100098    4.90999985    1.89999998
   19.64388847  166.15100098    4.90999985    1.94000006
   19.64805603   -1.00000000    4.90999985    1.91999996
   19.65138817   -1.00000000    4.90999985    1.88000000
   19.65444374   -1.00000000    4.90999985    1.83000004
   19.65805435   -1.00000000    4.90999985    1.88000000
   19.66138840   -1.00000000    4.90999985    1.94000006
   19.66472244   -1.00000000    4.90999985    1.98000002
   19.66777802   -1.00000000    4.90999985    2.03999996
   19.67111015   -1.00000000    4.90999985    2.07999992
   19.67444420   -1.00000000    4.90999985    2.11999989
   19.67749977   -1.00000000    4.90999985    2.13000011
   19.68083191   -1.00000000    4.90999985    2.03999996
   19.69083214   -1.00000000    4.90999985    2.01999998
   19.69416618   -1.00000000    4.90999985    2.00000000
   19.69722176   -1.00000000    4.90999985    2.00000000
   19.70055580   -1.00000000    4.90999985    2.01999998
   19.70361137   -1.00000000    4.90999985    2.00000000
   19.70694542   -1.00000000    4.90999985    2.03999996
   19.71027946   -1.00000000    4.90999985    2.09999990
   19.71333504   -1.00000000    4.90999985    2.09999990
   19.71666718   -1.00000000    4.90999985    1.98000002
   19.72000122   -1.00000000    4.90999985    1.86000001
   19.72305679   -1.00000000    4.90999985    1.89999998
   19.73361206   -1.00000000    4.90999985    1.80999994
   19.73694420   -1.00000000    4.90999985    1.89999998
   19.73999977   -1.00000000    4.90999985    1.91999996
   19.74333382   -1.00000000    4.90999985    1.83000004
   19.74666786   -1.00000000    4.90999985    1.76999998
   19.74972153   -1.00000000    4.90999985    1.78999996
   19.75305557   -1.00000000    4.90999985    1.71000004
   19.75611115   -1.00000000    4.90999985    1.73000002
   19.75972176   -1.00000000    4.90999985    1.80999994
   19.76305580   -1.00000000    4.90999985    1.86000001
   19.76638794   -1.00000000    4.90999985    1.88000000
   19.77638817   -1.00000000    4.90999985    1.88000000
   19.77972221   -1.00000000    4.90999985    1.96000004
   19.78305435   -1.00000000    4.90999985    1.98000002
   19.78610992   -1.00000000    4.90999985    1.98000002
   19.78944397   -1.00000000    4.90999985    1.94000006
   19.79277802   -1.00000000    4.90999985    1.94000006
   19.79611015   -1.00000000    4.90999985    1.91999996
   19.79944420   -1.00000000    4.90999985    1.86000001
   19.80249977   -1.00000000    4.90999985    1.86000001
   19.80583191   -1.00000000    4.90999985    1.88000000
   19.80916595   -1.00000000    4.90999985    1.89999998
   19.81944466   -1.00000000    4.90999985    1.94000006
   19.82250023   -1.00000000    4.90999985    1.96000004
   19.82611275   -1.00000000    4.90999985    1.96000004
   19.82944489   -1.00000000    4.90999985    2.00000000
   19.83277893   -1.00000000    4.90999985    1.98000002
   19.83583450   -1.00000000    4.90999985    1.91999996
   19.83916664   -1.00000000    4.90999985    1.71000004
   19.84250069   -1.00000000    4.90999985    1.64999998
   19.84555626   -1.00000000    4.90999985    1.69000006
   19.84889030   -1.00000000    4.90999985    1.73000002
   19.85194397   -1.00000000    4.90999985    1.66999996
   19.86222267   -1.00000000    4.90999985    1.78999996
   19.86555672   -1.00000000    4.90999985    1.76999998
   19.86861038   -1.00000000    4.90999985    1.73000002
   19.87194443   -1.00000000    4.90999985    1.60000002
   19.87500000   -1.00000000    4.90999985    1.50000000
   19.87833405   -1.00000000    4.90999985    1.46000004
   19.88166618   -1.00000000    4.90999985    1.48000002
   19.88472176   -1.00000000    4.90999985    1.44000006
   19.88805580   -1.00000000    4.90999985    1.48000002
   19.89166641   -1.00000000    4.90999985    1.60000002
   19.89472198   -1.00000000    4.90999985    1.66999996
   19.90499878   -1.00000000    4.90999985    1.73000002
   19.90833282   -1.00000000    4.90999985    1.75000000
   19.91138840   -1.00000000    4.90999985    1.76999998
   19.91472244   -1.00000000    4.90999985    1.69000006
   19.91805458   -1.00000000    4.90999985    1.66999996
   19.92111015   -1.00000000    4.90999985    1.71000004
   19.92499924   -1.00000000    4.90999985    1.71000004
   19.92805481   -1.00000000    4.90999985    1.66999996
   19.93138885   -1.00000000    4.90999985    1.73000002
   19.93444443   -1.00000000    4.90999985    1.69000006
   19.93777657   -1.00000000    4.90999985    1.69000006
   19.94777679   -1.00000000    4.90999985    1.51999998
   19.95111275   -1.00000000    4.90999985    1.46000004
   19.95444489   -1.00000000    4.90999985    1.39999998
   19.95805550   -1.00000000    4.90999985    1.36000001
   19.96111107   -1.00000000    4.90999985    1.30999994
   19.96444511   -1.00000000    4.90999985    1.36000001
   19.96750069   -1.00000000    4.90999985    1.44000006
   19.97083473   -1.00000000    4.90999985    1.48000002
   19.97416687   -1.00000000    4.90999985    1.50000000
   19.97722244   -1.00000000    4.90999985    1.50000000
   19.98055649   -1.00000000    4.90999985    1.44000006
   19.99083328   -1.00000000    4.90999985    1.51999998
   19.99388885   -1.00000000    4.90999985    1.48000002
   19.99722290   -1.00000000    4.90999985    1.33000004
   20.00055504   -1.00000000    4.90999985    1.36000001
   20.00361061   -1.00000000    4.90999985    1.38000000
   20.00694466   -1.00000000    4.90999985    1.58000004
   20.01000023   -1.00000000    4.90999985    1.55999994
   20.01333427   -1.00000000    4.90999985    1.60000002
   20.01666641   -1.00000000    4.90999985    1.75000000
   20.01972198   -1.00000000    4.90999985    1.80999994
   20.02305603   -1.00000000    4.90999985    1.78999996
   20.03388786   -1.00000000    4.90999985    1.66999996
   20.03722191   -1.00000000    4.90999985    1.69000006
   20.04055595   -1.00000000    4.90999985    1.69000006
   20.04388809   -1.00000000    4.90999985    1.73000002
   20.04722214   -1.00000000    4.90999985    1.71000004
   20.05027771   -1.00000000    4.90999985    1.66999996
   20.05360985   -1.00000000    4.90999985    1.61000001
   20.05694389   -1.00000000    4.90999985    1.61000001
   20.06055450   -1.00000000    4.90999985    1.63000000
   20.06361008   -1.00000000    4.90999985    1.61000001
   20.06694603   -1.00000000    4.90999985    1.63000000
   20.07638931   -1.00000000    4.90999985    1.73000002
   20.07972336   -1.00000000    4.90999985    1.71000004
   20.08277893   -1.00000000    4.90999985    1.69000006
   20.08611107   -1.00000000    4.90999985    1.71000004
   20.08944511   -1.00000000    4.90999985    1.71000004
   20.09305573   -1.00000000    4.90999985    1.71000004
   20.09611130   -1.00000000    4.90999985    1.64999998
   20.09944534   -1.00000000    4.90999985    1.60000002
   20.10277748   -1.00000000    4.90999985    1.55999994
   20.10583305   -1.00000000    4.90999985    1.53999996
   20.10916710   -1.00000000    4.90999985    1.53999996
   20.11916733   -1.00000000    4.90999985    1.46000004
   20.12249947   -1.00000000    4.90999985    1.41999996
   20.12611198   -1.00000000    4.90999985    1.41999996
   20.12916756   -1.00000000    4.90999985    1.36000001
   20.13249969   -1.00000000    4.90999985    1.26999998
   20.13583374   -1.00000000    4.90999985    1.30999994
   20.13888931   -1.00000000    4.90999985    1.36000001
   20.14222145   -1.00000000    4.90999985    1.33000004
   20.14555550   -1.00000000    4.90999985    1.34000003
   20.14861107   -1.00000000    4.90999985    1.36000001
   20.15194321   -1.00000000    4.90999985    1.41999996
   20.16222191   -1.00000000    4.90999985    1.39999998
   20.16527748   -1.00000000    4.90999985    1.41999996
   20.16860962   -1.00000000    4.90999985    1.36000001
   20.17194366   -1.00000000    4.90999985    1.46000004
   20.17499924   -1.00000000    4.90999985    1.64999998
   20.17833328   -1.00000000    4.90999985    1.73000002
   20.18138885   -1.00000000    4.90999985    1.69000006
   20.18472099   -1.00000000    4.90999985    1.55999994
   20.18805504   -1.00000000    4.90999985    1.60000002
   20.19166565   -1.00000000    4.90999985    1.75000000
   20.19472122   -1.00000000    4.90999985    1.78999996
   20.20499992   -1.00000000    4.90999985    1.76999998
   20.20833397   -1.00000000    4.90999985    1.73000002
   20.21138954   -1.00000000    4.90999985    1.71000004
   20.21472359   -1.00000000    4.90999985    1.73000002
   20.21777916   -1.00000000    4.90999985    1.73000002
   20.22111130   -1.00000000    4.90999985    1.73000002
   20.22472191   -1.00000000    4.90999985    1.71000004
   20.22777748   -1.00000000    4.90999985    1.69000006
   20.23111153   -1.00000000    4.90999985    1.66999996
   20.25638962   -1.00000000    4.90999985    1.61000001
   20.26000023   -1.00000000    4.90999985    1.55999994
   20.26305580   -1.00000000    4.90999985    1.53999996
   20.26638794   -1.00000000    4.90999985    1.55999994
   20.26944351   -1.00000000    4.90999985    1.53999996
   20.27277756   -1.00000000    4.90999985    1.50000000
   20.27611160   -1.00000000    4.90999985    1.53999996
   20.27916718   -1.00000000    4.90999985    1.58000004
   20.28249931   -1.00000000    4.90999985    1.60000002
   20.28583336   -1.00000000    4.90999985    1.61000001
   20.28888893   -1.00000000    4.90999985    1.66999996
   20.29916573   -1.00000000    4.90999985    1.73000002
   20.30249977   -1.00000000    4.90999985    1.73000002
   20.30555534   -1.00000000    4.90999985    1.73000002
   20.30888748   -1.00000000    4.90999985    1.64999998
   20.31222153   -1.00000000    4.90999985    1.60000002
   20.31527710   -1.00000000    4.90999985    1.55999994
   20.31861115   -1.00000000    4.90999985    1.58000004
   20.32194519   -1.00000000    4.90999985    1.61000001
   20.32555580   -1.00000000    4.90999985    1.60000002
   20.32861137   -1.00000000    4.90999985    1.58000004
   20.33194542   -1.00000000    4.90999985    1.53999996
   20.34194565   -1.00000000    4.90999985    1.51999998
   20.34527779   -1.00000000    4.90999985    1.44000006
   20.34861183   -1.00000000    4.90999985    1.30999994
   20.35166740   -1.00000000    4.90999985    1.33000004
   20.35499954   -1.00000000    4.90999985    1.53999996
   20.35861206   -1.00000000    4.90999985    1.64999998
   20.36166763   -1.00000000    4.90999985    1.66999996
   20.36499977   -1.00000000    4.90999985    1.66999996
   20.36805534   -1.00000000    4.90999985    1.64999998
   20.37138939   -1.00000000    4.90999985    1.64999998
   20.37472153   -1.00000000    4.90999985    1.63000000
   20.38500023   -1.00000000    4.90999985    1.48000002
   20.38805580   -1.00000000    4.90999985    1.55999994
   20.39166641   -1.00000000    4.90999985    1.64999998
   20.39472198   -1.00000000    4.90999985    1.69000006
   20.39805603   -1.00000000    4.90999985    1.69000006
   20.40111160   -1.00000000    4.90999985    1.66999996
   20.40444374   -1.00000000    4.90999985    1.66999996
   20.40777779   -1.00000000    4.90999985    1.75000000
   20.41083336   -1.00000000    4.90999985    1.78999996
   20.41416550   -1.00000000    4.90999985    1.85000002
   20.41749954   -1.00000000    4.90999985    1.83000004
   20.42777634   -1.00000000    4.90999985    1.96000004
   20.43083191   -1.00000000    4.90999985    2.00000000
   20.43416595   -1.00000000    4.90999985    2.03999996
   20.43750000   -1.00000000    4.90999985    2.03999996
   20.44055557   -1.00000000    4.90999985    2.01999998
   20.44388771   -1.00000000    4.90999985    1.98000002
   20.44722176   -1.00000000    4.90999985    1.96000004
   20.45027924   -1.00000000    4.90999985    1.96000004
   20.45361137   -1.00000000    4.90999985    1.94000006
   20.45666695   -1.00000000    4.90999985    1.91999996
   20.46027946   -1.00000000    4.90999985    1.94000006
   20.47055626   -1.00000000    4.90999985    1.91999996
   20.47389030   -1.00000000    4.90999985    1.94000006
   20.47694588   -1.00000000    4.90999985    1.96000004
   20.48027802   -1.00000000    4.90999985    1.96000004
   20.48361206   -1.00000000    4.90999985    1.98000002
   20.48666763   -1.00000000    4.90999985    1.98000002
   20.48999977   -1.00000000    4.90999985    1.98000002
   20.49333382   -1.00000000    4.90999985    1.98000002
   20.49666786   -1.00000000    4.90999985    1.98000002
