    HOUR (UT)   FLARE FACTOR    SKY TESTER    SUN TESTER
   12.43277836   -1.00000000   -1.00000000   -1.00000000
   12.47527695   93.89189911    0.00000000    0.00000000
   12.47833252   97.25460052    0.00000000    0.00000000
   12.48166656   98.51349640    0.00000000    0.00000000
   12.48500061   92.70549774    0.00000000    0.00000000
   12.48805618   93.22440338    0.00000000    0.00000000
   12.49138927   96.44259644    0.00000000    0.00000000
   12.49555588   96.44259644    0.00000000    0.00000000
   12.49972248   90.53330231    0.00000000    0.00000000
   12.50277805   95.53079987    0.00000000    0.00000000
   12.50611115   82.22879791    0.00000000    0.00000000
   12.50861073  100.44000244    0.00000000    0.00000000
   12.50972176   97.80069733    0.00000000    0.00000000
   12.51305580   94.31340027    0.00000000    0.00000000
   12.51638889   94.51879883    0.00000000    0.00000000
   12.51944447   96.16570282    0.00000000    0.00000000
   12.52277756   94.92700195    0.00000000    0.00000000
   12.52583313   92.71659851    0.00000000    0.00000000
   12.52916622   91.67680359    0.00000000    0.00000000
   12.53249931   93.41419983    0.00000000    0.00000000
   12.53833389   93.41419983    0.00000000    0.00000000
   12.54250050  104.23600006    0.00000000    0.00000000
   12.54583359   99.96720123    0.00000000    0.00000000
   12.54888916   -1.00000000    0.00000000    0.00000000
   12.55222225   -1.00000000    0.00000000    0.00000000
   12.55527782  101.00099945    0.00000000    0.00000000
   12.55861092   92.41950226    0.00000000    0.00000000
   12.56194496   92.01920319    0.00000000    0.00000000
   12.56500053   91.34429932    0.00000000    0.00000000
   12.56833363   95.99579620    0.00000000    0.00000000
   12.57166672   90.38169861    0.00000000    0.00000000
   12.57472229   85.22190094    0.00000000    0.00000000
   12.57527733   90.37999725    0.00000000    0.00000000
   12.58111095   90.37999725    0.00000000    0.00000000
   12.58527756   89.61820221    0.00000000    0.00000000
   12.58861065   85.63200378    0.00000000    0.00000000
   12.59166622   87.25379944    0.00000000    0.00000000
   12.59499931   96.80300140    0.00000000    0.00000000
   12.59833336   94.62680054    0.00000000    0.00000000
   12.60138893   91.94670105    0.00000000    0.00000000
   12.60472298   92.35369873    0.00000000    0.00000000
   12.60805607   94.02459717    0.00000000    0.00000000
   12.60861111   89.26239777    0.00000000    0.00000000
   12.61166668   89.69660187    0.00000000    0.00000000
   12.61472225   91.79070282    0.00000000    0.00000000
   12.61805534   91.48860168    0.00000000    0.00000000
   12.62416649   91.48860168    0.00000000    0.00000000
   12.62805557   86.17819977    0.00000000    0.00000000
   12.63138866   83.76830292    0.00000000    0.00000000
   12.63472176   84.93859863    0.00000000    0.00000000
   12.63777733   82.68129730    0.00000000    0.00000000
   12.64111137   88.04149628    0.00000000    0.00000000
   12.64194393   83.08830261    0.00000000    0.00000000
   12.64472198   85.28410339    0.00000000    0.00000000
   12.64777756   87.47709656    0.00000000    0.00000000
   12.65111065   84.86129761    0.00000000    0.00000000
   12.65444374   79.08769989    0.00000000    0.00000000
   12.65749931   87.24330139    0.00000000    0.00000000
   12.66083336   82.87979889    0.00000000    0.00000000
   12.66694450   82.87979889    0.00000000    0.00000000
   12.67111111   80.78620148    0.00000000    0.00000000
   12.67416668   77.24800110    0.00000000    0.00000000
   12.67527771   93.69789886    0.00000000    0.00000000
   12.67805576   82.74369812    0.00000000    0.00000000
   12.68111134   84.70249939    0.00000000    0.00000000
   12.68444443   77.48269653    0.00000000    0.00000000
   12.68777752   86.73470306    0.00000000    0.00000000
   12.69083309   78.65329742    0.00000000    0.00000000
   12.69416714   82.08889771    0.00000000    0.00000000
   12.69722271   83.31289673    0.00000000    0.00000000
   12.70055580   81.59349823    0.00000000    0.00000000
   12.70388889   82.06880188    0.00000000    0.00000000
   12.70972157   82.06880188    0.00000000    0.00000000
   12.71388912   80.66609955    0.00000000    0.00000000
   12.71694374   78.24700165    0.00000000    0.00000000
   12.72027779   78.39360046    0.00000000    0.00000000
   12.72361088   82.26290131    0.00000000    0.00000000
   12.72666645   81.12280273    0.00000000    0.00000000
   12.72999954   85.28309631    0.00000000    0.00000000
   12.73333359   82.47669983    0.00000000    0.00000000
   12.73638916   79.48169708    0.00000000    0.00000000
   12.73972225   80.46990204    0.00000000    0.00000000
   12.74194431   83.06700134    0.00000000    0.00000000
   12.74333382   82.74859619    0.00000000    0.00000000
   12.74638939   79.37439728    0.00000000    0.00000000
   12.75249958   79.37439728    0.00000000    0.00000000
   12.75666714   78.61489868    0.00000000    0.00000000
   12.76000023   77.85269928    0.00000000    0.00000000
   12.76305580   77.44290161    0.00000000    0.00000000
   12.76638889   77.93979645    0.00000000    0.00000000
   12.76972198   85.81349945    0.00000000    0.00000000
   12.77277756   87.79409790    0.00000000    0.00000000
   12.77527714   79.70780182    0.00000000    0.00000000
   12.77666664   81.33760071    0.00000000    0.00000000
   12.77972221   76.49829865    0.00000000    0.00000000
   12.78305531   76.09760284    0.00000000    0.00000000
   12.78638935   80.14649963    0.00000000    0.00000000
   12.78944492   77.54299927    0.00000000    0.00000000
   12.79555607   77.54299927    0.00000000    0.00000000
   12.79944515   74.38950348    0.00000000    0.00000000
   12.80277824   74.46440125    0.00000000    0.00000000
   12.80611134   75.44509888    0.00000000    0.00000000
   12.80861092   74.86679840    0.00000000    0.00000000
   12.80972195   77.56089783    0.00000000    0.00000000
   12.81277752   76.13690186    0.00000000    0.00000000
   12.81611156   74.69000244    0.00000000    0.00000000
   12.81944466   74.47640228    0.00000000    0.00000000
   12.82250023   76.43479919    0.00000000    0.00000000
   12.82583332   75.88539886    0.00000000    0.00000000
   12.82916641   77.48470306    0.00000000    0.00000000
   12.83222198   74.74310303    0.00000000    0.00000000
   12.83833313   74.74310303    0.00000000    0.00000000
   12.84249973   73.10880280    0.00000000    0.00000000
   12.84555531   72.12370300    0.00000000    0.00000000
   12.84888840   73.65899658    0.00000000    0.00000000
   12.85194492   72.73439789    0.00000000    0.00000000
   12.85527802   74.37270355    0.00000000    0.00000000
   12.85861111   72.89569855    0.00000000    0.00000000
   12.86166668   73.89170074    0.00000000    0.00000000
   12.86500072   74.94940186    0.00000000    0.00000000
   12.86833382   71.74600220    0.00000000    0.00000000
   12.87138939   77.25659943    0.00000000    0.00000000
   12.87472248   80.53469849    0.00000000    0.00000000
   12.87527752   88.73200226    0.00000000    0.00000000
   12.88111115   88.73200226    0.00000000    0.00000000
   12.88527775   74.36070251    0.00000000    0.00000000
   12.88833332   73.74490356    0.00000000    0.00000000
   12.89166641   73.42019653    0.00000000    0.00000000
   12.89499950   73.63549805    0.00000000    0.00000000
   12.89805508   75.92649841    0.00000000    0.00000000
   12.90138817   75.56210327    0.00000000    0.00000000
   12.90472221   76.93789673    0.00000000    0.00000000
   12.90777779   75.16030121    0.00000000    0.00000000
   12.90861034   77.26619720    0.00000000    0.00000000
   12.91138840   79.18170166    0.00000000    0.00000000
   12.91472149   75.44940186    0.00000000    0.00000000
   12.91777802   79.52590179    0.00000000    0.00000000
   12.92388916   79.52590179    0.00000000    0.00000000
   12.92805576   78.91159821    0.00000000    0.00000000
   12.93138885   82.23680115    0.00000000    0.00000000
   12.93444443   78.92330170    0.00000000    0.00000000
   12.93777752   78.66989899    0.00000000    0.00000000
   12.94111156   76.51719666    0.00000000    0.00000000
   12.94194412   83.17600250    0.00000000    0.00000000
   12.94472218   75.75199890    0.00000000    0.00000000
   12.94805527   74.97250366    0.00000000    0.00000000
   12.95111084   76.46279907    0.00000000    0.00000000
   12.95444393   78.21739960    0.00000000    0.00000000
   12.95749950   76.02239990    0.00000000    0.00000000
   12.96083355   75.81009674    0.00000000    0.00000000
   12.96694374   75.81009674    0.00000000    0.00000000
   12.97083282   82.44309998    0.00000000    0.00000000
   12.97416592   76.67230225    0.00000000    0.00000000
   12.97527695   74.29010010    0.00000000    0.00000000
   12.97777748   74.83119965    0.00000000    0.00000000
   12.98111057   76.93969727    0.00000000    0.00000000
   12.98416710   77.26779938    0.00000000    0.00000000
   12.98750019   76.37390137    0.00000000    0.00000000
   12.99055576   77.51599884    0.00000000    0.00000000
   12.99388885   76.11460114    0.00000000    0.00000000
   12.99722290   76.40699768    0.00000000    0.00000000
   13.00027752   72.94999695    0.00000000    0.00000000
   13.00361156   75.30799866    0.00000000    0.00000000
   13.00972176   75.30799866    0.00000000    0.00000000
   13.01388931   74.75450134    0.00000000    0.00000000
   13.01694393   74.64289856    0.00000000    0.00000000
   13.02027798   74.93689728    0.00000000    0.00000000
   13.02361107   81.05999756    0.00000000    0.00000000
   13.02666664   77.61450195    0.00000000    0.00000000
   13.02999973   81.97949982    0.00000000    0.00000000
   13.03305531   83.63590240    0.00000000    0.00000000
   13.03638935   81.32039642    0.00000000    0.00000000
   13.03972244   82.99210358    0.00000000    0.00000000
   13.04194450   79.94470215    0.00000000    0.00000000
   13.04333401   80.49330139    0.00000000    0.00000000
   13.04666710   82.66619873    0.00000000    0.00000000
   13.05249977   82.66619873    0.00000000    0.00000000
   13.05666733   81.68170166    0.00000000    0.00000000
   13.06000042   82.10639954    0.00000000    0.00000000
   13.06305599   78.76540375    0.00000000    0.00000000
   13.06638908   83.37860107    0.00000000    0.00000000
   13.06944466   83.80870056    0.00000000    0.00000000
   13.07277775   83.36949921    0.00000000    0.00000000
   13.07527733   82.54100037    0.00000000    0.00000000
   13.07638836   84.79389954    0.00000000    0.00000000
   13.07972240   82.70680237    0.00000000    0.00000000
   13.08277798   83.20939636    0.00000000    0.00000000
   13.08611107   81.30979919    0.00000000    0.00000000
   13.08916664   84.75520325    0.00000000    0.00000000
   13.09527779   84.75520325    0.00000000    0.00000000
   13.09944439   79.83920288    0.00000000    0.00000000
   13.10277843   85.09390259    0.00000000    0.00000000
   13.10583401   82.21829987    0.00000000    0.00000000
   13.10861111   84.10790253    0.00000000    0.00000000
   13.10972214   79.70300293    0.00000000    0.00000000
   13.11305618   83.14669800    0.00000000    0.00000000
   13.11611176   83.35169983    0.00000000    0.00000000
   13.11944485   84.99520111    0.00000000    0.00000000
   13.12250042   83.89399719    0.00000000    0.00000000
   13.12583351   84.22650146    0.00000000    0.00000000
   13.12916660   88.67729950    0.00000000    0.00000000
   13.13222218   89.60669708    0.00000000    0.00000000
   13.13833332   89.60669708    0.00000000    0.00000000
   13.14222240   91.81539917    0.00000000    0.00000000
   13.14555550   93.45619965    0.00000000    0.00000000
   13.14888859   90.04550171    0.00000000    0.00000000
   13.15194416   93.42359924    0.00000000    0.00000000
   13.15527725   93.01219940    0.00000000    0.00000000
   13.15861034   92.99949646    0.00000000    0.00000000
   13.16166592   92.05349731    0.00000000    0.00000000
   13.16499996   91.75240326    0.00000000    0.00000000
   13.16833401   93.63089752    0.00000000    0.00000000
   13.17138958   97.50679779    0.00000000    0.00000000
   13.17472267   95.58869934    0.00000000    0.00000000
   13.17527771   98.77510071    0.00000000    0.00000000
   13.18111134   98.77510071    0.00000000    0.00000000
   13.18527794  104.43099976    0.00000000    0.00000000
   13.18833351   98.92630005    0.00000000    0.00000000
   13.19166660  102.56199646    0.00000000    0.00000000
   13.19499969  100.36599731    0.00000000    0.00000000
   13.19805527  107.65399933    0.00000000    0.00000000
   13.20138836  101.68499756    0.00000000    0.00000000
   13.20444393  102.78199768    0.00000000    0.00000000
   13.20777798  104.18000031    0.00000000    0.00000000
   13.20861053  105.61199951    0.00000000    0.00000000
   13.21138859  106.07499695    0.00000000    0.00000000
   13.21472168  106.40599823    0.00000000    0.00000000
   13.21777725  109.86499786    0.00000000    0.00000000
   13.22388840  109.86499786    0.00000000    0.00000000
   13.22805500  109.89299774    0.00000000    0.00000000
   13.23138809  109.61100006    0.00000000    0.00000000
   13.23444462  110.13500214    0.00000000    0.00000000
   13.23777771  111.05699921    0.00000000    0.00000000
   13.24111176  113.67700195    0.00000000    0.00000000
   13.24194431  110.76699829    0.00000000    0.00000000
   13.24472237  108.73400116    0.00000000    0.00000000
   13.24805546  111.20400238    0.00000000    0.00000000
   13.25111103  114.55899811    0.00000000    0.00000000
   13.25444412  113.49600220    0.00000000    0.00000000
   13.25777817  115.94200134    0.00000000    0.00000000
   13.26083374  117.19400024    0.00000000    0.00000000
   13.26666641  117.19400024    0.00000000    0.00000000
   13.27083302  118.72000122    0.00000000    0.00000000
   13.27416611  120.52600098    0.00000000    0.00000000
   13.27527714  121.83999634    0.00000000    0.00000000
   13.27777767  120.87999725    0.00000000    0.00000000
   13.28111076  124.36199951    0.00000000    0.00000000
   13.28416729  127.69400024    0.00000000    0.00000000
   13.28750038  124.92900085    0.00000000    0.00000000
   13.29083347  128.73599243    0.00000000    0.00000000
   13.29388905  129.48699951    0.00000000    0.00000000
   13.29722309  138.69700623    0.00000000    0.00000000
   13.30027771  136.13900757    0.00000000    0.00000000
   13.30361176  129.79299927    0.00000000    0.00000000
   13.30944443  129.79299927    0.00000000    0.00000000
   13.31361103  130.30200195    0.00000000    0.00000000
   13.31694412  130.07299805    0.00000000    0.00000000
   13.32027817  132.01800537    0.00000000    0.00000000
   13.32333374  129.27299500    0.00000000    0.00000000
   13.32666683  134.28799438    0.00000000    0.00000000
   13.32972240  141.36700439    0.00000000    0.00000000
   13.33305550  138.25000000    0.00000000    0.00000000
   13.33638859  145.27699280    0.00000000    0.00000000
   13.33944416  136.33999634    0.00000000    0.00000000
   13.34194374  139.19799805    0.00000000    0.00000000
   13.34305477  138.63299561    0.00000000    0.00000000
   13.34638882  142.83200073    0.00000000    0.00000000
   13.35249996  142.83200073    0.00000000    0.00000000
   13.35666752  139.84899902    0.00000000    0.00000000
   13.35972214  149.08500671    0.00000000    0.00000000
   13.36305618  153.80499268    0.00000000    0.00000000
   13.36638927  152.11799622    0.00000000    0.00000000
   13.36944485  153.31599426    0.00000000    0.00000000
   13.37277794  151.85099792    0.00000000    0.00000000
   13.37527752  155.81199646    0.00000000    0.00000000
   13.37638855  151.94400024    0.00000000    0.00000000
   13.37972260  156.81199646    0.00000000    0.00000000
   13.38277817  159.10499573    0.00000000    0.00000000
   13.38611126  151.68800354    0.00000000    0.00000000
   13.38944435  158.60099792    0.00000000    0.00000000
   13.39527798  158.60099792    0.00000000    0.00000000
   13.39944458  163.62699890    0.00000000    0.00000000
   13.40277767  156.65699768    0.00000000    0.00000000
   13.40583324  170.71699524    0.00000000    0.00000000
   13.40861034  168.75799561    0.00000000    0.00000000
   13.40944386  183.48500061    0.00000000    0.00000000
   13.41277695  161.43099976    0.00000000    0.00000000
   13.41583252  163.61000061    0.00000000    0.00000000
   13.41916656  155.89399719    0.00000000    0.00000000
   13.42250061  160.22500610    0.00000000    0.00000000
   13.42555618  164.17399597    0.00000000    0.00000000
   13.42888927  161.54299927    0.00000000    0.00000000
   13.43194485  170.75900269    0.00000000    0.00000000
   13.43805599  170.75900269    0.00000000    0.00000000
   13.44222260  165.16299438    0.00000000    0.00000000
   13.44555569  164.62399292    0.00000000    0.00000000
   13.44861126  167.47000122    0.00000000    0.00000000
   13.45194435  166.50500488    0.00000000    0.00000000
   13.45527744  172.05400085    0.00000000    0.00000000
   13.45833302  159.75799561    0.00000000    0.00000000
   13.46166611  170.08999634    0.00000000    0.00000000
   13.46500015  172.29800415    0.00000000    0.00000000
   13.46805477  166.57099915    0.00000000    0.00000000
   13.47138882  172.66299438    0.00000000    0.00000000
   13.47444439  179.92100525    0.00000000    0.00000000
   13.47555542  181.10600281    0.00000000    0.00000000
   13.49611092  181.10600281    0.00000000    0.00000000
   13.50027752  190.16999817    0.00000000    0.00000000
   13.50361156  196.71600342    0.00000000    0.00000000
   13.50666714  193.49299622    0.00000000    0.00000000
   13.50888920  194.60800171    0.00000000    0.00000000
   13.51027775  188.61399841    0.00000000    0.00000000
   13.51361084  197.04600525    0.00000000    0.00000000
   13.51666641  197.01300049    0.00000000    0.00000000
   13.51999950  198.75799561    0.00000000    0.00000000
   13.52333355  186.06700134    0.00000000    0.00000000
   13.52638817  183.09800720    0.00000000    0.00000000
   13.52972221  201.13800049    0.00000000    0.00000000
   13.53305531  202.91099548    0.00000000    0.00000000
   13.53888893  202.91099548    0.00000000    0.00000000
   13.54305553  215.20799255    0.00000000    0.00000000
   13.54611111  199.91099548    0.00000000    0.00000000
   13.54944515  233.75399780    0.00000000    0.00000000
   13.55277824  218.01100159    0.00000000    0.00000000
   13.55583382  229.55000305    0.00000000    0.00000000
   13.55916691  239.40199280    0.00000000    0.00000000
   13.56250000  245.89399719    0.00000000    0.00000000
   13.56555557  251.47500610    0.00000000    0.00000000
   13.56888866  219.47200012    0.00000000    0.00000000
   13.57194424  246.31500244    0.00000000    0.00000000
   13.57527733  237.58399963    0.00000000    0.00000000
   13.57583332  228.71400452    0.00000000    0.00000000
   13.58166695  228.71400452    0.00000000    0.00000000
   13.58583260  240.75799561    0.00000000    0.00000000
   13.58916664  244.46699524    0.00000000    0.00000000
   13.59222221  242.05799866    0.00000000    0.00000000
   13.59555531  263.67800903    0.00000000    0.00000000
   13.59888840  220.51600647    0.00000000    0.00000000
   13.60194492  239.55599976    0.00000000    0.00000000
   13.60527802  247.12800598    0.00000000    0.00000000
   13.60833359  232.53399658    0.00000000    0.00000000
   13.60916710  233.74299622    0.00000000    0.00000000
   13.61222267  237.13000488    0.00000000    0.00000000
   13.61527824  208.11700439    0.00000000    0.00000000
   13.61861134  218.00000000    0.00000000    0.00000000
   13.62444496  218.00000000    0.00000000    0.00000000
   13.62861156  212.47000122    0.00000000    0.00000000
   13.63194466  217.83200073    0.00000000    0.00000000
   13.63527775  218.59599304    0.00000000    0.00000000
   13.63833332  219.71400452    0.00000000    0.00000000
   13.64166641  219.69999695    0.00000000    0.00000000
   13.64249992  211.34399414    0.00000000    0.00000000
   13.64527798  218.09399414    0.00000000    0.00000000
   13.64833355  199.23500061    0.00000000    0.00000000
   13.65166664  216.90800476    0.00000000    0.00000000
   13.65472221  199.23199463    0.00000000    0.00000000
   13.65805531  217.44299316    0.00000000    0.00000000
   13.66138840  213.57000732    0.00000000    0.00000000
   13.66750050  213.57000732    0.00000000    0.00000000
   13.67166710  198.79499817    0.00000000    0.00000000
   13.67472267  210.48300171    0.00000000    0.00000000
   13.67583370  212.06300354    0.00000000    0.00000000
   13.67861176  213.04699707    0.00000000    0.00000000
   13.68166733  225.50599670    0.00000000    0.00000000
   13.68500042  235.66799927    0.00000000    0.00000000
   13.68805599  228.84599304    0.00000000    0.00000000
   13.69138908  233.77200317    0.00000000    0.00000000
   13.69472218  232.93699646    0.00000000    0.00000000
   13.69777775  237.24899292    0.00000000    0.00000000
   13.70111084  249.50700378    0.00000000    0.00000000
   13.70444393  249.34199524    0.00000000    0.00000000
   13.71027756  249.34199524    0.00000000    0.00000000
   13.71444416  268.45498657    0.00000000    0.00000000
   13.71749973  279.02999878    0.00000000    0.00000000
   13.72083282  311.77099609    0.00000000    0.00000000
   13.72416592  321.61599731    0.00000000    0.00000000
   13.72722149  327.85400391    0.00000000    0.00000000
   13.73055553  349.55099487    0.00000000    0.00000000
   13.73361111  343.55899048    0.00000000    0.00000000
   13.73694515  384.29000854    0.00000000    0.00000000
   13.74027824  406.02499390    0.00000000    0.00000000
   13.74222279  422.31900024    0.00000000    0.00000000
   13.74361134  439.15600586    0.00000000    0.00000000
   13.74499989  427.52899170    0.00000000    0.00000000
   13.74638939  418.91699219    0.00000000    0.00000000
   13.74777794  445.49301147    0.00000000    0.00000000
   13.74916649  432.25399780    0.00000000    0.00000000
   13.75055599  375.30801392    0.00000000    0.00000000
   13.75194454  382.88400269    0.00000000    0.00000000
   13.75333309  354.20700073    0.00000000    0.00000000
   13.75472260  299.07400513    0.00000000    0.00000000
   13.75472260  311.77099609    0.00000000    0.00000000
   13.75472260  321.61599731    0.00000000    0.00000000
   13.75500011  327.85400391    0.00000000    0.00000000
   13.75500011  349.55099487    0.00000000    0.00000000
   13.75500011  343.55899048    0.00000000    0.00000000
   13.75527763  384.29000854    0.00000000    0.00000000
   13.75527763  406.02499390    0.00000000    0.00000000
   13.75527763  268.45498657    0.00000000    0.00000000
   13.75555515  279.02999878    0.00000000    0.00000000
   13.75611115  256.40600586    0.00000000    0.00000000
   13.75916672  187.08900452    0.00000000    0.00000000
   13.76249981  167.49899292    0.00000000    0.00000000
   13.76583290  183.57099915    0.00000000    0.00000000
   13.76888847  162.91000366    0.00000000    0.00000000
   13.77555561  162.91000366    0.00000000    0.00000000
   13.77944374  123.97000122    0.00000000    0.00000000
   13.78277779   82.54029846    0.00000000    0.00000000
   13.78611183   59.42539978    0.00000000    0.00000000
   13.78861141   60.83409882    0.00000000    0.00000000
   13.78944492   38.46780014    0.00000000    0.00000000
   13.79277802   -1.00000000    0.00000000    0.00000000
   13.79583359   -1.00000000    0.00000000    0.00000000
   13.79916668   -1.00000000    0.00000000    0.00000000
   13.80249977   -1.00000000    0.00000000    0.00000000
   13.80555534   -1.00000000    0.00000000    0.00000000
   13.80888939   -1.00000000    0.00000000    0.00000000
   13.81194496   -1.00000000    0.00000000    0.00000000
   13.82222176   -1.00000000    0.00000000    0.00000000
   13.82555580   -1.00000000    0.00000000    0.00000000
   13.82861137   -1.00000000    0.00000000    0.00000000
   13.83194447   -1.00000000    0.00000000    0.00000000
   13.83527756   -1.00000000    0.00000000    0.00000000
   13.83833313   -1.00000000    0.00000000    0.00000000
   13.84166622   -1.00000000    0.00000000    0.00000000
   13.84499931   -1.00000000    0.00000000    0.00000000
   13.84805489   -1.00000000    0.00000000    0.00000000
   13.85138893   -1.00000000    0.00000000    0.00000000
   13.85472298   -1.00000000    0.00000000    0.00000000
   13.86527824   -1.00000000    0.00000000    0.00000000
   13.86833382   -1.00000000    0.00000000    0.00000000
   13.87166691   -1.00000000    0.00000000    0.00000000
   13.87472248   -1.00000000    0.00000000    0.00000000
   13.87805557   -1.00000000    0.00000000    0.00000000
   13.88138866   -1.00000000    0.00000000    0.00000000
   13.88444424   -1.00000000    0.00000000    0.00000000
   13.88777733   -1.00000000    0.00000000    0.00000000
   13.89138889   -1.00000000    0.00000000    0.00000000
   13.89444447   -1.00000000    0.00000000    0.00000000
   13.89777756   -1.00000000    0.00000000    0.00000000
   13.90805531   -1.00000000    0.00000000    0.00000000
   13.91111088   -1.00000000    0.00000000    0.00000000
   13.91444397   -1.00000000    0.00000000    0.00000000
   13.91777802   -1.00000000    0.00000000    0.00000000
   13.92083359   -1.00000000    0.00000000    0.00000000
   13.92444515   -1.00000000    0.00000000    0.00000000
   13.92750072   -1.00000000    0.00000000    0.00000000
   13.93083382   -1.00000000    0.00000000    0.00000000
   13.93416691   -1.00000000    0.00000000    0.00000000
   13.93722248   -1.00000000    0.00000000    0.00000000
   13.94055557   -1.00000000    0.00000000    0.00000000
   13.95083332   -1.00000000    0.00000000    0.00000000
   13.95416641   -1.00000000    0.00000000    0.00000000
   13.95749950   -1.00000000    0.00000000    0.00000000
   13.96083355   -1.00000000    0.00000000    0.00000000
   13.96388912   -1.00000000    0.00000000    0.00000000
   13.96722221   -1.00000000    0.00000000    0.00000000
   13.97027779   -1.00000000    0.00000000    0.00000000
   13.97361088   -1.00000000    0.00000000    0.00000000
   13.97694397   -1.00000000    0.00000000    0.00000000
   13.97999954   -1.00000000    0.00000000    0.00000000
   13.98333359   -1.00000000    0.00000000    0.00000000
   13.99361134   -1.00000000    0.00000000    0.00000000
   13.99694443   -1.00000000    0.00000000    0.00000000
   14.00000000   -1.00000000    0.00000000    0.00000000
   14.00333309   -1.00000000    0.00000000    0.00000000
   14.00666714   -1.00000000    0.00000000    0.00000000
   14.00972176   -1.00000000    0.00000000    0.00000000
   14.01305580   -1.00000000    0.00000000    0.00000000
   14.01638889   -1.00000000    0.00000000    0.00000000
   14.04138947   92.97029877    0.56999999    2.59999990
   14.04472256   94.04830170    0.56999999    2.59999990
   14.04805565   95.31159973    0.56999999    2.59999990
   14.05111122   95.45999908    0.58999997    2.59999990
   14.05444431   92.55229950    0.58999997    2.59999990
   14.05777836   91.17720032    0.58999997    2.59999990
   14.06583309   93.98020172    1.03999996    2.59999990
   14.06916618   91.55059814    1.03999996    2.59999990
   14.07222176   93.56109619    0.79000002    2.59999990
   14.07472229   90.89800262    0.79000002    2.59999990
   14.07583332   89.16130066    0.79000002    2.59999990
   14.07916641   94.76809692    0.76999998    2.57999992
   14.08222198   87.06980133    0.88000000    2.59999990
   14.08555508   89.45989990    1.34000003    2.61999989
   14.08888817   86.92179871    1.09000003    2.59999990
   14.09194374   85.67600250    0.64999998    2.59999990
   14.09527779   83.93299866    0.64999998    2.59999990
   14.09833336   83.94450378    0.55000001    2.61999989
   14.10472298   83.94450378    0.55000001    2.59999990
   14.10888958   81.79669952    0.56999999    2.59999990
   14.11194515   90.36940002    0.56999999    2.61999989
   14.11527824   86.21829987    0.56999999    2.61999989
   14.11861134   82.05940247    0.56999999    2.61999989
   14.12166691   86.50099945    0.56999999    2.61999989
   14.12500000   80.74919891    0.56999999    2.61999989
   14.12833309   85.02899933    0.56999999    2.59999990
   14.13138866   83.37380219    0.55000001    2.61999989
   14.13472176   82.37940216    0.55000001    2.59999990
   14.13777733   81.24949646    0.55000001    2.61999989
   14.14111137   81.79419708    0.55000001    2.61999989
   14.14166641   82.45580292    0.55000001    2.61999989
   14.14750004   82.45580292    0.55000001    2.61999989
   14.15166664   80.88379669    0.55000001    2.61999989
   14.15472221   77.89620209    0.55000001    2.61999989
   14.15805531   76.08329773    0.55000001    2.61999989
   14.16138840   80.83489990    0.55000001    2.61999989
   14.16444397   75.13210297    0.55000001    2.64000010
   14.16777802   76.41259766    0.55000001    2.61999989
   14.17111111   77.56269836    0.55000001    2.61999989
   14.17416668   76.79810333    0.52999997    2.61999989
   14.17500019   76.79389954    0.52999997    2.61999989
   14.17805576   75.56759644    0.55000001    2.64000010
   14.18111134   77.56420135    0.55000001    2.64000010
   14.18444443   74.75389862    0.55000001    2.61999989
   14.19027805   74.75389862    0.52999997    2.61999989
   14.19444466   75.33180237    0.52999997    2.64000010
   14.19777775   69.43360138    0.52999997    2.64000010
   14.20083332   74.32790375    0.52999997    2.61999989
   14.20416641   75.37550354    0.52999997    2.61999989
   14.20749950   73.73069763    0.52999997    2.61999989
   14.20833302   75.36340332    0.52999997    2.61999989
   14.21111107   72.42510223    0.52999997    2.61999989
   14.21416664   72.50990295    0.52999997    2.61999989
   14.21749973   73.61350250    0.52999997    2.61999989
   14.22083282   71.41940308    0.52999997    2.61999989
   14.22388840   73.81839752    0.52999997    2.61999989
   14.22722149   71.12580109    0.51999998    2.64000010
   14.23305511   71.12580109    0.51999998    2.64000010
   14.23722267   72.55899811    0.52999997    2.61999989
   14.24055576   82.51760101    0.51999998    2.64000010
   14.24166679   79.02970123    0.51999998    2.64000010
   14.24416733   76.46720123    0.52999997    2.64000010
   14.24722290   74.71820068    0.52999997    2.64000010
   14.25055599   72.93589783    0.51999998    2.61999989
   14.25388908   71.70459747    0.51999998    2.64000010
   14.25694466   71.70709991    0.51999998    2.64000010
   14.26027775   71.18370056    0.52999997    2.64000010
   14.26333332   72.26329803    0.51999998    2.64000010
   14.26666641   72.44809723    0.52999997    2.64000010
   14.26999950   69.56220245    0.51999998    2.64000010
   14.27611065   69.56220245    0.51999998    2.61999989
   14.28027725   70.64440155    0.51999998    2.64000010
   14.28333378   71.02960205    0.50000000    2.64000010
   14.28666687   71.76879883    0.51999998    2.64000010
   14.28972244   74.35500336    0.51999998    2.61999989
   14.29305553   71.01850128    0.51999998    2.64000010
   14.29638958   71.17500305    0.51999998    2.64000010
   14.29944515   71.90319824    0.51999998    2.64000010
   14.30277824   71.67729950    0.51999998    2.64000010
   14.30611134  103.79799652    0.51999998    2.64000010
   14.30833340   70.67369843    0.51999998    2.64000010
   14.30972195   73.29820251    0.51999998    2.64000010
   14.31277752   72.98639679    0.51999998    2.64000010
   14.31888866   72.98639679    0.51999998    2.64000010
   14.32305527   70.04149628    0.51999998    2.64000010
   14.32611084   70.38009644    0.51999998    2.64000010
   14.32944393   69.61239624    0.51999998    2.61999989
   14.33277798   69.95249939    0.51999998    2.64000010
   14.33583260   69.72129822    0.51999998    2.64000010
   14.33916664   69.55609894    0.51999998    2.66000009
   14.34166622   70.49939728    0.51999998    2.64000010
   14.34277725   68.85669708    0.50000000    2.64000010
   14.34583282   72.08029938    0.51999998    2.64000010
   14.34916592   69.57089996    0.50000000    2.64000010
   14.35249996   70.65959930    0.50000000    2.64000010
   14.35555553   68.05560303    0.51999998    2.66000009
   14.36166668   68.05560303    0.52999997    2.64000010
   14.36583328   71.07219696    0.86000001    2.64000010
   14.36916637   69.10169983    0.86000001    2.64000010
   14.37222195   71.04709625    0.51999998    2.64000010
   14.37500000   68.55750275    0.61000001    2.64000010
   14.37611103   69.94339752    0.61000001    2.64000010
   14.37916660   68.98519897    0.58999997    2.66000009
   14.38249969   66.59989929    0.51999998    2.61999989
   14.38583279   70.10199738    0.51999998    2.64000010
   14.38916683   68.21700287    0.50000000    2.64000010
   14.39222240   67.54029846    0.50000000    2.64000010
   14.39555550   67.34300232    0.50000000    2.64000010
   14.39888859   67.34519958    0.50000000    2.64000010
   14.40444374   67.34519958    0.50000000    2.66000009
   14.40861034   70.92729950    0.50000000    2.66000009
   14.41194439   69.70030212    0.50000000    2.64000010
   14.41527748   69.56439972    0.47999999    2.64000010
   14.41833401   69.87180328    0.47999999    2.66000009
   14.42166710   69.35449982    0.50000000    2.64000010
   14.42472267   69.20120239    0.50000000    2.64000010
   14.42805576   69.32070160    0.50000000    2.64000010
   14.43138885   68.49669647    0.50000000    2.64000010
   14.43444443   66.83360291    0.50000000    2.66000009
   14.43777752   66.02770233    0.50000000    2.66000009
   14.44111156   65.52999878    0.50000000    2.66000009
   14.44166660   72.89730072    0.50000000    2.66000009
   14.44750023   72.89730072    0.50000000    2.64000010
   14.45166683   68.28690338    0.50000000    2.64000010
   14.45472240   67.10749817    0.50000000    2.64000010
   14.45805550   65.84940338    0.50000000    2.66000009
   14.46111107   66.73290253    0.50000000    2.64000010
   14.46444416   66.60230255    0.47999999    2.64000010
   14.46777725   67.13420105    0.50000000    2.66000009
   14.47111034   69.26640320    0.47999999    2.64000010
   14.47416592   67.89900208    0.47999999    2.64000010
   14.47499943   66.41950226    0.47999999    2.66000009
   14.47777748   66.87619781    0.47999999    2.66000009
   14.48083305   68.27459717    0.47999999    2.66000009
   14.48416710   66.66960144    0.47999999    2.66000009
   14.49027824   66.66960144    0.47999999    2.66000009
   14.49444485   66.83070374    0.47999999    2.66000009
   14.49777794   67.32019806    0.47999999    2.66000009
   14.50111103   67.28610229    0.47999999    2.66000009
   14.50416660   67.53220367    0.47999999    2.64000010
   14.50749969   66.11080170    0.47999999    2.66000009
   14.50833321   68.17710114    0.47999999    2.66000009
   14.51111126   66.50039673    0.47999999    2.66000009
   14.51416683   66.87770081    0.47999999    2.66000009
   14.51749992   66.59329987    0.47999999    2.66000009
   14.52083302   66.34660339    0.47999999    2.66000009
   14.52388859   66.57240295    0.47999999    2.66000009
   14.52722168   64.76889801    0.47999999    2.66000009
   14.53305531   64.76889801    0.47999999    2.66000009
   14.53722286   63.82649994    0.47999999    2.66000009
   14.54055595   66.35739899    0.46000001    2.67000008
   14.54166698   64.32710266    0.46000001    2.66000009
   14.54416752   66.04389954    0.46000001    2.66000009
   14.54722309   65.16570282    0.47999999    2.67000008
   14.55055618   64.94650269    0.46000001    2.66000009
   14.55388927   66.97640228    0.47999999    2.66000009
   14.55694485   64.77169800    0.46000001    2.67000008
   14.56027794   64.29799652    0.46000001    2.66000009
   14.56361103   66.32689667    0.46000001    2.66000009
   14.56666660   64.97830200    0.46000001    2.67000008
   14.56999969   67.78549957    0.46000001    2.66000009
   14.57583332   67.78549957    0.46000001    2.67000008
   14.57999992   64.45449829    0.46000001    2.66000009
   14.58333302   65.50250244    0.46000001    2.66000009
   14.58666611   66.25319672    0.46000001    2.66000009
   14.58972168   66.53440094    0.47999999    2.66000009
   14.59305477   66.33650208    0.50000000    2.67000008
   14.59611034   65.38030243    0.58999997    2.67000008
   14.59944439   64.46920013    0.70999998    2.66000009
   14.60277843   65.59300232    0.73000002    2.67000008
   14.60583401   64.20030212    0.67000002    2.66000009
   14.60833359   67.08769989    0.67000002    2.66000009
   14.60972214   63.84209824    0.61000001    2.66000009
   14.61305618   64.90450287    0.47999999    2.66000009
   14.61888885   64.90450287    0.52999997    2.66000009
   14.62277794   66.17230225    0.51999998    2.66000009
   14.62611103   65.40969849    0.51999998    2.66000009
   14.62944412   65.79370117    0.47999999    2.66000009
   14.63277817   66.96009827    0.47999999    2.66000009
   14.63583279   64.57649994    0.47999999    2.66000009
   14.63916683   65.47139740    0.47999999    2.66000009
   14.64166641   62.94649887    0.47999999    2.67000008
   14.64277744   63.47620010    0.47999999    2.67000008
   14.64583302   64.46410370    0.47999999    2.67000008
   14.64916611   64.54489899    0.47999999    2.67000008
   14.65249920   63.44559860    0.47999999    2.67000008
   14.65555477   66.39430237    0.47999999    2.66000009
   14.66166592   66.39430237    0.46000001    2.67000008
   14.66583252   63.45420074    0.46000001    2.66000009
   14.66888905   62.98059845    0.46000001    2.66000009
   14.67222214   62.95149994    0.46000001    2.67000008
   14.67500019   64.74649811    0.46000001    2.67000008
   14.67583370   67.20909882    0.46000001    2.67000008
   14.67916679   64.60240173    0.47999999    2.67000008
   14.68222237   64.23040009    0.47999999    2.67000008
   14.68555546   64.20960236    0.47999999    2.67000008
   14.68861103   63.98199844    0.46000001    2.67000008
   14.69194412   66.17980194    0.47999999    2.67000008
   14.69527817   66.75379944    0.47999999    2.66000009
   14.69833374   64.40809631    0.47999999    2.67000008
   14.70444393   64.40809631    0.47999999    2.67000008
   14.70861053   65.80979919    0.46000001    2.67000008
   14.71194458   64.21189880    0.46000001    2.67000008
   14.71500015   65.29290009    0.46000001    2.66000009
   14.71833324   63.82770157    0.46000001    2.67000008
   14.72138882   63.72900009    0.46000001    2.67000008
   14.72472191   63.18870163    0.46000001    2.67000008
   14.72805500   65.25620270    0.46000001    2.67000008
   14.73111057   64.18830109    0.47999999    2.67000008
   14.73444462   63.99140167    0.47999999    2.67000008
   14.73777771   63.83409882    0.47999999    2.67000008
   14.74083328   64.06529999    0.47999999    2.67000008
   14.74166679   65.08529663    0.47999999    2.67000008
   14.74722290   65.08529663    0.47999999    2.67000008
   14.75138855   64.19519806    0.47999999    2.67000008
   14.75472260   66.18849945    0.47999999    2.67000008
   14.75777817   64.80619812    0.52999997    2.67000008
   14.76111126   63.40399933    0.61000001    2.67000008
   14.76444435   63.84569931    0.61000001    2.67000008
   14.76749992   62.84960175    0.61000001    2.67000008
   14.77083302   63.54869843    0.61000001    2.67000008
   14.77416611   63.68349838    0.67000002    2.69000006
   14.77499962   65.04810333    0.67000002    2.69000006
   14.77777767   65.07460022    0.89999998    2.66000009
   14.78111076   64.50969696    1.39999998    2.66000009
   14.78416729   64.03170013    1.25000000    2.67000008
   14.79027843   64.03170013    0.92000002    2.67000008
   14.79416752   63.42350006    0.69000000    2.67000008
   14.79750061   64.20649719    0.47999999    2.67000008
   14.80083370   63.44919968    0.47999999    2.67000008
   14.80388927   63.26139832    0.46000001    2.67000008
   14.80722237   65.19460297    0.46000001    2.67000008
   14.80833340   64.12000275    0.46000001    2.67000008
   14.81083393   62.68289948    0.46000001    2.67000008
   14.81416702   63.93410110    0.46000001    2.67000008
   14.81722260   63.97900009    0.47999999    2.67000008
   14.82055569   63.22660065    0.47999999    2.67000008
   14.82388878   63.47859955    0.47999999    2.69000006
   14.82694435   63.93679810    0.46000001    2.67000008
   14.83305550   63.93679810    0.47999999    2.69000006
   14.83722210   65.89270020    0.47999999    2.67000008
   14.84027767   64.49449921    0.47999999    2.67000008
   14.84166622   63.12179947    0.47999999    2.67000008
   14.84388828   63.70199966    0.46000001    2.67000008
   14.84722233   63.25949860    0.46000001    2.67000008
   14.85027790   63.43669891    0.47999999    2.69000006
   14.85361195   63.98920059    0.47999999    2.67000008
   14.85666752   62.88769913    0.47999999    2.67000008
   14.86000061   64.59739685    0.46000001    2.69000006
   14.86333370   66.06159973    0.46000001    2.69000006
   14.86638927   63.83010101    0.56999999    2.67000008
   14.86972237   62.79560089    0.56999999    2.67000008
   14.87611103   62.79560089    0.44000000    2.69000006
   14.88027763   64.45829773    0.46000001    2.67000008
   14.88333321   65.52359772    0.44000000    2.67000008
   14.88666630   63.85229874    0.46000001    2.69000006
   14.88972187   62.75970078    0.46000001    2.67000008
   14.89305496   63.18600082    0.46000001    2.67000008
   14.89638901   63.81290054    0.46000001    2.69000006
   14.89944458   63.40190125    0.46000001    2.67000008
   14.90277767   63.80390167    0.46000001    2.67000008
   14.90611076   61.98270035    0.46000001    2.67000008
   14.90833282   62.45180130    0.46000001    2.67000008
   14.90972137   62.58050156    0.46000001    2.67000008
   14.91305542   62.26630020    0.46000001    2.69000006
   14.91861153   62.26630020    0.44000000    2.69000006
   14.92277813   63.21559906    0.46000001    2.69000006
   14.92611122   63.68109894    0.46000001    2.69000006
   14.92944431   64.05370331    0.44000000    2.67000008
   14.93249989   65.22480011    0.44000000    2.69000006
   14.93583298   63.99499893    0.44000000    2.69000006
   14.93888855   63.54769897    0.46000001    2.69000006
   14.94166660   62.08200073    0.44000000    2.67000008
   14.94277763   63.99340057    0.44000000    2.67000008
   14.94611073   63.96469879    0.44000000    2.69000006
   14.94916630   63.89379883    0.44000000    2.69000006
   14.95249939   63.37179947    0.44000000    2.69000006
   14.95583344   63.27769852    0.44000000    2.69000006
   14.96166611   63.27769852    0.46000001    2.69000006
   14.96555519   61.18799973    0.44000000    2.69000006
   14.96888828   62.71810150    0.46000001    2.69000006
   14.97222137   64.16519928    0.46000001    2.69000006
   14.97499943   64.82659912    0.46000001    2.69000006
   14.97583294   65.25779724    0.44000000    2.69000006
   14.97916603   65.17400360    0.46000001    2.69000006
   14.98222160   62.49649811    0.46000001    2.69000006
   14.98555565   63.50260162    0.44000000    2.69000006
   14.98861122   62.48939896    0.46000001    2.69000006
   14.99194431   63.35430145    0.44000000    2.67000008
   14.99527836   64.40809631    0.46000001    2.69000006
   14.99833393   63.98440170    0.46000001    2.69000006
   15.00444412   63.98440170    0.46000001    2.69000006
   15.00861073   64.51789856    0.46000001    2.69000006
   15.01166630   63.77149963    0.46000001    2.69000006
   15.01500034   62.92839813    0.46000001    2.69000006
   15.01833344   64.10070038    0.46000001    2.69000006
   15.02138901   65.40460205    0.46000001    2.69000006
   15.02472210   64.10659790    0.46000001    2.69000006
   15.02777767   64.03060150    0.46000001    2.69000006
   15.03111076   64.67440033    0.46000001    2.69000006
   15.03444481   63.97570038    0.46000001    2.69000006
   15.03750038   65.66439819    0.46000001    2.69000006
   15.04083347   63.16519928    0.46000001    2.69000006
   15.04166698   64.05819702    0.46000001    2.69000006
   15.06250000   64.05819702    0.46000001    2.69000006
   15.06666660   61.45420074    0.46000001    2.69000006
   15.06972218   61.26409912    0.44000000    2.69000006
   15.07305527   62.61520004    0.44000000    2.69000006
   15.07499981   61.07199860    0.44000000    2.69000006
   15.07666683   62.09109879    0.44000000    2.69000006
   15.07999992   60.43539810    0.44000000    2.69000006
   15.08305550   62.30590057    0.44000000    2.69000006
   15.08638859   60.91070175    0.44000000    2.69000006
   15.08944416   62.49150085    0.44000000    2.69000006
   15.09277725   61.38069916    0.44000000    2.69000006
   15.09611034   62.09460068    0.44000000    2.71000004
   15.09916592   61.88740158    0.44000000    2.69000006
   15.10527802   61.88740158    0.44000000    2.69000006
   15.10944462   61.00159836    0.44000000    2.69000006
   15.11250019   62.64830017    0.44000000    2.69000006
   15.11583328   61.73920059    0.44000000    2.69000006
   15.11888885   61.48630142    0.44000000    2.69000006
   15.12222195   61.46110153    0.44000000    2.69000006
   15.12555599   61.53720093    0.44000000    2.69000006
   15.12861156   62.01789856    0.44000000    2.69000006
   15.13194466   61.57759857    0.44000000    2.69000006
   15.13527775   62.31909943    0.44000000    2.69000006
   15.13833332   62.23509979    0.44000000    2.69000006
   15.14166641   64.05760193    0.44000000    2.69000006
   15.14222240   62.18560028    0.44000000    2.69000006
   15.14805508   62.18560028    0.44000000    2.69000006
   15.15222168   60.70840073    0.44000000    2.69000006
   15.15527725   61.97010040    0.44000000    2.69000006
   15.15861034   62.61240005    0.44000000    2.69000006
   15.16194439   61.64670181    0.44000000    2.69000006
   15.16499996   61.99399948    0.44000000    2.71000004
   15.16833401   60.08440018    0.44000000    2.71000004
   15.17166710   60.91419983    0.44000000    2.69000006
   15.17472267   61.98350143    0.44000000    2.69000006
   15.17555618   62.41569901    0.44000000    2.69000006
   15.17861176   63.66540146    0.44000000    2.69000006
   15.18166733   61.94670105    0.44000000    2.69000006
   15.18500042   61.53599930    0.44000000    2.69000006
   15.19083309   61.53599930    0.44000000    2.69000006
   15.19499969   62.84379959    0.44000000    2.69000006
   15.19833374   60.80649948    0.44000000    2.69000006
   15.20138836   64.01909637    0.44000000    2.69000006
   15.20472240   60.72700119    0.44000000    2.71000004
   15.20805550   61.18069839    0.44000000    2.71000004
   15.20888901   60.87480164    0.44000000    2.71000004
   15.21166611   64.99050140    0.44000000    2.71000004
   15.21472168   62.58029938    0.44000000    2.71000004
   15.21805477   62.76940155    0.41999999    2.69000006
   15.22111034   63.42440033    0.44000000    2.69000006
   15.22444439   62.05989838    0.44000000    2.69000006
   15.22777748   61.39730072    0.44000000    2.71000004
   15.23388958   61.39730072    0.44000000    2.71000004
   15.23777771   61.85580063    0.44000000    2.69000006
   15.24111176   62.61640167    0.44000000    2.69000006
   15.24222279   63.17390060    0.44000000    2.71000004
   15.24472237   63.17639923    0.44000000    2.71000004
   15.24805546   61.84669876    0.44000000    2.69000006
   15.25138855   61.33209991    0.44000000    2.69000006
   15.25444412   62.19940186    0.44000000    2.71000004
   15.25777817   60.90209961    0.44000000    2.71000004
   15.26111126   61.03279877    0.44000000    2.71000004
   15.26416683   62.68249893    0.44000000    2.71000004
   15.36944485   -1.00000000   -1.00000000   -1.00000000
   15.49305534   -1.00000000   -1.00000000   -1.00000000
   15.60277843   -1.00000000   -1.00000000   -1.00000000
   15.61722279   74.93450165    0.41999999    2.73000002
   15.62055588   64.06430054    0.41999999    2.71000004
   15.62388897   63.55189896    0.41999999    2.71000004
   15.62694454   63.54930115    0.41999999    2.73000002
   15.63027763   63.44449997    0.40000001    2.71000004
   15.63333321   63.78570175    0.41999999    2.71000004
   15.63749981   63.78570175    0.41999999    2.71000004
   15.64166641   62.71480179    0.41999999    2.71000004
   15.64499950   63.09159851    0.41999999    2.71000004
   15.64805508   64.74079895    0.47999999    2.73000002
   15.65055561   63.59769821    0.47999999    2.71000004
   15.65194416   63.64559937    0.44000000    2.71000004
   15.65527725   62.90829849    0.44000000    2.71000004
   15.65833282   64.37139893    0.41999999    2.73000002
   15.66166592   64.40170288    0.44000000    2.71000004
   15.66472149   63.13290024    0.44000000    2.71000004
   15.66805553   62.31150055    0.51999998    2.71000004
   15.67138958   63.78319931    0.46000001    2.71000004
   15.67444515   61.98020172    0.44000000    2.71000004
   15.68055630   61.98020172    0.44000000    2.71000004
   15.68444443   65.18470001    0.44000000    2.73000002
   15.68777752   65.30429840    0.52999997    2.71000004
   15.69111156   63.80670166    0.47999999    2.73000002
   15.69416714   67.33139801    0.92000002    2.71000004
   15.69750023   62.93590164    4.90999985    2.69000006
   15.70083332   64.32209778    1.66999996    2.71000004
   15.70388889   63.83810043    1.26999998    2.71000004
   15.70722198   64.98590088    1.21000004    2.71000004
   15.71027756   62.36380005    1.13000000    2.71000004
   15.71361065   63.99530029    1.16999996    2.71000004
   15.71694374   64.66429901    1.39999998    2.71000004
   15.71749973   64.12100220    1.39999998    2.71000004
   15.72333336   64.12100220    0.70999998    2.73000002
   15.72749996   64.59339905    0.88000000    2.71000004
   15.73055553   63.86389923    0.46000001    2.71000004
   15.73388958   64.87529755    0.46000001    2.71000004
   15.73722267   61.74769974    0.47999999    2.71000004
   15.74027824   63.41619873    0.47999999    2.71000004
   15.74361134   63.68059921    0.46000001    2.71000004
   15.74666691   64.84739685    0.46000001    2.71000004
   15.75000000   62.60729980    0.47999999    2.71000004
   15.75083351   63.40290070    0.47999999    2.71000004
   15.75361156   63.53150177    0.56999999    2.71000004
   15.75694466   63.29050064    0.83999997    2.71000004
   15.76027775   64.31809998    1.36000001    2.71000004
   15.76611137   64.31809998    1.63000000    2.71000004
   15.77027798   67.13120270    1.61000001    2.69000006
   15.77361107   63.03789902    1.61000001    2.71000004
   15.77666664   68.79080200    1.26999998    2.71000004
   15.77999973   71.07009888    1.11000001    2.69000006
   15.78305531   69.52269745    0.50000000    2.71000004
   15.78416729   69.92400360    0.50000000    2.71000004
   15.78666687   68.30239868    0.47999999    2.73000002
   15.79000092   72.65869904    0.51999998    2.71000004
   15.79333401   75.95809937    0.55000001    2.71000004
   15.79638958   76.50260162    0.56999999    2.73000002
   15.79972267   81.54859924    0.56999999    2.71000004
   15.80277824   68.23210144    0.46000001    2.73000002
   15.80888939   68.23210144    0.46000001    2.73000002
   15.81305599   73.85579681    0.46000001    2.71000004
   15.81638908   64.88639832    0.50000000    2.71000004
   15.81750011   77.31439972    0.64999998    2.73000002
   15.82027817   71.88880157    0.64999998    2.73000002
   15.82361126   71.66439819    0.52999997    2.71000004
   15.82666683   73.54679871    0.47999999    2.73000002
   15.82999992   77.06040192    0.46000001    2.73000002
   15.83305550   70.16359711    0.46000001    2.73000002
   15.83638859   72.58290100    0.44000000    2.73000002
   15.83972168   79.67169952    0.44000000    2.73000002
   15.84277725   72.82820129    0.41999999    2.73000002
   15.84611034   73.29530334    0.41999999    2.73000002
   15.85194492   73.29530334    0.41999999    2.73000002
   15.85583401   73.39360046    0.46000001    2.73000002
   15.85916710   71.68329620    0.56999999    2.73000002
   15.86250019   74.13890076    0.56999999    2.73000002
   15.86555576   77.05639648    0.61000001    2.73000002
   15.86888885   70.87950134    0.63000000    2.73000002
   15.87222195   82.83799744    3.84999990    2.67000008
   15.87527752   75.46330261    4.90999985    2.51999998
   15.87861156   71.20349884    4.51000023    2.66000009
   15.88166714   71.20580292    1.09000003    2.71000004
   15.88416672   67.82389832    0.83999997    2.71000004
   15.88527775   68.38539886    0.88000000    2.71000004
   15.88861084   72.98889923    1.30999994    2.69000006
   15.89472198   72.98889923    0.73000002    2.73000002
   15.89888859   63.89379883    1.09000003    2.71000004
   15.90194416   74.01219940    1.60000002    2.71000004
   15.90527725   69.69010162    1.85000002    2.71000004
   15.90861034   69.14209747    1.85000002    2.71000004
   15.91166592   67.14510345    0.44000000    2.71000004
   15.91499996   67.49739838    0.44000000    2.71000004
   15.91750050   71.97059631    0.44000000    2.71000004
   15.91861153   64.93939972    0.44000000    2.71000004
   15.92194462   67.73130035    0.44000000    2.71000004
   15.92527771   67.58080292    0.41999999    2.73000002
   15.92833328   70.96790314    0.41999999    2.73000002
   15.93166733   70.42949677    0.41999999    2.71000004
   15.93750000   70.42949677    0.61000001    2.73000002
   15.94166660   69.58999634    4.90999985    2.64000010
   15.94499969   64.96929932    0.88000000    2.73000002
   15.94805527   73.02059937    0.41999999    2.71000004
   15.95083332   70.89910126    0.41999999    2.73000002
   15.95166683   65.67620087    0.41999999    2.71000004
   15.95499992   69.44809723    0.41999999    2.73000002
   15.95833302   69.17310333    0.44000000    2.73000002
   15.96138859   62.43999863    0.41999999    2.73000002
   15.96472168   66.57859802    0.41999999    2.73000002
   15.96777725   67.50279999    0.79000002    2.73000002
   15.97111034   63.03540039    1.05999994    2.75000000
   15.97444439   65.72109985    1.09000003    2.71000004
   15.98027706   65.72109985    1.00000000    2.73000002
   15.98444462   69.71369934    2.80999994    2.69000006
   15.98777771   62.78170013    1.69000006    2.71000004
   15.99083328   63.85789871    0.70999998    2.73000002
   15.99416733   64.71900177    0.52999997    2.71000004
   15.99750042   70.56060028    0.46000001    2.73000002
   16.00055504   65.20939636    0.44000000    2.73000002
   16.00388908   67.07119751    0.40000001    2.73000002
   16.00722313   63.42129898    0.40000001    2.73000002
   16.01027870   64.94730377    0.40000001    2.71000004
   16.01361084   72.18920135    0.46000001    2.73000002
   16.01666641   66.72229767    1.05999994    2.69000006
   16.01749992   65.67539978    1.05999994    2.69000006
   16.02333260   65.67539978    1.96000004    2.71000004
   16.02722168   67.81639862    0.75000000    2.73000002
   16.03055573   69.48410034    0.95999998    2.73000002
   16.03388786   73.93470001    1.01999998    2.73000002
   16.03694344   64.53170013    2.36999989    2.73000002
   16.04027748   72.93379974    2.55999994    2.73000002
   16.04361153   65.02610016    1.98000002    2.73000002
   16.04666710   69.10569763    0.61000001    2.71000004
   16.04999924   69.87650299    0.52999997    2.73000002
   16.05083275   70.06680298    0.56999999    2.73000002
   16.05333328   67.22049713    0.61000001    2.73000002
   16.05666542   68.94670105    0.61000001    2.73000002
   16.05999947   65.23670197    0.44000000    2.73000002
   16.06611061   65.23670197    0.40000001    2.75000000
   16.07027817   64.65090179    0.40000001    2.73000002
   16.07333374   64.86789703    0.40000001    2.73000002
   16.07666779   64.87969971    0.40000001    2.73000002
   16.08000183   66.47589874    0.40000001    2.73000002
   16.08305550   63.60340118    0.40000001    2.73000002
   16.08416748   65.35469818    0.40000001    2.73000002
   16.08666801   65.03959656    0.44000000    2.73000002
   16.09000015   65.97000122    0.44000000    2.73000002
   16.09333420   71.72149658    0.44000000    2.73000002
   16.09638977   67.64289856    0.52999997    2.73000002
   16.09972191   70.15679932    0.92000002    2.73000002
   16.10305595   68.00070190    2.75000000    2.73000002
   16.10888863   68.00070190    1.64999998    2.71000004
   16.11305618   68.93160248    1.51999998    2.71000004
   16.11638832   72.62779999    2.26999998    2.71000004
   16.11750031   69.25530243    2.26999998    2.71000004
   16.11972237   71.42819977    2.59999990    2.71000004
   16.12305641   69.86769867    3.07999992    2.71000004
   16.12638855   67.59960175    3.43000007    2.69000006
   16.12944412   67.92140198    1.13000000    2.71000004
   16.13277817   71.16790009    0.73000002    2.71000004
   16.13611031   68.62979889    0.70999998    2.73000002
   16.13916588   66.66989899    1.00000000    2.73000002
   16.14249992   67.31220245    2.61999989    2.71000004
   16.14555550   66.27369690    1.78999996    2.71000004
   16.15166664   66.27369690    0.70999998    2.71000004
   16.15583229   67.37719727    0.63000000    2.73000002
   16.15916634   68.90249634    0.67000002    2.73000002
   16.16250038   66.98069763    0.67000002    2.73000002
   16.16555595   64.52790070    0.76999998    2.73000002
   16.16888809   66.86930084    0.98000002    2.73000002
   16.17194366   64.42310333    1.16999996    2.73000002
   16.17527771   66.59989929    1.03999996    2.71000004
   16.17860985   65.06929779    0.67000002    2.73000002
   16.18166542   73.02130127    0.52999997    2.73000002
   16.18416595   73.38690186    0.41999999    2.71000004
   16.18527603   66.73280334    0.41999999    2.71000004
   16.18861008   65.19860077    0.41999999    2.73000002
   16.19472122   65.19860077    0.41999999    2.73000002
   16.19861031   67.37650299    0.41999999    2.73000002
   16.20194435   69.63439941    0.41999999    2.73000002
   16.20527840   69.85279846    0.40000001    2.73000002
   16.20833397   67.06800079    0.40000001    2.73000002
   16.21166801   69.59010315    0.41999999    2.73000002
   16.21500015   67.24559784    0.41999999    2.75000000
   16.21750069   72.53569794    0.41999999    2.73000002
   16.21833420   64.31829834    0.41999999    2.75000000
   16.22166634   65.91729736    0.41999999    2.73000002
   16.22500038   65.55619812    0.40000001    2.73000002
   16.22805595   66.34609985    0.40000001    2.73000002
   16.23139000   67.77239990    0.40000001    2.73000002
   16.23750114   67.77239990    0.40000001    2.71000004
   16.24166679   72.60970306    0.40000001    2.73000002
   16.24472237   70.86679840    0.40000001    2.73000002
   16.24805641   70.43329620    0.40000001    2.73000002
   16.25083351   73.56060028    0.40000001    2.73000002
   16.25194359   69.09919739    0.41999999    2.73000002
   16.25499916   64.82820129    0.41999999    2.73000002
   16.25833321   69.81430054    0.41999999    2.73000002
   16.26138878   66.65989685    0.41999999    2.73000002
   16.26472282   71.61270142    0.41999999    2.73000002
   16.26805496   70.40959930    0.41999999    2.73000002
   16.27111053   67.64309692    0.41999999    2.73000002
   16.27444458   67.23010254    0.40000001    2.73000002
   16.28027725   67.23010254    0.40000001    2.73000002
   16.28444481   67.82550049    0.41999999    2.73000002
   16.28777695   73.21669769    0.41999999    2.73000002
   16.29083252   69.38159943    0.41999999    2.73000002
   16.29416656   73.56169891    0.41999999    2.73000002
   16.29722214   69.55300140    0.41999999    2.73000002
   16.30055428   67.77760315    0.41999999    2.71000004
   16.30388832   71.42369843    0.41999999    2.73000002
   16.30694389   74.51709747    0.41999999    2.73000002
   16.31027794   75.47450256    0.41999999    2.73000002
   16.31361008   71.67140198    0.41999999    2.73000002
   16.31666756   73.48519897    0.41999999    2.71000004
   16.31750107   77.31359863    0.41999999    2.71000004
   16.32305717   77.31359863    0.41999999    2.73000002
   16.32722282   72.44049835    0.41999999    2.73000002
   16.33055687   73.11779785    0.41999999    2.71000004
   16.33388901   71.68879700    0.44000000    2.73000002
   16.33694458   71.22730255    0.44000000    2.73000002
   16.34027863   67.99320221    0.44000000    2.73000002
   16.34333420   67.94850159    0.44000000    2.73000002
   16.34666824   73.52729797    0.41999999    2.73000002
   16.35000038   71.05000305    0.41999999    2.73000002
   16.35083389   71.04479980    0.41999999    2.73000002
   16.35361099   70.07990265    0.41999999    2.73000002
   16.35666656   65.91230011    0.41999999    2.73000002
   16.36000061   67.09629822    0.41999999    2.73000002
   16.36611176   67.09629822    0.44000000    2.73000002
   16.37000084   68.75700378    0.44000000    2.73000002
   16.37333298   66.98580170    0.41999999    2.73000002
   16.37666702   68.23600006    0.44000000    2.75000000
   16.37972260   68.84909821    0.41999999    2.73000002
   16.38305473   69.10459900    0.41999999    2.73000002
   16.38416672   69.48259735    0.41999999    2.73000002
   16.38694382   68.81890106    0.41999999    2.71000004
   16.38999939   67.25589752    0.41999999    2.73000002
   16.39333344   69.10440063    0.41999999    2.73000002
   16.39638901   67.94750214    0.41999999    2.73000002
   16.39972115   69.27100372    0.41999999    2.73000002
   16.40305519   67.32109833    0.41999999    2.73000002
   16.40888786   67.32109833    0.41999999    2.73000002
   16.41305542   69.32579803    0.41999999    2.73000002
   16.41611099   67.73400116    0.41999999    2.73000002
   16.41749954   72.88800049    0.41999999    2.73000002
   16.42000008   69.61969757    0.41999999    2.73000002
   16.42305565   69.00260162    0.41999999    2.73000002
   16.42638779   70.59470367    0.41999999    2.73000002
   16.42944336   68.00569916    0.41999999    2.73000002
   16.43277740   69.17759705    0.40000001    2.73000002
   16.43610954   66.31929779    0.40000001    2.73000002
   16.43916512   72.78500366    0.41999999    2.73000002
   16.44249916   71.96970367    0.41999999    2.73000002
   16.44583321   69.15499878    0.41999999    2.73000002
   16.45166779   69.15499878    0.41999999    2.73000002
   16.45583344   70.28119659    0.41999999    2.73000002
   16.45916748   67.49340057    0.41999999    2.73000002
   16.46222305   71.83630371    0.41999999    2.73000002
   16.46555710   69.29850006    0.41999999    2.73000002
   16.46861076   70.36419678    0.41999999    2.73000002
   16.47194481   72.34950256    0.41999999    2.73000002
   16.47527885   68.56050110    0.41999999    2.73000002
   16.47833443   68.05329895    0.41999999    2.73000002
   16.48166656   69.90229797    0.41999999    2.73000002
   16.48416710   67.77189636    0.41999999    2.73000002
   16.48527718   68.80760193    0.41999999    2.73000002
   16.48833275   68.86869812    0.41999999    2.71000004
   16.49444389   68.86869812    0.41999999    2.73000002
   16.49861145   69.19229889    0.41999999    2.73000002
   16.50194359   71.93000031    0.41999999    2.73000002
   16.50527763   70.36489868    0.41999999    2.73000002
   16.50833321   67.33699799    0.44000000    2.73000002
   16.51166725   69.73989868    0.44000000    2.73000002
   16.51472282   68.74189758    0.41999999    2.73000002
   16.51749992   69.41970062    0.41999999    2.73000002
   16.51861000   70.09819794    0.41999999    2.73000002
   16.52166557   70.84459686    0.41999999    2.75000000
   16.52499962   69.25430298    0.41999999    2.73000002
   16.52805519   71.09680176    0.41999999    2.73000002
   16.53166580   71.01550293    0.40000001    2.73000002
   16.53750038   71.01550293    0.40000001    2.73000002
   16.54166603   69.19960022    0.40000001    2.71000004
   16.54472160   69.94640350    0.40000001    2.73000002
   16.54805565   71.03859711    0.40000001    2.73000002
   16.55083275   76.06259918    0.40000001    2.73000002
   16.55166626   71.97059631    0.40000001    2.73000002
   16.55472183   68.97779846    0.40000001    2.73000002
   16.55805397   69.89510345    0.40000001    2.73000002
   16.56110954   69.14199829    0.41999999    2.73000002
   16.56444359   72.86840057    0.41999999    2.73000002
   16.56777954   69.04789734    0.41999999    2.73000002
   16.57083511   71.49469757    0.41999999    2.71000004
   16.57416725   68.95110321    0.41999999    2.73000002
   16.58027840   68.95110321    0.40000001    2.73000002
   16.58444595   69.87729645    0.40000001    2.73000002
   16.58750153   69.51889801    0.40000001    2.73000002
   16.59083366   70.08869934    0.40000001    2.73000002
   16.59416771   69.54489899    0.40000001    2.73000002
   16.59722328   71.53089905    0.38000000    2.73000002
   16.60055542   70.38849640    0.40000001    2.73000002
   16.60388947   73.01850128    0.40000001    2.73000002
   16.60694504   72.17109680    0.40000001    2.73000002
   16.61027908   70.69660187    0.40000001    2.71000004
   16.61333466   72.00730133    0.40000001    2.73000002
   16.61666679   71.19799805    0.40000001    2.73000002
   16.61750031   70.84100342    0.40000001    2.73000002
   16.63833237   70.84100342    0.38000000    2.73000002
   16.64249992   72.06950378    0.38000000    2.73000002
   16.64555550   71.00009918    0.38000000    2.73000002
   16.64888954   72.98120117    0.38000000    2.73000002
   16.65083313   71.27169800    0.38000000    2.71000004
   16.65250015   71.51370239    0.38000000    2.71000004
   16.65555573   72.76139832    0.38000000    2.73000002
   16.65888786   72.67340088    0.38000000    2.73000002
   16.66222191   71.00769806    0.38000000    2.73000002
   16.66527748   72.78389740    0.38000000    2.73000002
   16.66860962   74.74659729    0.38000000    2.73000002
   16.67166519   76.61370087    0.38000000    2.73000002
   16.67499924   75.69979858    0.36000001    2.73000002
   16.68111038   75.69979858    0.38000000    2.73000002
   16.68499947   74.53450012    0.36000001    2.73000002
   16.68861008   79.37239838    0.38000000    2.73000002
   16.69166565   79.92340088    0.36000001    2.73000002
   16.69499969   91.91709900    0.36000001    2.73000002
   16.69805527   78.78790283    0.36000001    2.73000002
   16.70138931   78.67320251    0.36000001    2.73000002
   16.70472336   85.11199951    0.38000000    2.73000002
   16.70777893   79.55249786    0.36000001    2.73000002
   16.71111107   78.86599731    0.36000001    2.73000002
   16.71444511   81.83170319    0.36000001    2.73000002
   16.71750069   87.95269775    0.38000000    2.73000002
   16.71805573   99.99490356    0.38000000    2.73000002
   16.72389030   99.99490356    0.38000000    2.73000002
   16.72805595   95.34059906    0.38000000    2.73000002
   16.73139000  105.88700104    0.38000000    2.73000002
   16.73472214   95.82009888    0.38000000    2.73000002
   16.73777771   95.49230194    0.36000001    2.73000002
   16.74111176   93.07969666    0.36000001    2.73000002
   16.74416733   98.12329865    0.38000000    2.73000002
   16.74749947   97.74060059    0.38000000    2.73000002
   16.75083351   83.95719910    0.38000000    2.73000002
   16.75138855   95.98519897    0.36000001    2.71000004
   16.75444412  113.04599762    0.38000000    2.73000002
   16.75777817  102.29000092    0.38000000    2.73000002
   16.76111031   86.65560150    0.38000000    2.73000002
   16.76666641   86.65560150    0.36000001    2.73000002
   16.77083397   83.19799805    0.36000001    2.71000004
   16.77416611   87.53440094    0.36000001    2.73000002
   16.77722168  106.34400177    0.36000001    2.73000002
   16.78055573   90.63939667    0.36000001    2.73000002
   16.78361130   95.76439667    0.36000001    2.73000002
   16.78472137   87.34079742    0.36000001    2.73000002
   16.78722191   82.00779724    0.36000001    2.73000002
   16.79055595   95.88420105    0.36000001    2.73000002
   16.79388809   94.42669678    0.36000001    2.73000002
   16.79694366   91.64479828    0.36000001    2.73000002
   16.80027771  102.56199646    0.36000001    2.73000002
   16.80360985   89.34960175    0.36000001    2.73000002
   16.80944443   89.34960175    0.36000001    2.71000004
   16.81361008   96.41020203    0.36000001    2.71000004
   16.81694603   92.88559723    0.36000001    2.73000002
   16.81805611  100.50599670    0.36000001    2.73000002
   16.82055664   91.63069916    0.36000001    2.73000002
   16.82389069  104.88300323    0.36000001    2.73000002
   16.82722282  103.54499817    0.36000001    2.73000002
   16.83027840   97.76580048    0.38000000    2.73000002
   16.83361244  100.69999695    0.38000000    2.73000002
   16.83666801   88.63890076    0.36000001    2.73000002
   16.84000015   91.64939880    0.36000001    2.73000002
   16.84333420   84.98989868    0.36000001    2.71000004
   16.84638977   88.06099701    0.36000001    2.71000004
   16.85250092   88.06099701    0.38000000    2.73000002
   16.85639000  100.12000275    0.38000000    2.73000002
   16.85972214   96.66210175    0.38000000    2.73000002
   16.86305618  101.68399811    0.38000000    2.71000004
   16.86611176   93.18170166    0.38000000    2.73000002
   16.86944389   91.66259766    0.40000001    2.73000002
   16.87277794   94.11350250    0.40000001    2.73000002
   16.87583351  100.56700134    0.40000001    2.73000002
   16.87916756   93.22019958    0.41999999    2.73000002
   16.88222313   96.11689758    0.47999999    2.71000004
   16.88472176   90.75910187    0.47999999    2.71000004
   16.88583374   87.75389862    0.47999999    2.71000004
   16.88916588   89.31009674    0.47999999    2.71000004
   16.89527702   89.31009674    0.47999999    2.71000004
   16.89944458   93.41699982    0.50000000    2.71000004
   16.90250015   93.44850159    0.52999997    2.73000002
   16.90583229   88.94210052    0.52999997    2.73000002
   16.90916634   92.10359955    0.41999999    2.71000004
   16.91222191   83.21420288    0.44000000    2.71000004
   16.91555595  100.62500000    0.44000000    2.71000004
   16.91805458   86.00689697    0.44000000    2.71000004
   16.91916656   89.38410187    0.44000000    2.73000002
   16.92249870   84.79910278    0.46000001    2.71000004
   16.92583275   87.71929932    0.46000001    2.71000004
   16.92888832   91.36289978    0.44000000    2.73000002
   16.93222237   81.94270325    0.44000000    2.71000004
   16.93805504   81.94270325    0.46000001    2.71000004
   16.94222069   85.84680176    0.44000000    2.73000002
   16.94527626   87.76439667    0.44000000    2.71000004
   16.94861031   90.73390198    0.41999999    2.71000004
   16.95138931   93.56670380    0.44000000    2.71000004
   16.95222282   87.20300293    0.44000000    2.71000004
   16.95555687   89.89880371    0.46000001    2.71000004
   16.95888901   85.28220367    0.46000001    2.71000004
   16.96194458   88.33139801    0.46000001    2.71000004
   16.96527863   90.69850159    0.44000000    2.71000004
   16.96861076   84.70539856    0.50000000    2.73000002
   16.97166634   84.42980194    0.52999997    2.71000004
   16.97500038   89.09249878    0.51999998    2.73000002
   16.98083305   89.09249878    0.44000000    2.73000002
   16.98500061   89.13369751    0.46000001    2.71000004
   16.98833275   89.39920044    0.44000000    2.71000004
   16.99138832   86.79699707    0.44000000    2.71000004
   16.99472237   84.91230011    0.44000000    2.71000004
   16.99805641   81.04509735    0.44000000    2.71000004
   17.00111198   85.50859833    0.41999999    2.71000004
   17.00444412   86.01789856    0.44000000    2.71000004
   17.00749969   85.00689697    0.44000000    2.71000004
   17.01083374   87.63159943    0.44000000    2.71000004
   17.01416588   89.11769867    0.41999999    2.71000004
   17.01722145   89.29270172    0.41999999    2.71000004
   17.01805496   89.36920166    0.41999999    2.71000004
   17.02388954   89.36920166    0.40000001    2.71000004
   17.02777672   83.44599915    0.41999999    2.71000004
   17.03111076   91.35900116    0.40000001    2.71000004
   17.03444481   85.90529633    0.40000001    2.71000004
   17.03750038   88.76699829    0.40000001    2.71000004
   17.04083252   87.97389984    0.40000001    2.71000004
   17.04416656   85.39839935    0.44000000    2.71000004
   17.04722214   88.14350128    0.44000000    2.71000004
   17.05055428   86.25620270    0.44000000    2.71000004
   17.05138779   84.32679749    0.44000000    2.71000004
   17.05388832   90.39550018    0.41999999    2.71000004
   17.05722237   85.90899658    0.47999999    2.71000004
   17.06055450   89.79650116    0.56999999    2.71000004
   17.06666756   89.79650116    0.52999997    2.71000004
   17.07083511   89.04010010    0.61000001    2.71000004
   17.07389069   85.53119659    0.89999998    2.71000004
   17.07722282   80.99310303    0.70999998    2.71000004
   17.08027840   85.89820099    0.67000002    2.71000004
   17.08361244   71.88469696    0.44000000    2.71000004
   17.08472252   84.13379669    0.44000000    2.71000004
   17.08722305   75.99700165    0.46000001    2.71000004
   17.09055710   80.24079895    0.46000001    2.71000004
   17.09388924   78.92859650    0.46000001    2.71000004
   17.09694481   82.00460052    0.46000001    2.71000004
   17.10027885   86.29139709    0.47999999    2.71000004
   17.10361099   81.65699768    0.47999999    2.71000004
   17.10944557   81.65699768    0.46000001    2.71000004
   17.11361122  100.93299866    0.47999999    2.71000004
   17.11666679  111.05899811    0.47999999    2.71000004
   17.11805534  113.64199829    0.47999999    2.71000004
   17.12027740  109.12000275    0.47999999    2.71000004
   17.12361145   99.69799805    0.46000001    2.71000004
   17.12694550  100.48300171    0.44000000    2.71000004
   17.13000107   90.82299805    0.41999999    2.71000004
   17.13333321   95.76039886    0.41999999    2.71000004
   17.13666725   96.84459686    0.41999999    2.71000004
   17.13972282   90.30159760    0.40000001    2.71000004
   17.14305496  107.33000183    0.40000001    2.71000004
   17.14611053   99.40989685    0.41999999    2.71000004
   17.15222168   99.40989685    0.40000001    2.71000004
   17.15638924   92.58350372    0.40000001    2.71000004
   17.15972137   88.03890228    0.40000001    2.71000004
   17.16277695   98.26869965    0.40000001    2.71000004
   17.16611099   94.61599731    0.40000001    2.71000004
   17.16944313   96.49649811    0.40000001    2.71000004
   17.17249870   89.00399780    0.40000001    2.71000004
   17.17583275   94.14959717    0.40000001    2.71000004
   17.17888832   99.88390350    0.40000001    2.71000004
   17.18222237  101.69200134    0.40000001    2.71000004
   17.18472099   98.94450378    0.40000001    2.71000004
   17.18583298   95.87870026    0.38000000    2.71000004
   17.18916512  101.33499908    0.40000001    2.71000004
   17.19499969  101.33499908    0.38000000    2.71000004
   17.19916534  101.34899902    0.38000000    2.71000004
   17.20250130   89.71340179    0.38000000    2.71000004
   17.20583344   93.97550201    0.40000001    2.71000004
   17.20888901   94.36859894    0.40000001    2.71000004
   17.21222305   92.03430176    0.40000001    2.71000004
   17.21527863   95.41139984    0.40000001    2.71000004
   17.21805573   93.10420227    0.40000001    2.71000004
   17.21916771   95.05879974    0.40000001    2.71000004
   17.22222328   92.17120361    0.40000001    2.71000004
   17.22555542   94.33599854    0.40000001    2.71000004
   17.22888947   96.02469635    0.41999999    2.71000004
   17.23194504   81.10050201    0.40000001    2.71000004
   17.23805618   81.10050201    0.40000001    2.71000004
   17.24222183  101.72100067    0.40000001    2.71000004
   17.24527740   90.90689850    0.40000001    2.71000004
   17.24861145   92.07830048    0.40000001    2.71000004
   17.25138855   94.07520294    0.40000001    2.71000004
   17.25250053   91.51470184    0.40000001    2.71000004
   17.25555611  103.70999908    0.40000001    2.71000004
   17.25888824   94.10620117    0.40000001    2.71000004
   17.26194382   90.98390198    0.41999999    2.71000004
   17.26527786   88.11840057    0.41999999    2.71000004
   17.26861000   92.56629944    0.41999999    2.71000004
   17.27166557   94.93969727    0.44000000    2.71000004
   17.27499962   92.33709717    0.44000000    2.71000004
   17.28083229   92.33709717    0.46000001    2.71000004
   17.28499985   89.26399994    0.46000001    2.71000004
   17.28805542   91.69709778    0.46000001    2.71000004
   17.29138756   89.28900146    0.46000001    2.71000004
   17.29472160   86.32109833    0.46000001    2.71000004
   17.29777718   84.76640320    0.47999999    2.71000004
   17.30111122   89.40740204    0.50000000    2.71000004
   17.30444336   88.61119843    0.40000001    2.71000004
   17.30749893   87.07920074    0.40000001    2.71000004
   17.31083298   84.38210297    0.38000000    2.71000004
   17.31388855   90.34929657    0.40000001    2.69000006
   17.31722260   98.12840271    0.38000000    2.71000004
   17.31805611   89.25229645    0.38000000    2.71000004
   17.32361221   89.25229645    0.38000000    2.71000004
   17.32777786   90.53939819    0.38000000    2.71000004
   17.33111191   83.55359650    0.38000000    2.71000004
   17.33416748   93.09709930    0.40000001    2.71000004
   17.33750153   88.01750183    0.40000001    2.71000004
   17.34083366   87.84089661    0.40000001    2.71000004
   17.34388924   90.06780243    0.38000000    2.71000004
   17.34722328   95.71320343    0.40000001    2.71000004
   17.35027885   90.76190186    0.40000001    2.71000004
   17.35138893   86.21779633    0.40000001    2.71000004
   17.35416794   82.29620361    0.40000001    2.71000004
   17.35722351   85.25289917    0.40000001    2.71000004
   17.36055565   78.35469818    0.41999999    2.71000004
   17.36638832   78.35469818    0.51999998    2.71000004
   17.37055588   81.40100098    0.51999998    2.71000004
   17.37388992   81.66390228    0.50000000    2.71000004
   17.37722206   78.94170380    0.56999999    2.69000006
   17.38027763   80.95149994    0.58999997    2.71000004
   17.38361168   79.22570038    0.56999999    2.71000004
   17.38472176   78.57469940    0.56999999    2.71000004
   17.38722229   79.72799683    0.56999999    2.69000006
   17.39027786   80.75769806    0.56999999    2.69000006
   17.39361191   80.35759735    0.58999997    2.71000004
   17.39666748   78.26629639    0.61000001    2.71000004
   17.39999962   80.30680084    0.55000001    2.71000004
   17.40333366   81.37830353    0.58999997    2.71000004
   17.40944481   81.37830353    0.63000000    2.71000004
   17.41361046   81.83119965    0.47999999    2.71000004
   17.41666603   81.01309967    0.47999999    2.71000004
   17.41805458   88.05609894    0.47999999    2.71000004
   17.42055511   81.14189911    0.46000001    2.69000006
   17.42361069   78.58399963    0.41999999    2.71000004
   17.42694473   78.81980133    0.41999999    2.71000004
   17.43000031   83.05509949    0.41999999    2.71000004
   17.43333244   82.51219940    0.41999999    2.71000004
   17.43666649   81.97679901    0.41999999    2.71000004
   17.43972206   81.90419769    0.41999999    2.71000004
   17.44305420   79.10929871    0.41999999    2.69000006
   17.44638824   79.38539886    0.41999999    2.71000004
   17.45222282   79.38539886    0.40000001    2.71000004
   17.45639038   81.29489899    0.41999999    2.71000004
   17.45944595   76.58350372    0.41999999    2.71000004
   17.46277809   75.82510376    0.41999999    2.71000004
   17.46611214   74.91239929    0.41999999    2.71000004
   17.46916771   71.79090118    0.41999999    2.69000006
   17.47249985   76.65930176    0.41999999    2.69000006
   17.47583389   76.95690155    0.41999999    2.71000004
   17.47888947   76.56770325    0.41999999    2.69000006
   17.48222351   78.45829773    0.41999999    2.71000004
   17.48472214   77.06310272    0.40000001    2.71000004
   17.48583412   73.25520325    0.40000001    2.71000004
   17.48888969   79.48030090    0.40000001    2.71000004
   17.49500084   79.48030090    0.40000001    2.71000004
   17.49916649   78.80290222    0.40000001    2.71000004
   17.50250053   77.06739807    0.40000001    2.71000004
   17.50555611   77.81020355    0.40000001    2.71000004
   17.50888824   79.85859680    0.40000001    2.71000004
   17.51222229   78.71340179    0.40000001    2.71000004
   17.51527786   75.75229645    0.40000001    2.69000006
   17.51805496   75.66470337    0.40000001    2.69000006
   17.51916695   74.23179626    0.40000001    2.71000004
   17.52222252   75.12079620    0.40000001    2.71000004
   17.52555466   74.09609985    0.41999999    2.71000004
   17.52888870   74.17639923    0.46000001    2.71000004
   17.53194427   75.13130188    0.50000000    2.69000006
   17.53777695   75.13130188    0.73000002    2.69000006
   17.54194450   75.35230255    0.70999998    2.71000004
   17.54527664   74.03220367    0.67000002    2.71000004
   17.54861069   71.76170349    0.67000002    2.71000004
   17.55138779   70.51409912    0.55000001    2.71000004
   17.55222130   73.68430328    0.55000001    2.71000004
   17.55527687   73.82969666    0.40000001    2.69000006
   17.55861092   74.17350006    0.40000001    2.71000004
   17.56194305   71.82379913    0.40000001    2.71000004
   17.56499863   73.46279907    0.41999999    2.71000004
   17.56833458   70.57869720    0.44000000    2.69000006
   17.57139015   73.02719879    0.46000001    2.69000006
   17.57472229   71.75859833    0.46000001    2.69000006
   17.58083344   71.75859833    0.44000000    2.69000006
   17.58500099   72.03690338    0.44000000    2.71000004
   17.58805656   71.10600281    0.44000000    2.69000006
   17.59138870   69.86000061    0.46000001    2.71000004
   17.59444427   71.67189789    0.46000001    2.71000004
   17.59777832   72.92120361    0.44000000    2.71000004
   17.60111237   71.89929962    0.44000000    2.71000004
   17.60416794   72.56439972    0.44000000    2.71000004
   17.60750008   72.40480042    0.44000000    2.71000004
   17.61083412   72.72679901    0.41999999    2.71000004
   17.61388969   72.10510254    0.41999999    2.71000004
   17.61722183   72.07910156    0.41999999    2.71000004
   17.61805534   73.20179749    0.41999999    2.71000004
   17.62361145   73.20179749    0.41999999    2.71000004
   17.62777710   72.33200073    0.40000001    2.71000004
   17.63083267   72.24410248    0.40000001    2.71000004
   17.63416672   71.02259827    0.41999999    2.69000006
   17.65166664   71.76349640    0.40000001    2.69000006
   17.65416718   69.49430084    0.40000001    2.71000004
   17.65749931   69.55729675    0.40000001    2.71000004
   17.66055489   70.93060303    0.41999999    2.71000004
   17.66666603   70.93060303    0.41999999    2.71000004
   17.67083359   68.88480377    0.41999999    2.69000006
   17.67388916   69.54519653    0.41999999    2.69000006
   17.67722130   69.51439667    0.41999999    2.71000004
   17.68055534   70.16259766    0.41999999    2.69000006
   17.68361092   69.00330353    0.41999999    2.71000004
   17.68499947   69.79750061    0.41999999    2.69000006
   17.68750000   67.59490204    0.41999999    2.69000006
   17.69055557   70.55740356    0.41999999    2.69000006
   17.69388771   68.59400177    0.41999999    2.69000006
   17.69722176   70.82199860    0.41999999    2.71000004
   17.70027924   69.97979736    0.41999999    2.69000006
   17.70361137   68.28500366    0.41999999    2.69000006
   17.70944595   68.28500366    0.40000001    2.69000006
   17.71361160   69.31330109    0.40000001    2.71000004
   17.71694565   68.23750305    0.41999999    2.69000006
   17.71833420   68.21170044    0.40000001    2.69000006
   17.72055626   70.03009796    0.40000001    2.71000004
   17.72361183   67.80180359    0.40000001    2.69000006
   17.72694588   68.76509857    0.40000001    2.69000006
   17.73027802   70.02790070    0.40000001    2.69000006
   17.73333359   67.81210327    0.40000001    2.69000006
   17.73666763   68.77230072    0.40000001    2.69000006
   17.73999977   68.05760193    0.40000001    2.71000004
   17.74305534   67.69650269    0.40000001    2.71000004
   17.74638939   68.33450317    0.40000001    2.71000004
   17.75222206   68.33450317    0.40000001    2.69000006
   17.75638962   68.02380371    0.40000001    2.71000004
   17.75972176   69.17559814    0.40000001    2.71000004
   17.76277733   69.42810059    0.41999999    2.69000006
   17.76611137   68.90789795    0.40000001    2.71000004
   17.76944351   69.24240112    0.40000001    2.71000004
   17.77249908   70.87149811    0.40000001    2.69000006
   17.77583313   71.39920044    0.41999999    2.69000006
   17.77916718   68.08529663    0.47999999    2.71000004
   17.78222275   69.28450012    0.50000000    2.69000006
   17.78499985   67.99739838    0.47999999    2.69000006
   17.78610992   69.06569672    0.47999999    2.69000006
   17.78916550   71.43900299    0.47999999    2.71000004
   17.79527664   71.43900299    0.41999999    2.69000006
   17.79916573   67.96430206    0.40000001    2.69000006
   17.80249977   68.54709625    0.40000001    2.69000006
   17.80583191   68.60829926    0.40000001    2.69000006
   17.80916595   67.73220062    0.40000001    2.69000006
   17.81250000   67.56259918    0.40000001    2.71000004
   17.81555557   66.43280029    0.40000001    2.71000004
   17.81833458   69.48519897    0.40000001    2.69000006
   17.81944466   66.78459930    0.40000001    2.71000004
   17.82250023   66.67459869    0.40000001    2.71000004
   17.82583427   67.65229797    0.40000001    2.69000006
   17.82916832   68.87200165    0.40000001    2.69000006
   17.83222389   68.48370361    0.40000001    2.69000006
   17.83805656   68.48370361    0.40000001    2.69000006
   17.84222221   67.18379974    0.40000001    2.69000006
   17.84527779   68.84429932    0.40000001    2.69000006
   17.84861183   68.75759888    0.40000001    2.69000006
   17.85166740   67.71620178    0.40000001    2.71000004
   17.85222244   68.27050018    0.40000001    2.71000004
   17.85555649   68.69629669    0.40000001    2.69000006
   17.85861206   69.05570221    0.40000001    2.69000006
   17.86194420   68.73960114    0.40000001    2.69000006
   17.86499977   70.23169708    0.40000001    2.71000004
   17.86833382   69.01940155    0.40000001    2.69000006
   17.87166595   67.75460052    0.40000001    2.69000006
   17.87472153   67.56909943    0.40000001    2.69000006
   17.88083267   67.56909943    0.40000001    2.71000004
   17.88500023   68.33090210    0.40000001    2.69000006
   17.88555527   68.30580139    0.40000001    2.69000006
   17.88888931   70.06150055    0.40000001    2.69000006
   17.89194489   67.43959808    0.40000001    2.69000006
   17.89527702   68.98829651    0.40000001    2.69000006
   17.89833260   67.73370361    0.40000001    2.69000006
   17.90166664   68.28099823    0.40000001    2.69000006
   17.90499878   68.24269867    0.40000001    2.69000006
   17.90805435   68.58619690    0.40000001    2.69000006
   17.91138840   68.98650360    0.41999999    2.69000006
   17.91472244   67.45839691    0.41999999    2.69000006
   17.91777802   67.31790161    0.41999999    2.69000006
   17.91833305   67.71569824    0.44000000    2.69000006
   17.92361069   67.71569824    0.41999999    2.69000006
   17.92777634   66.91790009    0.41999999    2.69000006
   17.93111038   67.21160126    0.41999999    2.69000006
   17.93416595   68.64080048    0.41999999    2.69000006
   17.93750000   67.52249908    0.41999999    2.69000006
   17.94083214   67.55500031    0.41999999    2.69000006
   17.94388771   67.14790344    0.44000000    2.69000006
   17.94722176   65.73889923    0.41999999    2.69000006
   17.95055580   67.39800262    0.41999999    2.69000006
   17.95166779   69.69029999    0.44000000    2.69000006
   17.95416832   69.16120148    0.44000000    2.69000006
   17.95750046   66.65789795    0.41999999    2.69000006
   17.96055603   65.74369812    0.41999999    2.69000006
   17.96666718   65.74369812    0.41999999    2.69000006
   17.97055626   67.64050293    0.44000000    2.69000006
   17.97389030   68.10009766    0.41999999    2.69000006
   17.97722244   68.35559845    0.41999999    2.69000006
   17.98027802   66.65399933    0.41999999    2.69000006
   17.98361206   66.35189819    0.41999999    2.69000006
   17.98500061   68.13459778    0.41999999    2.69000006
   17.98722267   67.30200195    0.41999999    2.69000006
   17.99055672   65.31269836    0.41999999    2.69000006
   17.99361229   66.93589783    0.41999999    2.69000006
   17.99694443   68.28350067    0.41999999    2.69000006
   18.00027847   67.26210022    0.44000000    2.69000006
   18.00333405   66.59230042    0.44000000    2.69000006
   18.00944519   66.59230042    0.52999997    2.69000006
   18.01361084   67.27739716    0.52999997    2.69000006
   18.01666641   66.55059814    0.52999997    2.67000008
   18.01833344   67.21440125    0.51999998    2.69000006
   18.02055550   66.02570343    0.51999998    2.69000006
   18.02388954   66.31340027    0.51999998    2.69000006
   18.02694511   65.30760193    0.51999998    2.69000006
   18.03027725   66.98519897    0.51999998    2.69000006
   18.03333282   65.80680084    0.51999998    2.69000006
   18.03666687   67.63919830    0.50000000    2.69000006
   18.03999901   68.01380157    0.51999998    2.69000006
   18.04305458   68.42939758    0.63000000    2.67000008
   18.04638863   69.60089874    0.55000001    2.69000006
   18.05222130   69.60089874    0.46000001    2.69000006
   18.05638885   68.30300140    0.44000000    2.69000006
   18.05944443   65.86260223    0.47999999    2.69000006
   18.06277657   66.13300323    0.47999999    2.69000006
   18.06611061   66.90129852    0.44000000    2.67000008
   18.06916809   66.09059906    0.44000000    2.69000006
   18.07250023   65.98329926    0.41999999    2.69000006
   18.07583427   66.92179871    0.44000000    2.69000006
   18.07888985   66.08589935    0.41999999    2.69000006
   18.08222389   65.90699768    0.41999999    2.69000006
   18.08500099   66.34660339    0.44000000    2.67000008
   18.08583450   66.70839691    0.44000000    2.69000006
   18.08916664   66.10469818    0.41999999    2.69000006
   18.09500122   66.10469818    0.41999999    2.69000006
   18.09916687   66.09249878    0.41999999    2.69000006
   18.10250092   66.35839844    0.41999999    2.67000008
   18.10555649   65.74639893    0.44000000    2.69000006
   18.10888863   65.51889801    0.44000000    2.69000006
   18.11222267   65.93949890    0.44000000    2.69000006
   18.11527824   65.27100372    0.44000000    2.67000008
   18.11833382   64.79509735    0.41999999    2.67000008
   18.11916733   65.48549652    0.41999999    2.67000008
   18.12249947   66.02809906    0.41999999    2.69000006
   18.12555504   68.26380157    0.41999999    2.69000006
   18.12888908   64.99559784    0.44000000    2.69000006
   18.13194466   67.48419952    0.41999999    2.69000006
   18.13777733   67.48419952    0.41999999    2.69000006
   18.14194489   65.30419922    0.41999999    2.67000008
   18.14527702   66.26129913    0.41999999    2.67000008
   18.14861107   64.96970367    0.41999999    2.67000008
   18.15166664   63.73630142    0.41999999    2.67000008
   18.15222168   65.44139862    0.41999999    2.67000008
   18.15555573   65.07599640    0.41999999    2.69000006
   18.15861130   65.52220154    0.44000000    2.67000008
   18.16194344   63.93539810    0.44000000    2.67000008
   18.16499901   65.35009766    0.44000000    2.67000008
   18.16833305   67.01740265    0.44000000    2.67000008
   18.17166519   65.22740173    0.44000000    2.69000006
   18.17472076   65.62750244    0.44000000    2.69000006
   18.18083191   65.62750244    0.44000000    2.67000008
   18.18499947   69.22329712    0.44000000    2.67000008
   18.18527603   67.22579956    0.44000000    2.67000008
   18.18861008   65.86869812    0.44000000    2.67000008
   18.19194412   65.66609955    0.44000000    2.67000008
   18.19499969   66.28839874    0.44000000    2.69000006
   18.19833183   65.86689758    0.44000000    2.67000008
   18.20166779   67.21949768    0.44000000    2.67000008
   18.20472336   64.54920197    0.44000000    2.67000008
   18.20805550   65.44869995    0.44000000    2.67000008
   18.21138954   65.38829803    0.44000000    2.67000008
   18.21444511   66.84770203    0.44000000    2.69000006
   18.21777916   64.83959961    0.46000001    2.67000008
   18.21861076   64.91649628    0.46000001    2.67000008
   18.22361183   64.91649628    0.47999999    2.69000006
   18.22777748   64.23079681    0.47999999    2.67000008
   18.23111153   63.79999924    0.46000001    2.69000006
   18.23416710   65.10109711    0.46000001    2.67000008
   18.23750114   64.06880188    0.46000001    2.67000008
   18.24083328   63.83060074    0.46000001    2.67000008
   18.24388885   64.43810272    0.46000001    2.67000008
   18.24722290   63.61090088    0.46000001    2.67000008
   18.25055504   63.81140137    0.46000001    2.69000006
   18.25194359   64.60099792    0.46000001    2.69000006
   18.25416756   66.45520020    0.46000001    2.67000008
   18.25749969   64.06300354    0.46000001    2.67000008
   18.26055527   64.04010010    0.46000001    2.67000008
   18.26638794   64.04010010    0.46000001    2.67000008
   18.27055550   63.87129974    0.46000001    2.67000008
   18.27388954   65.05229950    0.46000001    2.67000008
   18.27694511   66.10990143    0.46000001    2.67000008
   18.28027725   64.83889771    0.46000001    2.67000008
   18.28361130   66.58920288    0.46000001    2.67000008
   18.28527641   65.55490112    0.46000001    2.67000008
   18.28722191   66.07640076    0.46000001    2.67000008
   18.29055595   67.17150116    0.46000001    2.67000008
   18.29361153   65.49310303    0.46000001    2.67000008
   18.29694366   64.28749847    0.44000000    2.67000008
   18.30027771   67.35579681    0.44000000    2.67000008
   18.30333328   66.11299896    0.46000001    2.67000008
   18.30916595   66.11299896    0.44000000    2.67000008
   18.31333351   62.63439941    0.46000001    2.69000006
   18.31666756   63.47060013    0.46000001    2.67000008
   18.31861115   63.52270126    0.46000001    2.67000008
   18.32027817   62.79130173    0.46000001    2.67000008
   18.32361221   64.33730316    0.46000001    2.67000008
   18.32694626   62.81489944    0.46000001    2.67000008
   18.33000183   63.20360184    0.46000001    2.66000009
   18.33333397   63.84849930    0.46000001    2.66000009
   18.33666801   63.34749985    0.44000000    2.67000008
   18.33972359   65.69339752    0.44000000    2.67000008
   18.34305573   65.30989838    0.46000001    2.67000008
   18.34611130   65.90750122    0.46000001    2.67000008
   18.35222244   65.90750122    0.44000000    2.67000008
   18.35639000   65.27469635    0.44000000    2.67000008
   18.35944557   65.38819885    0.44000000    2.67000008
   18.36277771   63.07580185    0.46000001    2.67000008
   18.36583328   63.75920105    0.46000001    2.67000008
   18.36916733   65.57540131    0.46000001    2.67000008
   18.37249947   61.87149811    0.46000001    2.67000008
   18.37555504   63.71139908    0.46000001    2.67000008
   18.37888908   63.01240158    0.46000001    2.67000008
   18.38222313   64.12190247    0.47999999    2.67000008
   18.38527679   63.09999847    0.46000001    2.67000008
   18.38583374   65.74700165    0.46000001    2.67000008
   18.38916588   62.84619904    0.46000001    2.67000008
   18.39500046   62.84619904    0.47999999    2.67000008
   18.39916611   63.66930008    0.47999999    2.66000009
   18.40222168   63.91609955    0.47999999    2.67000008
   18.40555573   65.33540344    0.47999999    2.67000008
   18.40888786   64.45819855    0.47999999    2.67000008
   18.41222191   63.36669922    0.46000001    2.66000009
   18.41527748   63.43119812    0.47999999    2.66000009
   18.41860962   64.58200073    0.46000001    2.67000008
   18.41916656   63.51979828    0.46000001    2.67000008
   18.42222214   64.98709869    0.46000001    2.67000008
   18.42555428   64.00659943    0.46000001    2.67000008
   18.42888832   62.62379837    0.47999999    2.66000009
   18.43222237   64.34719849    0.50000000    2.67000008
   18.43777657   64.34719849    0.58999997    2.66000009
   18.44194412   64.21710205    0.67000002    2.66000009
   18.44527626   63.61339951    0.79000002    2.66000009
   18.44833183   62.02890015    0.88000000    2.66000009
   18.45166779   63.69210052    0.94000000    2.66000009
   18.45250130   63.55020142    0.98000002    2.66000009
   18.45527840   63.16279984    1.03999996    2.66000009
   18.45833397   62.09249878    1.05999994    2.66000009
   18.46166801   62.09989929    0.80000001    2.66000009
   18.46500015   62.44589996    0.80000001    2.66000009
   18.46805573   63.35369873    0.76999998    2.66000009
   18.47138977   64.92299652    0.76999998    2.66000009
   18.47472191   64.00489807    0.75000000    2.66000009
   18.48055649   64.00489807    0.69000000    2.66000009
   18.48472214   63.37820053    0.55000001    2.66000009
   18.48583412   63.20270157    0.55000001    2.66000009
   18.48861122   63.80899811    0.55000001    2.66000009
   18.49166679   62.32469940    0.51999998    2.66000009
   18.49500084   63.30640030    0.51999998    2.66000009
   18.49833298   63.47499847    0.51999998    2.66000009
   18.50138855   63.01940155    0.51999998    2.66000009
   18.50472260   63.30369949    0.52999997    2.66000009
   18.50805473   62.85490036    0.67000002    2.66000009
   18.51111031   64.86499786    0.56999999    2.66000009
   18.51444435   63.92950058    0.51999998    2.66000009
   18.51749992   62.23659897    0.52999997    2.66000009
   18.51916695   64.18949890    0.51999998    2.66000009
   18.52361107   64.18949890    0.51999998    2.66000009
   18.52777672   64.10520172    0.51999998    2.66000009
   18.53083229   63.67399979    0.51999998    2.66000009
   18.53416634   65.59770203    0.51999998    2.66000009
   18.53722191   62.83420181    0.51999998    2.66000009
   18.54055595   62.86579895    0.50000000    2.66000009
   18.54388809   63.53219986    0.51999998    2.66000009
   18.54694366   64.11049652    0.51999998    2.66000009
   18.55027771   63.13479996    0.51999998    2.66000009
   18.55249977   63.75669861    0.51999998    2.66000009
   18.55388832   63.22850037    0.51999998    2.66000009
   18.55694389   62.64210129    0.51999998    2.66000009
   18.56027794   63.04150009    0.52999997    2.66000009
   18.56638718   63.04150009    0.52999997    2.66000009
   18.57055664   62.76010132    0.52999997    2.66000009
   18.57389069   61.94049835    0.52999997    2.66000009
   18.57694626   63.44770050    0.52999997    2.66000009
   18.58027840   63.13090134    0.52999997    2.66000009
   18.58333397   63.02849960    0.55000001    2.64000010
   18.58583450   62.47399902    0.55000001    2.67000008
   18.58722305   63.30609894    0.55000001    2.67000008
   18.59055710   64.55059814    0.55000001    2.66000009
   18.59361267   66.10459900    0.55000001    2.66000009
   18.59694481   65.45079803    0.52999997    2.66000009
   18.60000038   63.16820145    0.52999997    2.66000009
   18.60333443   63.09669876    0.55000001    2.64000010
   18.60916710   63.09669876    0.56999999    2.64000010
   18.61333466   63.10219955    0.56999999    2.66000009
   18.61666679   62.98970032    0.55000001    2.64000010
   18.61916733   62.63930130    0.56999999    2.64000010
   18.62027740   62.91730118    0.56999999    2.64000010
   18.62333298   62.85779953    0.56999999    2.64000010
   18.62666702   61.04029846    0.58999997    2.64000010
   18.63000107   62.58819962    0.61000001    2.64000010
   18.63305473   61.76860046    0.61000001    2.64000010
   18.63638878   62.57799911    0.63000000    2.64000010
   18.63972282   62.62239838    0.67000002    2.66000009
   18.64277840   62.27389908    0.56999999    2.64000010
   18.64611053   62.18190002    0.52999997    2.66000009
   18.65194321   62.18190002    0.52999997    2.66000009
   18.67055511   63.37350082    0.52999997    2.66000009
   18.67361069   61.87590027    0.52999997    2.66000009
   18.67694473   61.53639984    0.52999997    2.64000010
   18.68000031   63.97539902    0.55000001    2.66000009
   18.68333244   63.73460007    0.55000001    2.66000009
   18.68666649   63.37810135    0.55000001    2.64000010
   18.68972206   63.02019882    0.55000001    2.64000010
   18.69527626   63.02019882    0.55000001    2.66000009
   18.69916534   62.41970062    0.55000001    2.66000009
   18.70250130   64.74469757    0.55000001    2.64000010
   18.70361137   62.47370148    0.55000001    2.64000010
   18.70611191   61.87340164    0.55000001    2.66000009
   18.70944595   61.31409836    0.55000001    2.66000009
   18.71250153   61.19139862    0.55000001    2.64000010
   18.71583366   65.05149841    0.55000001    2.66000009
   18.71916771   62.29750061    0.55000001    2.64000010
   18.72222328   63.79460144    0.55000001    2.64000010
   18.72555542   60.62749863    0.55000001    2.64000010
   18.72861099   61.71889877    0.55000001    2.66000009
   18.73194504   61.68119812    0.55000001    2.64000010
   18.73805618   61.68119812    0.55000001    2.64000010
   18.74222183   63.38069916    0.55000001    2.64000010
   18.74527740   61.22480011    0.55000001    2.64000010
   18.74861145   61.80310059    0.56999999    2.64000010
   18.75166702   61.91820145    0.56999999    2.64000010
   18.75499916   60.87969971    0.55000001    2.66000009
   18.75833321   61.09719849    0.55000001    2.64000010
   18.76166725   63.67340088    0.55000001    2.64000010
   18.76472282   62.27930069    0.56999999    2.64000010
   18.76805496   62.06549835    0.56999999    2.64000010
   18.77027702   60.89860153    0.56999999    2.64000010
   18.77166557   61.67779922    0.56999999    2.64000010
   18.77499962   61.82099915    0.56999999    2.64000010
   18.78083229   61.82099915    0.58999997    2.64000010
   18.78499985   62.37379837    0.56999999    2.64000010
   18.78833199   61.44900131    0.58999997    2.64000010
   18.79138756   62.29399872    0.56999999    2.64000010
   18.79472160   64.58879852    0.58999997    2.64000010
   18.79777718   61.29399872    0.58999997    2.64000010
   18.80111122   61.72660065    0.61000001    2.64000010
   18.80360985   61.35359955    0.58999997    2.64000010
   18.80472183   61.73300171    0.58999997    2.64000010
   18.80805397   62.31460190    0.58999997    2.61999989
   18.81110954   61.93470001    0.56999999    2.64000010
   18.81444359   62.12749863    0.58999997    2.64000010
   18.81777954   61.34790039    0.56999999    2.61999989
   18.82361221   61.34790039    0.56999999    2.64000010
   18.82777786   62.28889847    0.56999999    2.64000010
   18.83111191   63.99250031    0.56999999    2.64000010
   18.83444595   62.25600052    0.56999999    2.64000010
   18.83694458   61.43159866    0.56999999    2.64000010
   18.83805656   61.24280167    0.56999999    2.61999989
   18.84138870   60.70600128    0.58999997    2.61999989
   18.84472275   61.18170166    0.58999997    2.61999989
   18.84777832   60.99789810    0.58999997    2.61999989
   18.85111237   60.78379822    0.61000001    2.61999989
   18.85416794   61.06179810    0.58999997    2.61999989
   18.85750008   61.37689972    0.58999997    2.64000010
   18.86083412   60.74390030    0.58999997    2.64000010
   18.86638832   60.74390030    0.61000001    2.61999989
   18.87055588   60.67509842    0.61000001    2.64000010
   18.87388992   61.54449844    0.61000001    2.61999989
   18.87722206   61.67490005    0.61000001    2.61999989
   18.88027763   62.76029968    0.61000001    2.61999989
   18.88361168   62.37590027    0.61000001    2.61999989
   18.88666725   60.95610046    0.61000001    2.61999989
   18.88999939   61.56399918    0.61000001    2.61999989
   18.89333344   60.88100052    0.58999997    2.64000010
   18.89638901   61.16870117    0.58999997    2.61999989
   18.89972115   60.83330154    2.96000004    2.61999989
   18.90305519   63.04629898    2.80999994    2.64000010
   18.90361023   62.02730179    2.82999992    2.64000010
   18.90944481   62.02730179    2.80999994    2.64000010
   18.91361046   63.13560104    2.96000004    2.61999989
   18.91666603   61.13410187    2.98000002    2.64000010
   18.92000008   62.71889877    3.00000000    2.64000010
   18.92305565   61.47380066    2.98000002    2.64000010
   18.92638779   61.38740158    2.98000002    2.61999989
   18.92972183   62.41239929    2.98000002    2.61999989
   18.93277740   61.78839874    3.00000000    2.61999989
   18.93610954   61.24489975    2.98000002    2.64000010
   18.93694305   60.86660004    3.01999998    2.61999989
   18.93972206   61.54949951    2.98000002    2.61999989
   18.94305420   61.01549911    2.98000002    2.61999989
   18.94638824   62.74359894    3.00000000    2.61999989
   18.95222282   62.74359894    2.98000002    2.61999989
   18.95639038   61.97259903    3.05999994    2.64000010
   18.95944595   61.50270081    3.07999992    2.64000010
   18.96277809   60.81119919    3.05999994    2.61999989
   18.96611214   61.16279984    3.07999992    2.64000010
   18.96916771   61.20220184    3.05999994    2.61999989
   18.97027779   62.25690079    3.05999994    2.61999989
   18.97277832   60.27259827    3.11999989    2.61999989
   18.97611237   59.64870071    3.11999989    2.61999989
   18.97944450   59.90050125    3.14000010    2.61999989
   18.98250008   62.69660187    3.14000010    2.61999989
   18.98583412   61.08280182    3.09999990    2.61999989
   18.98888969   61.16009903    3.14000010    2.61999989
   18.99500084   61.16009903    3.16000009    2.64000010
   18.99916649   61.95899963    3.16000009    2.61999989
   19.00250053   60.26819992    3.14000010    2.61999989
   19.00361061   60.29510117    3.14000010    2.61999989
   19.00611115   61.13850021    3.14000010    2.61999989
   19.00916672   60.07870102    3.14000010    2.61999989
   19.01250076   62.82310104    3.20000005    2.61999989
   19.01555634   60.28160095    3.18000007    2.61999989
   19.01888847   60.61619949    3.18000007    2.61999989
   19.02222252   61.23429871    3.18000007    2.59999990
   19.02527809   60.13140106    3.20000005    2.61999989
   19.02861023   61.71480179    3.23000002    2.61999989
   19.03194427   59.50249863    3.25000000    2.61999989
   19.03777695   59.50249863    3.28999996    2.61999989
   19.04194450   60.95989990    3.26999998    2.59999990
   19.04527664   60.69089890    3.34999990    2.59999990
   19.04861069   62.23170090    3.34999990    2.59999990
   19.05166626   61.14049911    3.39000010    2.59999990
   19.05499840   60.89080048    3.34999990    2.61999989
   19.05805397   60.28810120    3.45000005    2.59999990
   19.06138802   60.48490143    3.45000005    2.59999990
   19.06472206   62.03620148    3.45000005    2.61999989
   19.06777954   60.21979904    3.43000007    2.61999989
   19.07027817   60.89730072    3.43000007    2.61999989
   19.07139015   60.95709991    3.43000007    2.59999990
   19.07472229   61.50230026    3.46000004    2.59999990
   19.08083344   61.50230026    3.46000004    2.59999990
   19.08500099   60.22919846    3.45000005    2.59999990
   19.08805656   60.80350113    3.45000005    2.59999990
   19.09138870   61.64379883    3.45000005    2.59999990
   19.09444427   59.80379868    3.46000004    2.59999990
   19.09777832   61.92269897    3.48000002    2.59999990
   19.10111237   60.28990173    3.50000000    2.61999989
   19.10361099   61.99209976    3.50000000    2.59999990
   19.10444450   62.23889923    3.50000000    2.59999990
   19.10777855   60.78340149    3.50000000    2.59999990
   19.11111069   61.26750183    3.50000000    2.59999990
   19.11416626   60.95529938    3.55999994    2.59999990
   19.11750031   61.89830017    3.55999994    2.59999990
   19.12361145   61.89830017    3.55999994    2.59999990
   19.12777710   60.42309952    3.66000009    2.59999990
   19.13083267   60.20489883    3.70000005    2.59999990
   19.13416672   60.53879929    3.66000009    2.59999990
   19.13694382   61.73160172    3.66000009    2.59999990
   19.13777733   60.08570099    3.68000007    2.59999990
   19.14111137   60.81750107    3.76999998    2.59999990
   19.14444351   60.23500061    3.75000000    2.59999990
   19.14749908   63.02920151    3.73000002    2.59999990
   19.15083313   60.90950012    3.73000002    2.59999990
   19.15416718   61.47449875    3.80999994    2.59999990
   19.15722275   60.25199890    3.84999990    2.59999990
   19.16055489   62.66360092    3.80999994    2.59999990
   19.16638756   62.66360092    3.78999996    2.59999990
   19.17055511   61.09400177    3.78999996    2.59999990
   19.17388916   60.38589859    3.82999992    2.57999992
   19.17694473   60.33069992    3.76999998    2.57999992
   19.18027687   62.42890167    3.75000000    2.59999990
   19.18361092   61.04190063    3.76999998    2.59999990
   19.18666649   59.72719955    3.76999998    2.59999990
   19.18999863   60.75970078    3.75000000    2.59999990
   19.19333267   60.40760040    3.75000000    2.59999990
   19.19638824   61.38539886    3.80999994    2.57999992
   19.19972038   60.96149826    3.80999994    2.57999992
   19.20277786   60.70780182    3.82999992    2.59999990
   19.20361137   62.34109879    3.82999992    2.59999990
   19.20916748   62.34109879    3.84999990    2.57999992
   19.21333504   61.80889893    3.89000010    2.57999992
   19.21666718   60.70999908    3.89000010    2.59999990
   19.21972275   60.93539810    3.89000010    2.59999990
   19.22305679   60.47430038    3.89000010    2.57999992
   19.22638893   60.56140137    3.97000003    2.57999992
   19.22944450   60.65409851    3.99000001    2.59999990
   19.23277855   60.15219879    4.00000000    2.57999992
   19.23611069   60.07580185    4.00000000    2.57999992
   19.23694420   62.00889969    4.00000000    2.59999990
   19.23944473   60.70539856    3.99000001    2.59999990
   19.24277878   59.84600067    4.00000000    2.59999990
   19.24611092   59.59510040    4.09999990    2.57999992
   19.25222206   59.59510040    4.11999989    2.59999990
   19.25611115   60.83219910    4.21999979    2.57999992
   19.25944519   61.47669983    4.63999987    2.57999992
   19.26277733   60.48960114    4.90999985    2.55999994
   19.26583290   60.28400040    4.90999985    2.50000000
   19.26916695   61.64199829    4.90999985    2.44000006
   19.27027702   60.99980164    4.90999985    2.44000006
   19.27277756   60.14569855    4.90999985    2.51999998
   19.27611160   60.75040054    4.90999985    2.57999992
   19.27944374   61.91419983    4.65999985    2.57999992
   19.28249931   61.79199982    4.88999987    2.57999992
   19.28583336   61.72140121    4.90999985    2.57999992
   19.28916550   61.36280060    4.90999985    2.30999994
   19.29500008   61.36280060    4.90999985    2.50000000
   19.29916573   62.06219864    4.90999985    2.55999994
   19.30222130   60.65039825    4.90999985    2.55999994
   19.30360985   60.54399872    4.90999985    2.55999994
   19.30583191   60.44039917    4.90999985    2.55999994
   19.30916595   60.57709885    4.90999985    2.51999998
   19.31250000   60.49179840    4.90999985    2.53999996
   19.31555557   61.51959991    4.90999985    2.55999994
   19.31888962   60.98070145    4.90999985    2.57999992
   19.32222366   59.22790146    4.73999977    2.57999992
   19.32527924   60.28139877    4.65999985    2.57999992
   19.32861137   59.84529877    4.78000021    2.57999992
   19.33166695   61.45420074    4.80999994    2.57999992
   19.33777809   61.45420074    4.80999994    2.57999992
   19.34194565   61.79270172    4.90999985    2.57999992
   19.34527779   60.34080124    4.90999985    2.57999992
   19.34833336   61.59469986    4.90999985    2.57999992
   19.35166740   60.58359909    4.90999985    2.55999994
   19.35472298   61.64199829    4.90999985    2.55999994
   19.35805511   61.52939987    4.90999985    2.55999994
   19.36138916   62.94380188    4.90999985    2.55999994
   19.36444473   61.68960190    4.90999985    2.53999996
   19.36777878   61.73709869    4.90999985    2.53999996
   19.37027740   62.89390182    4.90999985    2.55999994
   19.37166595   63.83810043    4.90999985    2.55999994
   19.37472153   61.64179993    4.90999985    2.55999994
   19.38055611   61.64179993    4.90999985    2.55999994
   19.38472176   62.34609985    4.90999985    2.55999994
   19.38805580   60.13990021    4.90999985    2.55999994
   19.39111137   61.19449997    4.90999985    2.53999996
   19.39444351   60.69860077    4.90999985    2.50000000
   19.39777756   62.00149918    4.90999985    2.44000006
   19.40083313   60.46229935    4.90999985    2.51999998
   19.40361023   59.95130157    4.90999985    2.55999994
   19.40472221   60.51060104    4.90999985    2.53999996
   19.40777779   60.65439987    4.90999985    2.55999994
   19.41110992   62.15800095    4.90999985    2.53999996
   19.41416550   59.99100113    4.90999985    2.53999996
   19.41749954   62.01580048    4.90999985    2.53999996
   19.42361069   62.01580048    4.90999985    2.55999994
   19.42749977   60.77399826    4.90999985    2.55999994
   19.43083191   60.82149887    4.90999985    2.55999994
   19.43416595   61.53400040    4.90999985    2.53999996
   19.43694305   62.34209824    4.90999985    2.53999996
   19.43777657   63.39730072    4.90999985    2.53999996
   19.44083214   61.50360107    4.90999985    2.55999994
   19.44416618   61.36510086    4.90999985    2.53999996
   19.44722176   61.61550140    4.90999985    2.55999994
   19.45055580   60.65140152    4.90999985    2.55999994
   19.45388985   60.81420135    4.90999985    2.55999994
   19.45694542   60.74670029    4.90999985    2.55999994
   19.46027946   61.33539963    4.90999985    2.53999996
   19.46638870   61.33539963    4.90999985    2.53999996
   19.47055626   61.03469849    4.90999985    2.53999996
   19.47361183   61.07820129    4.90999985    2.55999994
   19.47694588   60.22320175    4.90999985    2.55999994
   19.48027802   59.99140167    4.90999985    2.55999994
   19.48333359   60.52840042    4.90999985    2.55999994
   19.48666763   60.68289948    4.90999985    2.53999996
   19.48972321   60.42620087    4.90999985    2.53999996
   19.49305534   60.57289886    4.90999985    2.53999996
   19.49638939   59.81959915    4.90999985    2.53999996
   19.49944496   61.41709900    4.90999985    2.53999996
   19.50277710   60.43280029    4.90999985    2.53999996
   19.50361061   60.67720032    4.90999985    2.53999996
   19.50916672   60.67720032    4.90999985    2.51999998
   19.51333427   60.73860168    4.90999985    2.53999996
   19.51666641   61.56359863    4.90999985    2.48000002
   19.51972198   61.09999847    4.90999985    2.51999998
   19.52305603   60.48099899    4.90999985    2.51999998
   19.52638817   60.67029953    4.90999985    2.53999996
   19.52944374   61.47639847    4.90999985    2.51999998
   19.53277779   60.49190140    4.90999985    2.53999996
   19.53610992   62.09709930    4.90999985    2.51999998
   19.53694344   61.87120056    4.90999985    2.51999998
   19.53972244   63.01530075    4.90999985    2.51999998
   19.54277802   60.42039871    4.90999985    2.50000000
   19.54611015   62.33240128    4.90999985    2.53999996
   19.55194283   62.33240128    4.90999985    2.53999996
   19.55611038   60.79330063    4.90999985    2.53999996
   19.55944443   60.83760071    4.90999985    2.51999998
   19.56250000   61.28229904    4.90999985    2.53999996
   19.56583214   61.24309921    4.90999985    2.53999996
   19.56916809   60.97529984    4.90999985    2.51999998
   19.57027817   59.20959854    4.90999985    2.51999998
   19.57277870   60.82410049    4.90999985    2.51999998
   19.57583427   61.02709961    4.90999985    2.51999998
   19.57916832   60.05149841    4.90999985    2.51999998
   19.58222389   59.89519882    4.90999985    2.53999996
   19.58555603   61.02030182    4.90999985    2.51999998
   19.58889008   59.62879944    4.90999985    2.51999998
   19.59500122   59.62879944    4.90999985    2.51999998
   19.59889030   57.08570099    4.90999985    2.51999998
   19.60222244   55.18439865    4.90999985    2.51999998
   19.60361099   54.71870041    4.90999985    2.53999996
   19.60611153  171.29499817    4.90999985    2.51999998
   19.60916710   51.25569916    4.90999985    2.51999998
   19.61250114   48.87900162    4.90999985    2.51999998
   19.61555672   47.79320145    4.90999985    2.51999998
   19.61888885   47.75370026    4.90999985    2.51999998
   19.62222290   49.24729919    4.90999985    2.51999998
   19.62527847   50.71580124    4.90999985    2.53999996
   19.62861061   55.42919922    4.90999985    2.53999996
   19.63194466   66.98169708    4.90999985    2.51999998
   19.64166641   -1.00000000    4.90999985    2.51999998
   19.64500046   -1.00000000    4.90999985    2.51999998
   19.64833260   -1.00000000    4.90999985    2.51999998
   19.65138817   -1.00000000    4.90999985    2.51999998
   19.65472221   -1.00000000    4.90999985    2.53999996
   19.65777779   -1.00000000    4.90999985    2.53999996
   19.66110992   -1.00000000    4.90999985    2.51999998
   19.66444397   -1.00000000    4.90999985    2.51999998
   19.66749954   -1.00000000    4.90999985    2.53999996
   19.69499969   -1.00000000    4.90999985    2.53999996
   19.69805527   -1.00000000    4.90999985    2.53999996
   19.70138931   -1.00000000    4.90999985    2.53999996
   19.70472336   -1.00000000    4.90999985    2.53999996
   19.70805550   -1.00000000    4.90999985    2.53999996
   19.71138954   -1.00000000    4.90999985    2.53999996
   19.71444511   -1.00000000    4.90999985    2.53999996
   19.71777916   -1.00000000    4.90999985    2.53999996
   19.72083473   -1.00000000    4.90999985    2.53999996
   19.72416687   -1.00000000    4.90999985    2.53999996
   19.72750092   -1.00000000    4.90999985    2.53999996
   19.73777771   -1.00000000    4.90999985    2.53999996
   19.74083328   -1.00000000    4.90999985    2.51999998
   19.74416733   -1.00000000    4.90999985    2.53999996
   19.74722290   -1.00000000    4.90999985    2.51999998
   19.75055504   -1.00000000    4.90999985    2.53999996
   19.75388908   -1.00000000    4.90999985    2.53999996
   19.75694466   -1.00000000    4.90999985    2.53999996
   19.76027870   -1.00000000    4.90999985    2.53999996
   19.76361084   -1.00000000    4.90999985    2.53999996
   19.76666641   -1.00000000    4.90999985    2.51999998
   19.77000046   -1.00000000    4.90999985    2.53999996
   19.78055573   -1.00000000    4.90999985    2.51999998
   19.78361130   -1.00000000    4.90999985    2.53999996
   19.78694344   -1.00000000    4.90999985    2.51999998
   19.79027748   -1.00000000    4.90999985    2.53999996
   19.79333305   -1.00000000    4.90999985    2.51999998
   19.79666710   -1.00000000    4.90999985    2.51999998
   19.79972076   -1.00000000    4.90999985    2.53999996
   19.80305481   -1.00000000    4.90999985    2.51999998
   19.80666542   -1.00000000    4.90999985    2.53999996
   19.80999947   -1.00000000    4.90999985    2.51999998
   19.81305504   -1.00000000    4.90999985    2.51999998
   19.82333374   -1.00000000    4.90999985    2.51999998
   19.82666779   -1.00000000    4.90999985    2.51999998
   19.82972336   -1.00000000    4.90999985    2.53999996
   19.83305550   -1.00000000    4.90999985    2.51999998
   19.83638954   -1.00000000    4.90999985    2.53999996
   19.83972359   -1.00000000    4.90999985    2.53999996
   19.84305573   -1.00000000    4.90999985    2.53999996
   19.84611130   -1.00000000    4.90999985    2.53999996
