    HOUR (UT)   FLARE FACTOR    SKY TESTER    SUN TESTER
   11.40999985   -1.00000000   -1.00000000   -1.00000000
   11.46222210  542.45898438    0.61000001    0.25000000
   11.46555519  458.36300659    0.63000000    0.25999999
   11.46777725  391.19601440    0.63000000    0.25999999
   11.46888828  422.07998657    0.63000000    0.25999999
   11.47027779  379.48699951    0.61000001    0.25000000
   11.47166634  525.61401367    0.61000001    0.25999999
   11.47305489  494.86199951    0.61000001    0.25999999
   11.47444439  443.02999878    0.61000001    0.25999999
   11.47583294  432.37200928    0.61000001    0.25999999
   11.47722149  491.30099487    0.61000001    0.25999999
   11.47861099  453.48400879    0.61000001    0.25999999
   11.47999954  485.41198730    0.61000001    0.25999999
   11.48138809  442.63900757    0.61000001    0.25999999
   11.48277760  442.37799072    0.61000001    0.25999999
   11.48416710  461.17498779    0.61000001    0.25999999
   11.48555565  490.30899048    0.61000001    0.25999999
   11.48694515  430.19000244    0.61000001    0.25999999
   11.48833370  472.48400879    0.61000001    0.25999999
   11.48972225  424.61499023    0.61000001    0.25999999
   11.49111176  473.86300659    0.61000001    0.25999999
   11.49250031  451.58200073    0.61000001    0.25999999
   11.49388885  423.72100830    0.61000001    0.25999999
   11.49527836  455.71701050    0.61000001    0.25999999
   11.49666691  461.20700073    0.63000000    0.25999999
   11.49805546  413.98300171    0.61000001    0.25999999
   11.49944496  524.67297363    0.63000000    0.25999999
   11.50083351  450.67898560    0.61000001    0.25999999
   11.50222206  420.05200195    0.61000001    0.25999999
   11.50361156  516.05200195    0.63000000    0.25999999
   11.50500011  494.23098755    0.63000000    0.25999999
   11.50638866  419.35900879    0.61000001    0.25999999
   11.50777817  412.57199097    0.61000001    0.25999999
   11.50916672  457.97299194    0.61000001    0.25999999
   11.51055527  450.48901367    0.63000000    0.25999999
   11.51194477  398.41101074    0.61000001    0.25999999
   11.51333332  467.55599976    4.90999985    1.86000001
   11.51472187  449.36801147    4.90999985    1.88000000
   11.51611137  466.63500977    4.90999985    1.88000000
   11.51749992  420.90200806    4.90999985    1.88000000
   11.51888847  441.92098999    4.90999985    1.88000000
   11.52027798  484.47601318    4.90999985    1.88000000
   11.52166653  531.58001709    4.90999985    1.88000000
   11.52305508  439.16299438    4.90999985    1.88000000
   11.52444458  418.35299683    4.90999985    1.89999998
   11.52583313  451.27099609    4.90999985    1.88000000
   11.52722168  420.98699951    4.90999985    1.88000000
   11.52861118  501.64199829    4.90999985    1.88000000
   11.52999973  439.21099854    4.90999985    1.89999998
   11.53138828  435.21701050    4.90999985    1.88000000
   11.53277779  464.76199341    4.90999985    1.88000000
   11.53416729  423.66299438    4.90999985    1.88000000
   11.53555584  451.93701172    4.90999985    1.88000000
   11.53694534  408.23400879    4.90999985    1.89999998
   11.53833389  405.62298584    4.90999985    1.89999998
   11.53972244  455.66299438    4.90999985    1.88000000
   11.54111195  406.82699585    4.90999985    1.88000000
   11.54250050  430.32299805    4.90999985    1.88000000
   11.54388905  443.96099854    4.90999985    1.89999998
   11.54527855  483.12200928    4.90999985    1.89999998
   11.54666710  499.29098511    4.90999985    1.89999998
   11.54805565  410.56100464    4.90999985    1.89999998
   11.54944515  406.98300171    4.90999985    1.89999998
   11.55083370  371.73199463    4.90999985    1.89999998
   11.55222225  388.66900635    4.90999985    1.89999998
   11.55361176  390.45001221    4.90999985    1.89999998
   11.55500031  392.67898560    4.90999985    1.89999998
   11.55638885  359.17999268    4.90999985    1.89999998
   11.55777836  403.35101318    4.90999985    1.91999996
   11.55916691  429.79199219    4.90999985    1.91999996
   11.56055546  431.06600952    4.90999985    1.89999998
   11.56194496  430.71200562    4.90999985    1.91999996
   11.56333351  369.36401367    4.90999985    1.91999996
   11.56472206  385.15499878    4.90999985    1.91999996
   11.56611156  365.80200195    4.90999985    1.91999996
   11.56750011  355.63299561    4.90999985    1.91999996
   11.56888866  352.43798828    4.90999985    1.91999996
   11.57027817  342.50299072    4.90999985    1.91999996
   11.57055569  458.36300659    0.63000000    0.25999999
   11.57111073  368.71301270    4.90999985    1.91999996
   11.57416630  357.55700684    4.90999985    1.91999996
   11.57750034  324.33099365    4.90999985    1.91999996
   11.58083344  350.26699829    4.90999985    1.94000006
   11.58388901  384.39199829    4.90999985    1.94000006
   11.58722210  336.34799194    4.90999985    1.94000006
   11.59138870  336.34799194    4.90999985    1.94000006
   11.59555531  351.64199829    4.90999985    1.96000004
   11.59861088  334.16198730    4.90999985    1.94000006
   11.60194492  316.99200439    4.90999985    1.96000004
   11.60416698  351.08300781    4.90999985    1.96000004
   11.60555553  312.29098511    4.90999985    1.96000004
   11.60888958  334.86801147    4.90999985    1.96000004
   11.61194515  335.39599609    4.90999985    1.96000004
   11.61527824  325.47500610    4.90999985    1.96000004
   11.61833382  340.34201050    4.90999985    1.96000004
   11.62166691  291.30300903    4.90999985    1.96000004
   11.62500000  318.88598633    4.90999985    1.98000002
   11.62805557  323.04098511    4.90999985    1.98000002
   11.63416672  323.04098511    4.90999985    1.98000002
   11.63833332  321.50698853    4.90999985    2.00000000
   11.64166641  317.17300415    4.90999985    1.98000002
   11.64472198  313.04400635    4.90999985    2.00000000
   11.64805508  280.08499146    4.90999985    2.00000000
   11.65138817  295.10998535    4.90999985    2.00000000
   11.65444374  249.69400024    4.90999985    2.00000000
   11.65777779  294.43499756    4.90999985    2.01999998
   11.66083336  264.26699829    4.90999985    2.00000000
   11.66416645  309.17300415    4.90999985    2.00000000
   11.66750050  282.62701416    4.90999985    2.00000000
   11.67055607  254.17500305    4.90999985    2.01999998
   11.67111111  283.36401367    4.90999985    2.01999998
   11.67694473  283.36401367    4.90999985    2.01999998
   11.68111134  246.41299438    4.90999985    2.01999998
   11.68444443  246.20199585    4.90999985    2.01999998
   11.68750000  261.90399170    4.90999985    2.03999996
   11.69083309  258.47100830    4.90999985    2.03999996
   11.69416714  266.89999390    4.90999985    2.03999996
   11.69722271  267.27301025    4.90999985    2.03999996
   11.70055580  255.66900635    4.90999985    2.03999996
   11.70388889  260.85800171    4.90999985    2.03999996
   11.70444393  253.08900452    4.90999985    2.03999996
   11.70749950  254.43899536    4.90999985    2.03999996
   11.71083355  244.86999512    4.90999985    2.05999994
   11.71388912  258.94299316    4.90999985    2.05999994
   11.71999931  258.94299316    4.90999985    2.05999994
   11.72388840  260.92098999    4.90999985    2.05999994
   11.72722149  256.37899780    4.90999985    2.05999994
   11.73055553  241.20799255    4.90999985    2.05999994
   11.73361111  251.79100037    4.90999985    2.05999994
   11.73694515  272.46600342    4.90999985    2.07999992
   11.73777771  245.18299866    4.90999985    2.05999994
   11.74055576  256.76300049    4.90999985    2.05999994
   11.74388885  251.24000549    4.90999985    2.05999994
   11.74694443  281.43301392    4.90999985    2.07999992
   11.75027752  245.38400269    4.90999985    2.05999994
   11.75333309  254.71200562    4.90999985    2.07999992
   11.75666714  244.17999268    4.90999985    2.07999992
   11.76277733  244.17999268    4.90999985    2.07999992
   11.76694393  278.81799316    4.90999985    2.09999990
   11.76999950  246.74600220    4.90999985    2.07999992
   11.77111053  295.48400879    4.90999985    2.07999992
   11.77361107  291.46499634    4.90999985    2.09999990
   11.77694416  298.11700439    4.90999985    2.09999990
   11.77999973  238.99600220    4.90999985    2.09999990
   11.78333378  317.40600586    4.90999985    2.09999990
   11.78638935  286.79299927    4.90999985    2.09999990
   11.78972244  286.46200562    4.90999985    2.09999990
   11.79305553  291.33801270    4.90999985    2.11999989
   11.79611111  279.44601440    4.90999985    2.09999990
   11.79944515  243.06100464    4.90999985    2.09999990
   11.80555534  243.06100464    4.90999985    2.11999989
   11.80972195  245.97999573    4.90999985    2.11999989
   11.81305599  274.86700439    4.90999985    2.11999989
   11.81611156  253.97000122    4.90999985    2.13000011
   11.81944466  250.69900513    4.90999985    2.11999989
   11.82277775  255.88299561    4.90999985    2.11999989
   11.82583332  231.96600342    4.90999985    2.13000011
   11.82916641  254.05200195    4.90999985    2.13000011
   11.83222198  248.53900146    4.90999985    2.13000011
   11.83555508  267.90399170    4.90999985    2.13000011
   11.83777714  238.58299255    4.90999985    2.13000011
   11.83916664  242.21099854    4.90999985    2.13000011
   11.84249973  283.03698730    4.90999985    2.13000011
   11.84833336  283.03698730    4.90999985    2.15000010
   11.85249996  449.91101074    4.90999985    2.13000011
   11.85444450  554.28601074    4.90999985    2.13000011
   11.85583401  407.98001099    4.90999985    2.13000011
   11.85722256  554.43701172    4.90999985    2.15000010
   11.85861111  567.28002930    4.90999985    2.15000010
   11.86000061  577.21002197    4.90999985    2.15000010
   11.86138916  597.42797852    4.90999985    2.15000010
   11.86277771  597.05700684    4.90999985    2.15000010
   11.86416721  632.15002441    4.90999985    2.15000010
   11.86555576  494.97399902    4.90999985    2.17000008
   11.86694431  641.18499756    4.90999985    2.17000008
   11.86833382  575.95001221    4.90999985    2.17000008
   11.86972237  629.59802246    4.90999985    2.17000008
   11.87111092  551.76300049    4.90999985    2.17000008
   11.87250042  600.75097656    4.90999985    2.15000010
   11.87388897  659.10797119    4.90999985    2.17000008
   11.87527752  622.08697510    4.90999985    2.15000010
   11.87666702  662.23400879    4.90999985    2.15000010
   11.87805557  597.09600830    4.90999985    2.17000008
   11.87944412  620.49102783    4.90999985    2.17000008
   11.88083363  636.84698486    4.90999985    2.17000008
   11.88222218  643.82897949    4.90999985    2.17000008
   11.88361073  667.32299805    4.90999985    2.17000008
   11.88500023  568.47100830    4.90999985    2.17000008
   11.88638878  573.54797363    4.90999985    2.17000008
   11.88777733  685.32299805    4.90999985    2.17000008
   11.88916683  505.95001221    4.90999985    2.17000008
   11.89055538  533.37500000    4.90999985    2.17000008
   11.89194393  520.44598389    4.90999985    2.17000008
   11.89333344  594.03100586    4.90999985    2.17000008
   11.89472198  542.03497314    4.90999985    2.17000008
   11.89611053  524.42498779    4.90999985    2.17000008
   11.89750004  556.97302246    4.90999985    2.17000008
   11.89888859  553.57897949    4.90999985    2.19000006
   11.90027714  475.75698853    4.90999985    2.17000008
   11.90166664  570.11700439    4.90999985    2.19000006
   11.90305519  487.72198486    4.90999985    2.19000006
   11.90444374  560.05798340    4.90999985    2.17000008
   11.90583324  433.66799927    4.90999985    2.19000006
   11.90722179  467.00100708    4.90999985    2.19000006
   11.90861034  508.15200806    4.90999985    2.19000006
   11.90999985  458.40600586    4.90999985    2.19000006
   11.91138840  457.12298584    4.90999985    2.19000006
   11.91277695  532.52697754    4.90999985    2.19000006
   11.91416645  434.32400513    4.90999985    2.19000006
   11.91555500  399.40600586    4.90999985    2.19000006
   11.91694450  439.91900635    4.90999985    2.19000006
   11.91833401  373.65701294    4.90999985    2.21000004
   11.91972256  516.33502197    4.90999985    2.21000004
   11.92111111  413.45498657    4.90999985    2.19000006
   11.92250061  241.93299866    4.90999985    2.19000006
   11.92250061  449.91101074    4.90999985    2.13000011
   11.92277813  250.69900513    4.90999985    2.11999989
   11.92277813  255.88299561    4.90999985    2.11999989
   11.92305565  231.96600342    4.90999985    2.13000011
   11.92305565  254.05200195    4.90999985    2.13000011
   11.92305565  248.53900146    4.90999985    2.13000011
   11.92333412  267.90399170    4.90999985    2.13000011
   11.92333412  242.21099854    4.90999985    2.13000011
   11.92333412  283.03698730    4.90999985    2.13000011
   11.92388916  414.67800903    4.90999985    2.19000006
   11.92611122  391.78399658    4.90999985    2.19000006
   11.92722225  443.69900513    4.90999985    2.21000004
   11.92861176  396.45999146    4.90999985    2.19000006
   11.93000031  374.58499146    4.90999985    2.19000006
   11.93138885  400.87200928    4.90999985    2.19000006
   11.93277836  445.37500000    4.90999985    2.19000006
   11.93416691  346.08499146    4.90999985    2.19000006
   11.93444443  414.67800903    4.90999985    2.19000006
   11.93500042  411.61401367    4.90999985    2.19000006
   11.93694496  431.73098755    4.90999985    2.19000006
   11.93833351  407.68200684    4.90999985    2.21000004
   11.93972206  441.45599365    4.90999985    2.21000004
   11.94111156  352.94699097    4.90999985    2.19000006
   11.94250011  452.23498535    4.90999985    2.21000004
   11.94388866  340.97198486    4.90999985    2.19000006
   11.94388866  411.61401367    4.90999985    2.19000006
   11.94444466  416.24200439    4.90999985    2.19000006
   11.94638920  444.49899292    4.90999985    2.19000006
   11.94777775  375.58401489    4.90999985    2.21000004
   11.94916630  382.88699341    4.90999985    2.19000006
   11.95055580  404.64199829    4.90999985    2.19000006
   11.95194435  407.67098999    4.90999985    2.19000006
   11.95333290  336.83200073    4.90999985    2.21000004
   11.95333290  416.24200439    4.90999985    2.19000006
   11.95388889  369.25299072    4.90999985    2.21000004
   11.95722198  408.11898804    4.90999985    2.19000006
   11.95916653  410.87200928    4.90999985    2.21000004
   11.96055508  363.10299683    4.90999985    2.21000004
   11.96194458  273.86099243    4.90999985    2.21000004
   11.96194458  369.25299072    4.90999985    2.21000004
   11.96222210  408.11898804    4.90999985    2.19000006
   11.96277714  375.10400391    4.90999985    2.21000004
   11.96583271  387.17800903    4.90999985    2.21000004
   11.96916580  271.95098877    4.90999985    2.23000002
   11.97249985  274.87701416    4.90999985    2.21000004
   11.97555542  294.73800659    4.90999985    2.21000004
   11.97888851  277.11999512    4.90999985    2.23000002
   11.98305511  277.11999512    4.90999985    2.23000002
   11.98722267  335.40100098    4.90999985    2.23000002
   11.99027824  294.14898682    4.90999985    2.23000002
   11.99361134  303.95599365    4.90999985    2.23000002
   11.99583340  329.55398560    4.90999985    2.23000002
   11.99722290  265.29800415    4.90999985    2.23000002
   12.00027752  277.86898804    4.90999985    2.23000002
   12.00361156  306.50601196    4.90999985    2.23000002
   12.00666714  282.45700073    4.90999985    2.23000002
   12.01000023  278.33200073    4.90999985    2.23000002
   12.01333332  260.62200928    4.90999985    2.25000000
   12.01638889  271.06698608    4.90999985    2.23000002
   12.01972198  236.26400757    4.90999985    2.23000002
   12.02583313  236.26400757    4.90999985    2.23000002
   12.02999973  278.64801025    4.90999985    2.25000000
   12.03333378  223.81500244    4.90999985    2.23000002
   12.03638935  244.09800720    4.90999985    2.25000000
   12.03972244  265.57299805    4.90999985    2.25000000
   12.04277802  245.09800720    4.90999985    2.25000000
   12.04611111  231.59899902    4.90999985    2.23000002
   12.04944515  229.91999817    4.90999985    2.25000000
   12.05249977  218.07000732    4.90999985    2.25000000
   12.05583382  197.71000671    4.90999985    2.25000000
   12.05916691  188.89799500    4.90999985    2.25000000
   12.06222248  191.19599915    4.90999985    2.25000000
   12.06277752  199.94799805    4.90999985    2.25000000
   12.06861115  199.94799805    4.90999985    2.25000000
   12.07277775  199.24200439    4.90999985    2.25000000
   12.07611084  195.07800293    4.90999985    2.26999998
   12.07916641  196.85299683    4.90999985    2.26999998
   12.08249950  199.82000732    4.90999985    2.26999998
   12.08583260  197.21099854    4.90999985    2.26999998
   12.08888817  194.12300110    4.90999985    2.25000000
   12.09222221  195.57000732    4.90999985    2.26999998
   12.09555531  211.12899780    4.90999985    2.26999998
   12.09611034  196.34199524    4.90999985    2.26999998
   12.09916592  197.49800110    4.90999985    2.26999998
   12.10222244  195.61399841    4.90999985    2.26999998
   12.10555553  190.63699341    4.90999985    2.26999998
   12.11166668  190.63699341    4.90999985    2.28999996
   12.11555576  195.70100403    4.90999985    2.26999998
   12.11888885  203.50599670    4.90999985    2.26999998
   12.12222195  178.76400757    4.90999985    2.26999998
   12.12527752  193.84100342    4.90999985    2.28999996
   12.12861156  211.48399353    4.90999985    2.28999996
   12.12944412  202.66600037    4.90999985    2.28999996
   12.13222218  206.24499512    4.90999985    2.28999996
   12.13527775  221.94599915    4.90999985    2.28999996
   12.13861084  216.96699524    4.90999985    2.28999996
   12.14194393  223.18600464    4.90999985    2.30999994
   12.14499950  206.79699707    4.90999985    2.30999994
   12.14833355  214.66799927    4.90999985    2.30999994
   12.15444374  214.66799927    4.90999985    2.30999994
   12.15861034  203.37500000    4.90999985    2.32999992
   12.16166592  235.44000244    4.90999985    2.30999994
   12.16277695  228.67500305    4.90999985    2.30999994
   12.16555500  202.56599426    4.90999985    2.30999994
   12.16861153  255.28799438    4.90999985    2.30999994
   12.17194462  255.04100037    4.90999985    2.32999992
   12.17527771  229.40600586    4.90999985    2.32999992
   12.17833328  207.48300171    4.90999985    2.32999992
   12.18166733  211.78100586    4.90999985    2.32999992
   12.18500042  251.43299866    4.90999985    2.30999994
   12.18805599  209.68099976    4.90999985    2.32999992
   12.19138908  205.86500549    4.90999985    2.32999992
   12.19722271  205.86500549    4.90999985    2.32999992
   12.20138836  226.93299866    4.90999985    2.34999990
   12.20472240  185.07600403    4.90999985    2.32999992
   12.20777798  227.02699280    4.90999985    2.34999990
   12.21111107  208.79499817    4.90999985    2.32999992
   12.21416664  225.87699890    4.90999985    2.32999992
   12.21749973  249.69900513    4.90999985    2.34999990
   12.22083282  217.73500061    4.90999985    2.32999992
   12.22388840  230.02400208    4.90999985    2.34999990
   12.22722149  238.46099854    4.90999985    2.34999990
   12.22944355  209.64100647    4.90999985    2.34999990
   12.23083305  204.77999878    4.90999985    2.34999990
   12.23388958  190.77499390    4.90999985    2.34999990
   12.24000072  190.77499390    4.90999985    2.34999990
   12.24416733  182.37699890    4.90999985    2.36999989
   12.24750042  202.54100037    4.90999985    2.34999990
   12.25055599  190.41000366    4.90999985    2.36999989
   12.25388908  172.22000122    4.90999985    2.36999989
   12.25722218  212.86799622    4.90999985    2.34999990
   12.26027775  205.16400146    4.90999985    2.34999990
   12.26277733  204.55999756    4.90999985    2.36999989
   12.26416683  201.15899658    4.90999985    2.36999989
   12.26722240  202.01300049    4.90999985    2.36999989
   12.27055550  197.62600708    4.90999985    2.34999990
   12.27388859  189.41600037    4.90999985    2.36999989
   12.27694416  176.40199280    4.90999985    2.36999989
   12.28305531  176.40199280    4.90999985    2.36999989
   12.28694534  200.53100586    4.90999985    2.36999989
   12.29027843  166.73800659    4.90999985    2.36999989
   12.29361153  196.69200134    4.90999985    2.36999989
   12.29611111  199.97700500    4.90999985    2.36999989
   12.29722309  216.29899597    4.90999985    2.36999989
   12.30027771  180.60299683    4.90999985    2.36999989
   12.30361176  195.12399292    4.90999985    2.36999989
   12.30694485  174.63099670    4.90999985    2.36999989
   12.31000042  173.74400330    4.90999985    2.36999989
   12.31333351  195.70700073    4.90999985    2.36999989
   12.31666660  173.02900696    4.90999985    2.39000010
   12.31972218  176.94900513    4.90999985    2.39000010
   12.32583332  176.94900513    4.90999985    2.36999989
   12.32999992  183.34199524    4.90999985    2.36999989
   12.33305550  173.64199829    4.90999985    2.39000010
   12.33638859  170.75500488    4.90999985    2.39000010
   12.33972168  182.26300049    4.90999985    2.39000010
   12.34277725  166.40199280    4.90999985    2.39000010
   12.34611034  170.28599548    4.90999985    2.39000010
   12.34916592  167.51199341    4.90999985    2.39000010
   12.35249996  183.47700500    4.90999985    2.39000010
   12.35583401  188.25199890    4.90999985    2.39000010
   12.35888958  174.97700500    4.90999985    2.39000010
   12.36222267  173.85099792    4.90999985    2.39000010
   12.36277771  181.41799927    4.90999985    2.39000010
   12.36861134  181.41799927    4.90999985    2.39000010
   12.37277794  178.49400330    4.90999985    2.39000010
   12.37611103  191.11099243    4.90999985    2.39000010
   12.37916660  166.16499329    4.90999985    2.39000010
   12.38249969  178.65600586    4.90999985    2.39000010
   12.38583279  171.34599304    4.90999985    2.39000010
   12.38888836  174.86199951    4.90999985    2.40000010
   12.39222240  184.61799622    4.90999985    2.40000010
   12.39527798  176.87600708    4.90999985    2.39000010
   12.39611053  168.48599243    4.90999985    2.40000010
   12.39916611  171.16499329    4.90999985    2.40000010
   12.40249920  169.00100708    4.90999985    2.40000010
   12.40555477  178.48399353    4.90999985    2.39000010
   12.41138840  178.48399353    4.90999985    2.40000010
   12.41555500  173.83900452    4.90999985    2.40000010
   12.41888905  162.95799255    4.90999985    2.40000010
   12.42194462  176.36700439    4.90999985    2.40000010
   12.42527771  168.65299988    4.90999985    2.40000010
   12.42861176  173.22999573    4.90999985    2.40000010
   12.42944431  172.76400757    4.90999985    2.40000010
   12.43222237  173.19799805    4.90999985    2.40000010
   12.43555546  172.17500305    4.90999985    2.42000008
   12.43861103  167.05799866    4.90999985    2.40000010
   12.44194412  175.14999390    4.90999985    2.40000010
   12.44499969  178.51499939    4.90999985    2.42000008
   12.44833374  170.00100708    4.90999985    2.42000008
   12.45444393  170.00100708    4.90999985    2.44000006
   12.45833302  161.76600647    4.90999985    2.42000008
   12.46166611  168.82800293    4.90999985    2.40000010
   12.46277714  169.78100586    4.90999985    2.42000008
   12.48166656  180.07200623    4.90999985    2.42000008
   12.48500061  206.19099426    4.90999985    2.44000006
   12.48833370  204.92199707    4.90999985    2.44000006
   12.49138927  190.77299500    4.90999985    2.44000006
   12.49722290  190.77299500    4.90999985    2.44000006
   12.50138855  204.78900146    4.90999985    2.44000006
   12.50472260  197.58700562    4.90999985    2.46000004
   12.50777817  203.47399902    4.90999985    2.46000004
   12.51111126  208.85400391    4.90999985    2.46000004
   12.51416683  215.91900635    4.90999985    2.46000004
   12.51749992  207.11199951    4.90999985    2.46000004
   12.52083302  225.47900391    4.90999985    2.46000004
   12.52388859  197.24499512    4.90999985    2.46000004
   12.52722168  162.13699341    4.90999985    2.44000006
   12.52944374  238.41000366    4.90999985    2.46000004
   12.53083324  191.86599731    4.90999985    2.46000004
   12.53388977  194.49800110    4.90999985    2.46000004
   12.54000092  194.49800110    4.90999985    2.46000004
   12.54416752  213.56100464    4.90999985    2.46000004
   12.54750061  162.68400574    4.90999985    2.46000004
   12.55083370  191.10899353    4.90999985    2.46000004
   12.55388927  162.83099365    4.90999985    2.46000004
   12.55722237  168.98500061    4.90999985    2.46000004
   12.56027794  165.53199768    4.90999985    2.46000004
   12.56277752  187.89999390    4.90999985    2.46000004
   12.56416702  176.20199585    4.90999985    2.46000004
   12.56750011  160.28799438    4.90999985    2.46000004
   12.57055569  190.22300720    4.90999985    2.46000004
   12.57388878  172.77600098    4.90999985    2.46000004
   12.57694435  174.23699951    4.90999985    2.46000004
   12.58305550  174.23699951    4.90999985    2.46000004
   12.58722210  156.64300537    4.90999985    2.46000004
   12.59027767  169.94700623    4.90999985    2.46000004
   12.59361076  171.53599548    4.90999985    2.46000004
   12.59611034  157.13999939    4.90999985    2.46000004
   12.59722233  157.66900635    4.90999985    2.48000002
   12.60055637  156.52999878    4.90999985    2.46000004
   12.60361195  169.32400513    4.90999985    2.46000004
   12.60694504  160.61399841    4.90999985    2.46000004
   12.61000061  155.10200500    4.90999985    2.46000004
   12.61333370  149.34700012    4.90999985    2.46000004
   12.61666679  158.15199280    4.90999985    2.46000004
   12.61972237  161.28100586    4.90999985    2.46000004
   12.62583351  161.28100586    4.90999985    2.46000004
   12.63000011  163.33999634    4.90999985    2.44000006
   12.63305569  158.30000305    4.90999985    2.44000006
   12.63638878  161.69599915    4.90999985    2.46000004
   12.63972187  147.68299866    4.90999985    2.46000004
   12.64277744  157.03999329    4.90999985    2.46000004
   12.64611053  159.05499268    4.90999985    2.46000004
   12.64944458  152.08799744    4.90999985    2.46000004
   12.65249920  154.17500305    4.90999985    2.46000004
   12.65583324  154.17999268    4.90999985    2.48000002
   12.65888882  146.41499329    4.90999985    2.46000004
   12.66222191  154.97000122    4.90999985    2.48000002
   12.66277695  156.44900513    4.90999985    2.48000002
   12.66861153  156.44900513    4.90999985    2.48000002
   12.67277813  150.48699951    4.90999985    2.48000002
   12.67611122  159.61300659    4.90999985    2.48000002
   12.67916679  159.50300598    4.90999985    2.48000002
   12.68249989  155.83000183    4.90999985    2.50000000
   12.68583298  153.54899597    4.90999985    2.48000002
   12.68888855  149.68099976    4.90999985    2.50000000
   12.69222260  154.55999756    4.90999985    2.48000002
   12.69527817  162.33399963    4.90999985    2.50000000
   12.69611073  155.48199463    4.90999985    2.48000002
   12.69888878  182.93099976    4.90999985    2.48000002
   12.70222187  147.37699890    4.90999985    2.48000002
   12.70527744  204.31399536    4.90999985    2.50000000
   12.71138859  204.31399536    4.90999985    2.50000000
   12.71555519  189.76699829    4.90999985    2.48000002
   12.71888828  166.96200562    4.90999985    2.50000000
   12.72222137  148.75100708    4.90999985    2.50000000
   12.72527695  148.73800659    4.90999985    2.48000002
   12.72861099  149.11399841    4.90999985    2.50000000
   12.72944355  151.18699646    4.90999985    2.48000002
   12.73222160  162.19200134    4.90999985    2.48000002
   12.73555565  149.41299438    4.90999985    2.48000002
   12.73861122  144.15100098    4.90999985    2.48000002
   12.74194431  143.36999512    4.90999985    2.48000002
   12.74527836  149.63099670    4.90999985    2.48000002
   12.74833393  174.16600037    4.90999985    2.48000002
   12.75444412  174.16600037    4.90999985    2.48000002
   12.75861073  137.96400452    4.90999985    2.48000002
   12.76166630  144.88600159    4.90999985    2.46000004
   12.76277733  151.36300659    4.90999985    2.48000002
   12.76527786  143.07299805    4.90999985    2.48000002
   12.76861095  145.36300659    4.90999985    2.48000002
   12.77166653  141.24800110    4.90999985    2.48000002
   12.77499962  160.75300598    4.90999985    2.48000002
   12.77833271  162.25700378    4.90999985    2.48000002
   12.78138828  155.31599426    4.90999985    2.48000002
   12.78472233  188.38699341    4.90999985    2.48000002
   12.78777790  191.70899963    4.90999985    2.48000002
   12.79111195  176.48899841    4.90999985    2.48000002
   12.79722309  176.48899841    4.90999985    2.50000000
   12.80138874  150.13299561    4.90999985    2.50000000
   12.80444431  166.44000244    4.90999985    2.50000000
   12.80777836  154.55299377    4.90999985    2.50000000
   12.81111145  164.88699341    4.90999985    2.50000000
   12.81416702  181.00300598    4.90999985    2.50000000
   12.81750011  184.66600037    4.90999985    2.50000000
   12.82083321  183.58299255    4.90999985    2.50000000
   12.82388878  170.75700378    4.90999985    2.51999998
   12.82722187  188.35699463    4.90999985    2.50000000
   12.82944393  171.97900391    4.90999985    2.51999998
   12.83083344  182.51400757    4.90999985    2.51999998
   12.83416653  196.74299622    4.90999985    2.51999998
   12.84000015  196.74299622    4.90999985    2.50000000
   12.84416676  206.31300354    4.90999985    2.51999998
   12.84749985  176.08099365    4.90999985    2.53999996
   12.85055637  207.16000366    4.90999985    2.51999998
   12.85388947  173.19799805    4.90999985    2.51999998
   12.85694504  200.26100159    4.90999985    2.51999998
   12.86027813  191.62100220    4.90999985    2.51999998
   12.86277771  186.03500366    4.90999985    2.51999998
   12.86388969  155.75999451    4.90999985    2.51999998
   12.86722279  174.29299927    4.90999985    2.51999998
   12.87027836  174.46499634    4.90999985    2.51999998
   12.87361145  186.11999512    4.90999985    2.51999998
   12.87666702  166.87199402    4.90999985    2.51999998
   12.88305569  166.87199402    4.90999985    2.51999998
   12.88694477  207.60600281    4.90999985    2.50000000
   12.89027786  184.20500183    4.90999985    2.53999996
   12.89361095  177.76699829    4.90999985    2.51999998
   12.89638901  172.59199524    4.90999985    2.51999998
   12.89722252  172.63299561    4.90999985    2.51999998
   12.90055561  181.08500671    4.90999985    2.53999996
   12.90361118  158.69200134    4.90999985    2.51999998
   12.90694427  145.88000488    4.90999985    2.51999998
   12.91027737  162.00100708    4.90999985    2.53999996
   12.91333294  145.65800476    4.90999985    2.53999996
   12.91666698  157.03399658    4.90999985    2.53999996
   12.92000008  143.73500061    4.90999985    2.53999996
   12.92583370  143.73500061    4.90999985    2.53999996
   12.93000031  149.15199280    4.90999985    2.53999996
   12.93305588  149.84500122    4.90999985    2.51999998
   12.93638897  171.08799744    4.90999985    2.53999996
   12.93972206  144.39799500    4.90999985    2.53999996
   12.94277763  163.16000366    4.90999985    2.53999996
   12.94611073  160.43400574    4.90999985    2.53999996
   12.94916630  145.01300049    4.90999985    2.53999996
   12.95249939  156.47399902    4.90999985    2.53999996
   12.95583344  171.61199951    4.90999985    2.53999996
   12.95888901  140.19400024    4.90999985    2.53999996
   12.96222210  156.55000305    4.90999985    2.53999996
   12.96305561  151.21800232    4.90999985    2.53999996
   12.96861076  151.21800232    4.90999985    2.53999996
   12.97277737  138.35499573    4.90999985    2.51999998
   12.97583294  149.77499390    4.90999985    2.53999996
   12.97916603  161.17999268    4.90999985    2.53999996
   12.98249912  155.66600037    4.90999985    2.53999996
   12.98583317  150.97399902    4.90999985    2.53999996
   12.98888874  160.43299866    4.90999985    2.53999996
   12.99222279  150.33200073    4.90999985    2.53999996
   12.99527836  156.21099854    4.90999985    2.51999998
   12.99638939  158.52900696    4.90999985    2.53999996
   12.99888897  168.15899658    4.90999985    2.53999996
   13.00222206  164.89100647    4.90999985    2.53999996
   13.00527763  151.89100647    4.90999985    2.53999996
   13.01138878  151.89100647    4.90999985    2.53999996
   13.01555538  152.40299988    4.90999985    2.53999996
   13.01888847  154.87199402    4.90999985    2.53999996
   13.02194405  174.64799500    4.90999985    2.53999996
   13.02527714  158.48300171    4.90999985    2.53999996
   13.02861118  149.18400574    4.90999985    2.53999996
   13.02972221  144.28999329    4.90999985    2.53999996
   13.03194427  146.87600708    4.90999985    2.53999996
   13.03527832  152.13900757    4.90999985    2.53999996
   13.03833389  158.50199890    4.90999985    2.53999996
   13.04166698  149.64500427    4.90999985    2.53999996
   13.04500008  147.83200073    4.90999985    2.53999996
   13.04805565  151.97700500    4.90999985    2.55999994
   13.05444431  151.97700500    4.90999985    2.53999996
   13.05833340  152.41200256    4.90999985    2.53999996
   13.06166649  145.30499268    4.90999985    2.53999996
   13.06305599  166.16600037    4.90999985    2.53999996
   13.06527805  152.97500610    4.90999985    2.53999996
   13.06861115  150.99200439    4.90999985    2.55999994
   13.07166672  155.69299316    4.90999985    2.53999996
   13.07499981  143.16700745    4.90999985    2.55999994
   13.07833290  165.89199829    4.90999985    2.55999994
   13.08138847  147.11500549    4.90999985    2.55999994
   13.08472157  129.65100098    4.90999985    2.55999994
   13.08805561  158.81399536    4.90999985    2.55999994
   13.09111118  161.18299866    4.90999985    2.55999994
   13.09722233  161.18299866    4.90999985    2.55999994
   13.10138893  161.33099365    4.90999985    2.55999994
   13.10444450  169.11700439    4.90999985    2.55999994
   13.10777855  185.01699829    4.90999985    2.55999994
   13.11083412  202.24800110    4.90999985    2.55999994
   13.11416721  163.15100098    4.88999987    2.55999994
   13.11750031  193.54400635    4.84999990    2.55999994
   13.12055588  165.16799927    4.80999994    2.55999994
   13.12388897  169.69500732    4.80000019    2.55999994
   13.12722206  160.67300415    4.71999979    2.55999994
   13.12972260  143.71800232    4.71999979    2.55999994
   13.13055611  145.42900085    4.69999981    2.57999992
   13.13388920  161.39399719    4.63999987    2.57999992
   13.14000034  161.39399719    4.55999994    2.57999992
   13.14416695  179.15600586    4.53000021    2.59999990
   13.14750004  177.98599243    4.53000021    2.57999992
   13.15055561  193.35200500    4.53000021    2.57999992
   13.15388870  176.35899353    4.48999977    2.57999992
   13.15694427  169.88699341    4.46999979    2.57999992
   13.16027737  166.10299683    4.46999979    2.57999992
   13.16305542  196.69400024    4.46999979    2.57999992
   13.16388893  155.56900024    4.46999979    2.57999992
   13.16722298  151.74299622    4.46999979    2.57999992
   13.17027855  177.61399841    4.46999979    2.57999992
   13.17361164  153.08399963    4.46999979    2.59999990
   13.17694473  150.77999878    4.46999979    2.57999992
   13.18277836  150.77999878    4.51000023    2.59999990
   13.18694496  186.55099487    4.53999996    2.59999990
   13.19027805  173.52900696    4.63999987    2.59999990
   13.19333363  178.75599670    4.69999981    2.57999992
   13.19638920  165.94900513    4.76000023    2.55999994
   13.19694424  157.93200684    4.76000023    2.55999994
   13.20027733  183.67599487    4.80999994    2.57999992
   13.20333290  151.54899597    4.90999985    2.55999994
   13.20666695  187.87600708    4.90999985    2.55999994
   13.21000004  163.19000244    4.90999985    2.57999992
   13.21305561  160.41700745    4.90999985    2.55999994
   13.21638870  173.33500671    4.90999985    2.55999994
   13.21972179  175.81700134    4.90999985    2.55999994
   13.22583294  175.81700134    4.90999985    2.57999992
   13.22972202  152.09199524    4.90999985    2.57999992
   13.23305511  179.50300598    4.90999985    2.55999994
   13.23638916  162.67399597    4.90999985    2.55999994
   13.23944473  148.71800232    4.90999985    2.57999992
   13.24277782  169.26600647    4.90999985    2.57999992
   13.24611092  172.19999695    4.90999985    2.55999994
   13.24916649  158.30799866    4.90999985    2.55999994
   13.25249958  189.43899536    4.90999985    2.57999992
   13.25555515  155.61099243    4.90999985    2.57999992
   13.25888920  169.29400635    4.90999985    2.57999992
   13.26222229  187.30799866    4.90999985    2.57999992
   13.26305580  181.45100403    4.90999985    2.57999992
   13.26861095  181.45100403    4.88999987    2.57999992
   13.27277756  196.91700745    4.84999990    2.57999992
   13.27583313  204.97599792    4.80999994    2.57999992
   13.27916622  176.14700317    4.76000023    2.57999992
   13.28249931  168.68600464    4.73999977    2.57999992
   13.28555584  181.69599915    4.69999981    2.59999990
   13.28888893  203.46800232    4.65999985    2.59999990
   13.29194450  175.24099731    4.63999987    2.59999990
   13.29527855  190.85800171    4.61999989    2.59999990
   13.29638958  187.05599976    4.59999990    2.59999990
   13.29888916  164.63499451    4.57999992    2.59999990
   13.30222225  177.94000244    4.57999992    2.57999992
   13.30555534  177.89300537    4.55999994    2.61999989
   13.31138897  177.89300537    4.51000023    2.59999990
   13.31555557  172.24499512    4.46999979    2.61999989
   13.31888866  193.50500488    4.44999981    2.61999989
   13.32194424  185.77799988    4.44999981    2.59999990
   13.32527733  187.14599609    4.46999979    2.59999990
   13.32861137  162.73300171    4.46999979    2.59999990
   13.32972240  173.86900330    4.44999981    2.59999990
   13.33194447  142.73500061    4.44999981    2.59999990
   13.33527756  160.78599548    4.44999981    2.61999989
   13.33861065  144.17999268    4.44999981    2.59999990
   13.34166622  146.34800720    4.42999983    2.59999990
   13.34499931  133.03799438    4.42999983    2.61999989
   13.34805489  130.56799316    4.44999981    2.61999989
   13.35416698  130.56799316    4.46999979    2.59999990
   13.35833359  138.31399536    4.48999977    2.61999989
   13.36166668  155.49899292    4.46999979    2.61999989
   13.36305618  121.15399933    4.46999979    2.61999989
   13.36500072  145.83000183    4.46999979    2.61999989
   13.36833382  125.37500000    4.44999981    2.61999989
   13.37166691  129.20700073    4.46999979    2.61999989
   13.37472248  143.01899719    4.48999977    2.61999989
   13.37805557  136.75599670    4.53000021    2.61999989
   13.38138866  127.05300140    4.53999996    2.61999989
   13.38444424  133.14100647    4.57999992    2.61999989
   13.38777733  121.52400208    4.59999990    2.61999989
   13.39083290  132.30799866    4.65999985    2.59999990
   13.39722252  132.30799866    4.69999981    2.61999989
   13.40138817  128.50100708    4.73999977    2.59999990
   13.40444374  131.96000671    4.78000021    2.61999989
   13.40777779  140.48699951    4.80000019    2.59999990
   13.41083336  126.74299622    4.80999994    2.59999990
   13.41416645  137.19599915    4.80999994    2.59999990
   13.41750050  134.02400208    4.80999994    2.59999990
   13.42055607  140.58500671    4.80000019    2.61999989
   13.42388916  139.97399902    4.80999994    2.59999990
   13.42722225  138.44299316    4.80999994    2.59999990
   13.42972279  138.66900635    4.80999994    2.61999989
   13.43055630  138.12899780    4.80999994    2.59999990
   13.43388939  142.41000366    4.80999994    2.61999989
   13.44000053  142.41000366    4.80999994    2.59999990
   13.44416714  141.26499939    4.76000023    2.61999989
   13.44722271  140.10600281    4.71999979    2.61999989
   13.45055580  156.01600647    4.65999985    2.61999989
   13.45388889  145.13200378    4.57999992    2.61999989
   13.45694447  153.76300049    4.48999977    2.64000010
   13.46027756  142.68800354    4.40999985    2.61999989
   13.46305561  127.98400116    4.34999990    2.64000010
   13.46388912  123.76699829    4.32999992    2.61999989
   13.46722221  140.57899475    4.26999998    2.64000010
   13.47055531  138.29299927    4.23999977    2.64000010
   13.47361088  134.30799866    4.23999977    2.64000010
   13.47694397  132.33599854    4.21999979    2.64000010
   13.49722290   73.86849976    4.05999994    2.64000010
   13.49777794   84.91970062    4.05999994    2.64000010
   13.50111103  137.09599304    4.03999996    2.64000010
   13.50444412  146.41999817    4.00000000    2.64000010
   13.50749969  140.13999939    3.97000003    2.64000010
   13.51083374  159.51199341    3.91000009    2.64000010
   13.51388931  154.85600281    3.89000010    2.64000010
   13.51722240  160.26600647    3.82999992    2.64000010
   13.52055550  147.19400024    3.78999996    2.66000009
   13.52555561  147.19400024    3.80999994    2.66000009
   13.52972221  147.98100281    3.86999989    2.66000009
   13.53027725  141.46299744    3.86999989    2.66000009
   13.53333378  138.28100586    3.84999990    2.64000010
   13.53638935  140.52600098    3.82999992    2.64000010
   13.53972244  145.52699280    3.82999992    2.64000010
   13.54305553  127.48100281    3.84999990    2.64000010
   13.54611111  145.17300415    3.95000005    2.66000009
   13.54944515  148.06799316    3.99000001    2.64000010
   13.55277824  134.96200562    4.01999998    2.66000009
   13.55583382  140.43499756    4.05999994    2.64000010
   13.55916691  151.92399597    4.03999996    2.64000010
   13.56222248  153.38499451    4.00000000    2.64000010
   13.56361103  147.71099854    4.00000000    2.64000010
   13.56861115  147.71099854    3.93000007    2.66000009
   13.57250023  142.91700745    3.95000005    2.66000009
   13.57583332  144.28700256    3.95000005    2.66000009
   13.57916641  137.74800110    3.93000007    2.66000009
   13.58222198  143.58999634    3.91000009    2.66000009
   13.58555508  160.17500305    3.89000010    2.66000009
   13.58888817  151.18699646    3.91000009    2.66000009
   13.59194374  158.89100647    3.89000010    2.66000009
   13.59527779  145.07800293    3.86999989    2.66000009
   13.59694386  149.26600647    3.86999989    2.66000009
   13.59888840  174.15600586    3.89000010    2.66000009
   13.60194492  147.36000061    3.91000009    2.66000009
   13.60527802  138.99699402    3.86999989    2.66000009
   13.61138916  138.99699402    3.91000009    2.66000009
   13.61555576  135.40699768    3.86999989    2.66000009
   13.61861134  141.99400330    3.82999992    2.66000009
   13.62194443  127.21299744    3.75000000    2.66000009
   13.62527752  130.95500183    3.75000000    2.67000008
   13.62833309  138.02799988    3.72000003    2.66000009
   13.63027763  130.36700439    3.73000002    2.67000008
   13.63194466  133.45399475    3.70000005    2.66000009
   13.63500023  137.89700317    3.70000005    2.67000008
   13.63833332  130.36799622    3.68000007    2.67000008
   13.64166641  122.17299652    3.68000007    2.67000008
   13.64472198  130.18699646    3.61999989    2.66000009
   13.64805508  134.88999939    3.70000005    2.67000008
   13.65416622  134.88999939    3.76999998    2.67000008
   13.65833282  118.56800079    3.86999989    2.66000009
   13.66166592  129.69900513    3.93000007    2.66000009
   13.66361046  129.57800293    3.99000001    2.67000008
   13.66527748  134.03599548    3.99000001    2.66000009
   13.66861153  123.03800201    4.00000000    2.66000009
   13.67166710  148.80799866    4.00000000    2.67000008
   13.67500019  132.77099609    4.03999996    2.67000008
   13.67833328  138.65199280    4.09999990    2.66000009
   13.68138885  156.60899353    4.09999990    2.66000009
   13.68472195  157.05099487    4.13999987    2.66000009
   13.68805599  127.82599640    4.17999983    2.66000009
   13.69111156  153.56700134    4.19999981    2.64000010
   13.69694424  153.56700134    4.23999977    2.66000009
   13.70111084  140.61500549    4.26000023    2.66000009
   13.70444393  134.63800049    4.26999998    2.66000009
   13.70749950  138.58700562    4.28999996    2.66000009
   13.71083355  145.26899719    4.28999996    2.66000009
   13.71416664  147.16600037    4.28999996    2.66000009
   13.71722221  142.84300232    4.28999996    2.66000009
   13.72055531  137.14799500    4.28999996    2.66000009
   13.72388840  141.35099792    4.23999977    2.66000009
   13.72694397  130.81399536    4.19999981    2.66000009
   13.73027706  133.95199585    4.19999981    2.66000009
   13.73083305  142.80200195    4.19999981    2.66000009
   13.73388958  131.46800232    4.17999983    2.66000009
   13.74000072  131.46800232    4.11999989    2.67000008
   13.74388885  137.45799255    4.07999992    2.67000008
   13.74722290  132.61199951    4.05999994    2.66000009
   13.75055599  135.16099548    4.03999996    2.66000009
   13.75361156  127.01000214    4.03999996    2.67000008
   13.75694466  123.92400360    4.03999996    2.66000009
   13.76027775  131.29899597    4.07999992    2.67000008
   13.76333332  124.11100006    4.09999990    2.66000009
   13.76416683  123.74500275    4.09999990    2.66000009
   13.76694393  135.47999573    4.09999990    2.66000009
   13.77027798  128.34199524    4.07999992    2.67000008
   13.77361107  133.61199951    4.03999996    2.66000009
   13.77666664  126.79199982    4.01999998    2.66000009
   13.78277779  126.79199982    3.93000007    2.67000008
   13.78694534  142.01800537    3.86999989    2.67000008
   13.79000092  132.81599426    3.82999992    2.67000008
   13.79333401  137.65100098    3.80999994    2.67000008
   13.79666710  132.17300415    3.78999996    2.67000008
   13.79750061  140.18800354    3.78999996    2.67000008
   13.80000019  127.53199768    3.75000000    2.66000009
   13.80333328  127.61799622    3.73000002    2.67000008
   13.80666733  119.36299896    3.72000003    2.67000008
   13.80972195  148.94400024    3.70000005    2.67000008
   13.81305599  141.00900269    3.64000010    2.67000008
   13.81638908  149.75500488    3.61999989    2.67000008
   13.81944466  123.94400024    3.64000010    2.67000008
   13.82555580  123.94400024    3.61999989    2.67000008
   13.82972240  144.10200500    3.64000010    2.67000008
   13.83083344  149.58799744    3.61999989    2.67000008
   13.83333302  135.44200134    3.61999989    2.67000008
   13.83666611  127.80599976    3.66000009    2.69000006
   13.84000015  155.71699524    3.68000007    2.67000008
   13.84305477  131.62500000    3.68000007    2.69000006
   13.84638882  135.73500061    3.70000005    2.67000008
   13.84972191  128.52900696    3.72000003    2.67000008
   13.85277843  143.00000000    3.73000002    2.67000008
   13.85611153  129.46099854    3.70000005    2.67000008
   13.85916710  139.21400452    3.68000007    2.69000006
   13.86250019  117.43499756    3.68000007    2.69000006
   13.86416721  126.90399933    3.66000009    2.69000006
   13.86833382  126.90399933    3.66000009    2.69000006
   13.87250042  134.50300598    3.66000009    2.69000006
   13.87583351  137.44299316    3.72000003    2.67000008
   13.87888908  131.36500549    3.72000003    2.67000008
   13.88222218  126.76799774    3.75000000    2.67000008
   13.88555527  117.43000031    3.86999989    2.69000006
   13.88861084  137.69400024    3.91000009    2.67000008
   13.89194393  122.90499878    3.93000007    2.67000008
   13.89527798  127.57700348    3.97000003    2.67000008
   13.89750004  136.72399902    3.95000005    2.67000008
   13.89861107  123.03399658    3.97000003    2.69000006
   13.90194416  135.34199524    3.99000001    2.67000008
   13.90527725  129.94099426    3.99000001    2.67000008
   13.91138840  129.94099426    4.03999996    2.69000006
   13.91527748  127.53500366    4.01999998    2.67000008
   13.91861153  128.62800598    4.09999990    2.67000008
   13.92194462  127.75800323    4.11999989    2.67000008
   13.92500019  133.01100159    4.13999987    2.67000008
   13.92833328  123.24700165    4.19999981    2.67000008
   13.93083382  125.73899841    4.21999979    2.67000008
   13.93194485  123.16799927    4.21999979    2.67000008
   13.93527794  123.76799774    4.21999979    2.67000008
   13.93861103  137.63800049    4.19999981    2.67000008
   13.94166660  125.36900330    4.19999981    2.66000009
   13.94499969  128.69500732    4.13999987    2.69000006
   13.94833374  133.25000000    4.11999989    2.69000006
   13.95416641  133.25000000    4.05999994    2.67000008
   13.95833302  146.29400635    3.99000001    2.69000006
   13.96138859  134.70100403    3.95000005    2.67000008
   13.96416664  136.34199524    3.95000005    2.67000008
   13.96500015  132.99299622    3.91000009    2.69000006
   13.96833324  140.24000549    3.78999996    2.69000006
   13.97166634  137.82099915    3.72000003    2.69000006
   13.97472191  131.88900757    3.68000007    2.69000006
   13.97805500  136.26300049    3.66000009    2.69000006
   13.98138809  128.55799866    3.64000010    2.69000006
   13.98444462  122.73999786    3.59999990    2.69000006
   13.98777771  135.97300720    3.61999989    2.69000006
   13.99083328  131.46699524    3.61999989    2.69000006
   13.99694443  131.46699524    3.61999989    2.69000006
   14.00111103  140.31500244    3.59999990    2.69000006
   14.00444412  131.81199646    3.57999992    2.69000006
   14.00749969  121.18299866    3.57999992    2.69000006
   14.01083374  129.85299683    3.64000010    2.69000006
   14.01388931  126.30000305    3.73000002    2.67000008
   14.01722240  129.84399414    3.76999998    2.69000006
   14.02055550  129.63099670    3.78999996    2.69000006
   14.02361107  135.03700256    3.84999990    2.69000006
   14.02694416  125.81999969    3.89000010    2.69000006
   14.03027725  126.34400177    3.95000005    2.69000006
   14.03194427  124.04900360    3.97000003    2.69000006
   14.03388977  129.81599426    3.97000003    2.69000006
   14.03972244  129.81599426    4.03999996    2.69000006
   14.04388905  147.66000366    4.05999994    2.69000006
   14.04722309  140.34599304    4.01999998    2.69000006
   14.05027771  126.46399689    4.01999998    2.69000006
   14.05361176  115.12599945    4.03999996    2.69000006
   14.05694485  126.75399780    4.03999996    2.69000006
   14.06000042  132.99299622    4.05999994    2.69000006
   14.06333351  118.64900208    4.07999992    2.69000006
   14.06527805  143.65800476    4.05999994    2.69000006
   14.06694412  141.17199707    4.09999990    2.69000006
   14.07027817  135.94200134    4.11999989    2.69000006
   14.07333374  134.25100708    4.09999990    2.67000008
   14.07666683  129.71800232    4.05999994    2.69000006
   14.08277798  129.71800232    3.99000001    2.71000004
   14.08666611  131.05400085    3.91000009    2.69000006
   14.09000015  134.50700378    3.89000010    2.69000006
   14.09333324  127.43000031    3.80999994    2.71000004
   14.09638882  133.01600647    3.75000000    2.69000006
   14.09888840  137.28599548    3.70000005    2.69000006
   14.10027790  128.49299622    3.66000009    2.69000006
   14.10333347  137.72500610    3.72000003    2.71000004
   14.10666752  130.35200500    3.57999992    2.69000006
   14.10972214  121.69899750    3.50000000    2.71000004
   14.11305618  127.63099670    3.48000002    2.71000004
   14.11638927  138.77600098    3.46000004    2.71000004
   14.11944485  168.42199707    3.45000005    2.69000006
   14.12555599  168.42199707    3.45000005    2.71000004
   14.12972260  155.28599548    3.43000007    2.71000004
   14.13222218  180.14199829    3.41000009    2.71000004
   14.13305569  172.18699646    3.43000007    2.69000006
   14.13638878  192.16299438    3.34999990    2.73000002
   14.13972187  165.64599609    3.32999992    2.69000006
   14.14277744  177.12699890    3.32999992    2.71000004
   14.14611053  125.03900146    3.30999994    2.71000004
   14.14944458  176.98800659    3.30999994    2.71000004
   14.15249920  183.97399902    3.30999994    2.73000002
   14.15583324  151.70700073    3.30999994    2.73000002
   14.15888882  140.91799927    3.34999990    2.73000002
   14.16222191  118.14900208    3.36999989    2.71000004
   14.16833401  118.14900208    3.39000010    2.71000004
   14.17250061  135.68699646    3.46000004    2.73000002
   14.17555618  127.04199982    3.46000004    2.71000004
   14.17888927  139.36300659    3.51999998    2.71000004
   14.18222237  143.54800415    3.48000002    2.71000004
   14.18555546  151.27699280    3.50000000    2.71000004
   14.18861103  156.36799622    3.55999994    2.73000002
   14.19194412  137.48500061    3.55999994    2.71000004
   14.19499969  136.88600159    3.55999994    2.73000002
   14.19833374  127.70899963    3.61999989    2.71000004
   14.19916630  145.77799988    3.61999989    2.71000004
   14.20194435  118.70700073    3.59999990    2.71000004
   14.20499992  164.11300659    3.66000009    2.73000002
   14.21111107  164.11300659    3.72000003    2.71000004
   14.21527767  144.96400452    3.73000002    2.73000002
   14.21861076  123.60500336    3.80999994    2.71000004
   14.22166634  135.19599915    3.73000002    2.71000004
   14.22499943  122.80200195    3.70000005    2.73000002
   14.22833252  147.91200256    3.70000005    2.71000004
   14.23138809  155.48300171    3.70000005    2.71000004
   14.23249912  129.82099915    3.70000005    2.71000004
   14.23500061  122.69499969    3.73000002    2.71000004
   14.23833370  151.11599731    3.73000002    2.71000004
   14.24138927  119.39900208    3.76999998    2.71000004
   14.24472237  128.61999512    3.76999998    2.71000004
   14.24777794  152.26400757    3.76999998    2.71000004
   14.25416660  152.26400757    3.82999992    2.71000004
   14.25805569  119.35299683    3.91000009    2.71000004
   14.26138878  129.64999390    3.91000009    2.71000004
   14.26472187  117.90599823    3.95000005    2.71000004
   14.26611137  135.80000305    3.99000001    2.71000004
   14.26833344  121.72000122    4.01999998    2.71000004
   14.27138901  133.55200195    3.99000001    2.71000004
   14.27472210  125.90100098    4.01999998    2.71000004
   14.27805519  127.13200378    4.01999998    2.69000006
   14.28111076  127.92199707    4.09999990    2.71000004
   14.28444481  117.49700165    4.15999985    2.71000004
   14.28750038  131.90800476    4.19999981    2.71000004
   14.29083347  127.35399628    4.13999987    2.71000004
   14.29694462  127.35399628    4.13999987    2.71000004
   14.30111122  125.64299774    4.15999985    2.71000004
   14.30416679  138.03700256    4.17999983    2.71000004
   14.30749989  119.64800262    4.19999981    2.71000004
   14.31083393  121.81600189    4.15999985    2.71000004
   14.31388950  124.00299835    4.17999983    2.71000004
   14.31722260  130.86700439    4.15999985    2.71000004
   14.32027817  119.43499756    4.19999981    2.71000004
   14.32361126  143.77400208    4.15999985    2.71000004
   14.32694435  126.80699921    4.21999979    2.71000004
   14.32999992  129.21000671    4.21999979    2.71000004
   14.33277798  141.43299866    4.23999977    2.69000006
   14.33388901  154.48699951    4.19999981    2.71000004
   14.33972168  154.48699951    4.05999994    2.71000004
   14.34388828  124.26999664    4.03999996    2.73000002
   14.34722233  156.67300415    3.99000001    2.71000004
   14.35027790  122.98000336    3.97000003    2.71000004
   14.35361195  145.75799561    3.93000007    2.73000002
   14.35694504  143.02299500    3.86999989    2.73000002
   14.36000061  174.91200256    3.80999994    2.75000000
   14.36333370  156.28199768    3.82999992    2.73000002
   14.36611176  163.86399841    3.80999994    2.73000002
   14.36694431  161.09800720    3.80999994    2.73000002
   14.36999989  175.05799866    3.80999994    2.73000002
   14.37333393  196.07699585    3.86999989    2.73000002
   14.37666702  173.03599548    3.91000009    2.73000002
   14.38249969  173.03599548    4.05999994    2.73000002
   14.38666630  156.20899963    4.15999985    2.73000002
   14.39000034  170.89500427    4.26999998    2.71000004
   14.39305496  161.11999512    4.23999977    2.73000002
   14.39638901  151.48100281    4.26000023    2.71000004
   14.39944458  172.90699768    4.34999990    2.73000002
   14.39999962  133.21899414    4.34999990    2.73000002
   14.40305519  148.33099365    4.40999985    2.71000004
   14.40638828  158.59300232    4.42999983    2.71000004
   14.40972137  179.05299377    4.42999983    2.71000004
   14.41277695  167.61599731    4.38999987    2.71000004
   14.41611099  178.87800598    4.34999990    2.73000002
   14.41944504  191.64399719    4.40999985    2.71000004
   14.42555618  191.64399719    4.40999985    2.73000002
   14.42944431  191.36900330    4.46999979    2.73000002
   14.43277836  198.67399597    4.48999977    2.71000004
   14.43333340  190.66799927    4.48999977    2.71000004
   14.43638897  204.91000366    4.48999977    2.71000004
   14.43972206  171.27999878    4.53999996    2.71000004
   14.44305515  180.88000488    4.53000021    2.71000004
   14.44611073  172.09800720    4.55999994    2.71000004
   14.44944477  151.81900024    4.57999992    2.73000002
   14.45277786  168.02699280    4.57999992    2.71000004
   14.45583344  185.41000366    4.59999990    2.71000004
   14.45916653  161.41900635    4.53999996    2.71000004
   14.46222210  167.30799866    4.53000021    2.71000004
   14.46833324  167.30799866    4.34999990    2.73000002
   14.47249985  185.64500427    4.28999996    2.73000002
   14.47555542  165.53300476    4.15999985    2.73000002
   14.47888851  173.90299988    4.09999990    2.73000002
   14.48222160  177.58999634    4.07999992    2.73000002
   14.48527813  186.81500244    4.05999994    2.75000000
   14.48861122  121.86900330    4.05999994    2.73000002
   14.49166679  132.42799377    3.99000001    2.73000002
   14.49499989  193.69599915    4.00000000    2.73000002
   14.51444435  156.45300293    3.99000001    2.73000002
   14.51861095  156.45300293    4.03999996    2.73000002
   14.52250004  150.66600037    4.01999998    2.73000002
   14.52583313  198.72900391    4.03999996    2.73000002
   14.52916622  163.61900330    4.13999987    2.75000000
   14.53222179  198.06500244    4.15999985    2.73000002
   14.53555584  211.88200378    4.15999985    2.75000000
   14.53888893  153.73800659    4.13999987    2.73000002
   14.54194450  206.83700562    4.17999983    2.73000002
   14.54527855  238.43899536    4.23999977    2.73000002
   14.54750061  226.99800110    4.26999998    2.75000000
   14.54888916  205.18299866    4.30999994    2.73000002
   14.55194473  202.31700134    4.40999985    2.75000000
   14.55527782  225.27200317    4.38999987    2.73000002
   14.56138897  225.27200317    4.36999989    2.75000000
   14.56555557  154.69700623    4.36999989    2.73000002
   14.56861115  177.26600647    4.34999990    2.75000000
   14.57194424  132.25599670    4.30999994    2.73000002
   14.57499981  178.91000366    4.42999983    2.75000000
   14.57833290  131.24200439    4.34999990    2.73000002
   14.58083344  182.69599915    4.28999996    2.75000000
   14.58194447  164.40800476    4.28999996    2.73000002
   14.58500004  158.45899963    4.34999990    2.73000002
   14.58833313  157.13200378    4.36999989    2.75000000
   14.59166622  174.64999390    4.26999998    2.75000000
   14.59472179  163.37300110    4.26999998    2.73000002
   14.59805489  147.67999268    4.23999977    2.75000000
   14.60416698  147.67999268    4.11999989    2.75000000
   14.60833359  133.16200256    4.11999989    2.75000000
   14.61138916  144.20100403    4.01999998    2.75000000
   14.61416721  145.85299683    4.03999996    2.75000000
   14.61527824  154.95700073    4.07999992    2.75000000
   14.61861134  150.89100647    4.15999985    2.75000000
   14.62166691  168.97099304    4.15999985    2.75000000
   14.62500000  129.27999878    4.26000023    2.73000002
   14.62833309  138.14900208    4.21999979    2.73000002
   14.63138866  145.85800171    4.26999998    2.75000000
   14.63472176  131.54200745    4.30999994    2.75000000
   14.63777733  140.60400391    4.34999990    2.73000002
   14.64111137  152.93499756    4.42999983    2.75000000
   14.64694405  152.93499756    4.44999981    2.75000000
   14.65111065  149.02099609    4.48999977    2.73000002
   14.65444374  124.80100250    4.53999996    2.75000000
   14.65749931  153.01600647    4.51000023    2.73000002
   14.66083336  136.16900635    4.55999994    2.75000000
   14.66416645  167.47700500    4.57999992    2.73000002
   14.66722298  153.74099731    4.59999990    2.73000002
   14.67055607  162.13699341    4.57999992    2.73000002
   14.67361164  138.34300232    4.48999977    2.75000000
   14.67694473  174.73899841    4.51000023    2.75000000
   14.68027782  168.47599792    4.53000021    2.75000000
   14.68194485  170.08000183    4.53999996    2.73000002
   14.68388939  164.18699646    4.53000021    2.73000002
   14.68972206  164.18699646    4.53999996    2.73000002
   14.69388866  179.03500366    4.55999994    2.75000000
   14.69722271  194.98399353    4.53999996    2.75000000
   14.70055580  188.49600220    4.57999992    2.75000000
   14.70361137  155.06199646    4.53000021    2.75000000
   14.70694447  164.00000000    4.51000023    2.73000002
   14.71000004  182.03100586    4.53999996    2.76999998
   14.71333313  149.00100708    4.57999992    2.73000002
   14.71527767  196.30700684    4.55999994    2.73000002
   14.71694374  158.38400269    4.61999989    2.75000000
   14.72027779  167.32000732    4.67999983    2.75000000
   14.72333336  179.49899292    4.69999981    2.73000002
   14.72666645  121.78700256    4.67999983    2.75000000
   14.73277760  121.78700256    4.80999994    2.73000002
   14.73694515  176.14399719    4.86999989    2.75000000
   14.74000072  162.80900574    4.88999987    2.73000002
   14.74333382  156.04299927    4.84999990    2.73000002
   14.74638939  161.95399475    4.86999989    2.73000002
   14.74888897  132.51400757    4.86999989    2.75000000
   14.75027752  152.97900391    4.86999989    2.73000002
   14.75333309  157.31399536    4.82999992    2.73000002
   14.75666714  191.93699646    4.80999994    2.75000000
   14.76000023  186.66499329    4.69999981    2.73000002
   14.76305580  146.85400391    4.67999983    2.75000000
   14.76638889  154.76600647    4.71999979    2.75000000
   14.76944447  145.50799561    4.63999987    2.73000002
   14.77555561  145.50799561    4.40999985    2.76999998
   14.77972221  221.75900269    4.53999996    2.75000000
   14.78222179  169.86500549    4.48999977    2.75000000
   14.78333378  169.16799927    4.42999983    2.76999998
   14.78638935  160.10600281    4.46999979    2.75000000
   14.78972244  160.63499451    4.40999985    2.75000000
   14.79305553  174.24499512    4.36999989    2.75000000
   14.79611111  163.21600342    4.34999990    2.76999998
   14.79944515  166.04800415    4.48999977    2.75000000
   14.80249977  162.68800354    4.55999994    2.75000000
   14.80583382  169.04899597    4.57999992    2.75000000
   14.80916691  151.97999573    4.53999996    2.75000000
   14.81222248  172.91000366    4.53000021    2.76999998
   14.81833363  172.91000366    4.59999990    2.75000000
   14.82250023  148.59899902    4.71999979    2.75000000
   14.82583332  148.37100220    4.61999989    2.76999998
   14.82888889  132.28999329    4.61999989    2.76999998
   14.83222198  134.79499817    4.59999990    2.76999998
   14.83527756  140.63400269    4.53999996    2.76999998
   14.83861065  159.77299500    4.65999985    2.75000000
   14.84194374  157.45399475    4.61999989    2.75000000
   14.84499931  144.58500671    4.53000021    2.76999998
   14.84833336  181.95799255    4.51000023    2.75000000
   14.84916592  167.05799866    4.63999987    2.76999998
   14.85194492  130.95899963    4.59999990    2.75000000
   14.85527802  158.55400085    4.51000023    2.76999998
   14.86111164  158.55400085    4.42999983    2.76999998
   14.86527824  121.38700104    4.46999979    2.75000000
   14.86861134  121.09300232    4.40999985    2.76999998
   14.87194443  130.56700134    4.46999979    2.76999998
   14.87500000  135.21600342    4.48999977    2.76999998
   14.87833309  146.38000488    4.53000021    2.78999996
   14.88138866  141.18400574    4.55999994    2.76999998
   14.88249969  148.59599304    4.57999992    2.76999998
   14.88500023  134.05799866    4.61999989    2.76999998
   14.88833332  144.79299927    4.63999987    2.75000000
   14.89138889  132.73699951    4.73999977    2.76999998
   14.89472198  143.50199890    4.73999977    2.75000000
   14.89805508  144.56100464    4.86999989    2.76999998
   14.99944496   -1.00000000   -1.00000000   -1.00000000
   15.12111092   -1.00000000   -1.00000000   -1.00000000
   15.28416729   -1.00000000   -1.00000000   -1.00000000
   15.39444447   -1.00000000   -1.00000000   -1.00000000
   15.48416710   83.16519928    4.90999985    2.78999996
   15.48750019  124.88600159    4.90999985    2.78999996
   15.49055576  132.27200317    4.90999985    2.78999996
   15.49388885  130.43200684    4.90999985    2.78999996
   15.49694443  154.75500488    4.90999985    2.76999998
   15.50027752  147.99299622    4.90999985    2.78999996
   15.50444412  147.99299622    4.90999985    2.78999996
   15.50861073  146.64799500    4.90999985    2.78999996
   15.51166630  131.80000305    4.90999985    2.78999996
   15.51500034  146.92999268    4.90999985    2.78999996
   15.51749992  159.64199829    4.90999985    2.78999996
   15.51861095  149.30099487    4.90999985    2.76999998
   15.52194405  157.53500366    4.90999985    2.78999996
   15.52527714  132.41600037    4.90999985    2.78999996
   15.52833271  134.11900330    4.90999985    2.78999996
   15.53166676  116.45099640    4.90999985    2.78999996
   15.53500080  132.77900696    4.90999985    2.78999996
   15.53805637  151.57000732    4.90999985    2.78999996
   15.54138947  179.33299255    4.90999985    2.78999996
   15.54722309  179.33299255    4.90999985    2.78999996
   15.55138874  187.40100098    4.90999985    2.78999996
   15.55472279  134.24800110    4.90999985    2.78999996
   15.55777836  174.81799316    4.90999985    2.78999996
   15.56111145  177.34300232    4.90999985    2.78999996
   15.56444454  196.65899658    4.90999985    2.76999998
   15.56750011  167.46600342    4.90999985    2.78999996
   15.57083321  137.50900269    4.90999985    2.78999996
   15.57388878  132.98399353    4.90999985    2.78999996
   15.57722187  138.15400696    4.90999985    2.78999996
   15.58055592  143.85299683    4.90999985    2.78999996
   15.58361053  148.17399597    4.90999985    2.78999996
   15.58416653  121.84799957    4.90999985    2.78999996
   15.59000015  121.84799957    4.90999985    2.76999998
   15.59416676  130.80499268    4.90999985    2.78999996
   15.59749985  130.71299744    4.90999985    2.78999996
   15.60083389  135.44900513    4.90999985    2.78999996
   15.60388947  137.84899902    4.90999985    2.78999996
   15.60722256  119.15599823    4.90999985    2.76999998
   15.61027813  126.24299622    4.90999985    2.78999996
   15.61361122  118.04000092    4.90999985    2.78999996
   15.61694431  119.01799774    4.90999985    2.78999996
   15.61750031  128.31100464    4.90999985    2.78999996
   15.62055588  131.51300049    4.90999985    2.78999996
   15.62388897  118.75000000    4.90999985    2.78999996
   15.62694454  142.96299744    4.90999985    2.80999994
   15.63305569  142.96299744    4.90999985    2.78999996
   15.63722229  126.65200043    4.90999985    2.78999996
   15.64027786  123.40599823    4.90999985    2.80999994
   15.64361095  116.45099640    4.90999985    2.78999996
   15.64666653  129.50900269    4.90999985    2.78999996
   15.64999962  136.62699890    4.90999985    2.78999996
   15.65083313  143.90199280    4.90999985    2.78999996
   15.65361118  133.80400085    4.90999985    2.80999994
   15.65694427  149.02099609    4.90999985    2.78999996
   15.65999985  131.38699341    4.90999985    2.78999996
   15.66333294  134.43499756    4.90999985    2.78999996
   15.66638851  142.35600281    4.90999985    2.78999996
   15.66972256  143.59399414    4.90999985    2.76999998
   15.67583370  143.59399414    4.90999985    2.76999998
   15.68000031  150.85600281    4.90999985    2.78999996
   15.68305588  176.70199585    4.90999985    2.78999996
   15.68416691  188.81100464    4.90999985    2.78999996
   15.68694496  182.89399719    4.90999985    2.78999996
   15.69027805  198.05200195    4.90999985    2.76999998
   15.69333363  161.11000061    4.90999985    2.78999996
   15.69666672  137.66499329    4.90999985    2.78999996
   15.69972229  163.15600586    4.90999985    2.78999996
   15.70305538  130.48100281    4.90999985    2.76999998
   15.70638847  135.29400635    4.90999985    2.76999998
   15.70944405  153.75599670    4.90999985    2.78999996
   15.71277714  150.53900146    4.90999985    2.78999996
   15.71861076  150.53900146    4.90999985    2.78999996
   15.72277737  124.68800354    4.90999985    2.78999996
   15.72611046  123.52400208    4.90999985    2.78999996
   15.72916603  158.23100281    4.90999985    2.78999996
   15.73249912  148.99400330    4.90999985    2.78999996
   15.73583317  156.91000366    4.90999985    2.78999996
   15.73888874  129.62500000    4.90999985    2.78999996
   15.74222279  118.67199707    4.90999985    2.78999996
   15.74555588  151.15600586    4.90999985    2.78999996
   15.74861145  124.49199677    4.90999985    2.78999996
   15.75083351  131.96400452    4.90999985    2.78999996
   15.75222206  150.41600037    4.90999985    2.80999994
   15.75555515  117.00900269    4.90999985    2.78999996
   15.76138878  117.00900269    4.90999985    2.78999996
   15.76555538  110.38800049    4.90999985    2.78999996
   15.76888847  145.80999756    4.90999985    2.80999994
   15.77222157  117.23899841    4.90999985    2.78999996
   15.77527714  117.86100006    4.90999985    2.80999994
   15.77861118  125.69000244    4.90999985    2.78999996
   15.78166676  130.73399353    4.90999985    2.78999996
   15.78416729  123.77400208    4.90999985    2.78999996
   15.78555584  118.20800018    4.90999985    2.78999996
   15.78888893  130.70899963    4.90999985    2.78999996
   15.79194450  136.36000061    4.90999985    2.78999996
   15.79527855  131.14100647    4.90999985    2.78999996
   15.79833412  113.77100372    4.90999985    2.78999996
   15.80444431  113.77100372    4.90999985    2.78999996
   15.80861092  122.45800018    4.90999985    2.78999996
   15.81166649  130.05000305    4.90999985    2.78999996
   15.81500053  121.86299896    4.90999985    2.78999996
   15.81750011  119.90399933    4.90999985    2.78999996
   15.81861115  117.88800049    4.90999985    2.78999996
   15.82194424  138.26300049    4.90999985    2.78999996
   15.82499981  144.74400330    4.90999985    2.78999996
   15.82833290  128.29899597    4.90999985    2.78999996
   15.83138847  136.33999634    4.90999985    2.78999996
   15.83472157  125.33699799    4.90999985    2.78999996
   15.83805561  125.35199738    4.90999985    2.78999996
   15.84111118  147.32800293    4.90999985    2.78999996
   15.84722233  147.32800293    4.90999985    2.78999996
   15.85138893  127.66899872    4.90999985    2.78999996
   15.85444450  124.95999908    4.90999985    2.78999996
   15.85777855  123.62899780    4.90999985    2.78999996
   15.86111164  124.91600037    4.90999985    2.80999994
   15.86416721  148.90699768    4.90999985    2.78999996
   15.86750031  145.42599487    4.90999985    2.78999996
   15.87083340  143.85299683    4.90999985    2.78999996
   15.87388897  155.12100220    4.90999985    2.76999998
   15.87722206  169.85099792    4.90999985    2.78999996
   15.88027763  139.51300049    4.90999985    2.78999996
   15.88361073  128.10200500    4.90999985    2.80999994
   15.88416672  136.98199463    4.90999985    2.80999994
   15.89000034  136.98199463    4.90999985    2.78999996
   15.89416695  161.17500305    4.90999985    2.78999996
   15.89750004  157.68400574    4.90999985    2.78999996
   15.90055561  146.20100403    4.90999985    2.78999996
   15.90388870  136.84700012    4.90999985    2.78999996
   15.90722179  137.86399841    4.90999985    2.78999996
   15.91027737  152.83700562    4.90999985    2.78999996
   15.91361046  153.36500549    4.90999985    2.80999994
   15.91694450  145.30299377    4.90999985    2.78999996
   15.91750050  145.23800659    4.90999985    2.80999994
   15.92055607  164.35299683    4.90999985    2.80999994
   15.92388916  154.59599304    4.90999985    2.78999996
   15.92694473  170.70300293    4.90999985    2.78999996
   15.93277836  170.70300293    4.90999985    2.82999992
   15.93694496  163.85899353    4.90999985    2.80999994
   15.94027805  165.01800537    4.90999985    2.78999996
   15.94361115  158.10099792    4.90999985    2.78999996
   15.94666672  160.59500122    4.90999985    2.80999994
   15.94999981  145.00399780    4.90999985    2.78999996
   15.95083332  132.60899353    4.90999985    2.78999996
   15.95361137  143.25700378    4.90999985    2.78999996
   15.95694447  147.12500000    4.90999985    2.78999996
   15.96000004  147.21899414    4.90999985    2.80999994
   15.96333313  147.58799744    4.90999985    2.80999994
   15.96666622  145.92700195    4.90999985    2.78999996
   15.96972179  154.30700684    4.90999985    2.78999996
   15.97583294  154.30700684    4.90999985    2.80999994
   15.97972202  120.57499695    4.90999985    2.78999996
   15.98305511  134.21800232    4.90999985    2.78999996
   15.98416710  159.20700073    4.90999985    2.80999994
   15.98666668  148.13999939    4.90999985    2.78999996
   15.99000072  165.08999634    4.90999985    2.78999996
   15.99333382  163.15499878    4.90999985    2.78999996
   15.99638939  149.29299927    4.90999985    2.78999996
   15.99972248  166.69099426    4.90999985    2.78999996
   16.00277710  167.11900330    4.90999985    2.78999996
   16.00611115  193.06300354    4.90999985    2.78999996
   16.00944519  190.53900146    4.90999985    2.80999994
   16.01250076  214.20100403    4.90999985    2.78999996
   16.01861000  214.20100403    4.90999985    2.78999996
   16.02277756  188.06199646    4.90999985    2.78999996
   16.02583313  167.68600464    4.90999985    2.80999994
   16.02916718  152.28500366    4.90999985    2.78999996
   16.03249931  183.88900757    4.90999985    2.78999996
   16.03555489  149.69900513    4.90999985    2.78999996
   16.03888893  171.36300659    4.90999985    2.80999994
   16.04222107  191.03799438    4.90999985    2.78999996
   16.04527664  201.52900696    4.90999985    2.78999996
   16.04861069  166.72399902    4.90999985    2.78999996
   16.05083275  175.35400391    4.90999985    2.78999996
   16.05222130  177.93200684    4.90999985    2.76999998
   16.05555534  178.67599487    4.90999985    2.80999994
   16.06138802  178.67599487    4.90999985    2.78999996
   16.06555557  181.44799805    4.90999985    2.78999996
   16.06888962  184.11300659    4.90999985    2.78999996
   16.07194519  182.91099548    4.90999985    2.78999996
   16.07527924  214.30900574    4.90999985    2.78999996
   16.07833481  179.30900574    4.90999985    2.76999998
   16.08166695  205.25900269    4.90999985    2.78999996
   16.08416748  205.85099792    4.90999985    2.78999996
   16.08527756  233.11900330    4.90999985    2.78999996
   16.08861160  256.83999634    4.90999985    2.78999996
   16.09166718  168.26300049    4.90999985    2.80999994
   16.09500122  177.12399292    4.90999985    2.78999996
   16.09833336  209.97599792    4.90999985    2.80999994
   16.10416794  209.97599792    4.90999985    2.78999996
   16.10833359  260.25100708    4.90999985    2.80999994
   16.11166763  260.95001221    4.90999985    2.78999996
   16.11472321  221.00199890    4.90999985    2.78999996
   16.11750031  232.44900513    4.90999985    2.80999994
   16.11833382  217.47999573    4.90999985    2.78999996
   16.12166595  196.42300415    4.90999985    2.78999996
   16.12472153  213.14999390    4.90999985    2.78999996
   16.12805557  214.86700439    4.90999985    2.78999996
   16.13138962  237.13499451    4.90999985    2.80999994
   16.13444519  184.11399841    4.90999985    2.78999996
   16.13777733  213.93899536    4.90999985    2.78999996
   16.14083290  236.37399292    4.90999985    2.78999996
   16.14722252  236.37399292    4.90999985    2.78999996
   16.15111160  204.32299805    4.90999985    2.78999996
   16.15444374  186.34500122    4.90999985    2.78999996
   16.15777779  185.62199402    4.90999985    2.78999996
   16.16083336  200.79899597    4.90999985    2.78999996
   16.16416550  193.62100220    4.90999985    2.78999996
   16.16722107  188.42399597    4.90999985    2.78999996
   16.17055511  235.55799866    4.90999985    2.78999996
   16.17388916  181.49299622    4.90999985    2.78999996
   16.17694473  190.29499817    4.90999985    2.80999994
   16.18027687  218.91700745    4.90999985    2.78999996
   16.18361092  197.33500671    4.90999985    2.78999996
   16.18416595  222.33900452    4.90999985    2.80999994
   16.18999863  222.33900452    4.90999985    2.78999996
   16.19416618  236.97399902    4.90999985    2.78999996
   16.19722176  218.83500671    4.90999985    2.78999996
   16.20055580  219.03300476    4.90999985    2.78999996
   16.20361137  221.31599426    4.90999985    2.80999994
   16.20694542  176.12100220    4.90999985    2.78999996
   16.21027946  204.20399475    4.90999985    2.80999994
   16.21333504  221.69900513    4.90999985    2.78999996
   16.21666718  228.94200134    4.90999985    2.80999994
   16.21750069  202.48699951    4.90999985    2.76999998
   16.22027779  218.18499756    4.90999985    2.78999996
   16.22361183  186.78300476    4.90999985    2.78999996
   16.22666740  173.74899292    4.90999985    2.80999994
   16.23277855  173.74899292    4.90999985    2.78999996
   16.23694420  182.07899475    4.90999985    2.78999996
   16.24027824  207.05799866    4.90999985    2.78999996
   16.24333382  212.62100220    4.90999985    2.80999994
   16.24666786  187.11999512    4.90999985    2.80999994
   16.24972153  225.23699951    4.90999985    2.78999996
   16.25083351  199.24699402    4.90999985    2.80999994
   16.25333405  249.82299805    4.90999985    2.80999994
   16.25666618  241.18400574    4.90999985    2.78999996
   16.25972176  221.83799744    4.90999985    2.80999994
   16.26305580  210.75399780    4.90999985    2.78999996
   16.26638794  213.09199524    4.90999985    2.80999994
   16.26944351  201.15299988    4.90999985    2.80999994
   16.27555466  201.15299988    4.90999985    2.80999994
   16.27972221  193.00900269    4.90999985    2.80999994
   16.28305435  217.78399658    4.90999985    2.80999994
   16.28416634  199.20599365    4.90999985    2.78999996
   16.28666687  184.88299561    4.90999985    2.78999996
   16.28999901  173.56900024    4.90999985    2.78999996
   16.29305458  193.09199524    4.90999985    2.78999996
   16.29638863  186.90400696    4.90999985    2.80999994
   16.29972076  191.46299744    4.90999985    2.80999994
   16.30277634  183.41700745    4.90999985    2.80999994
   16.30611038  182.72200012    4.90999985    2.80999994
   16.30916595  177.10299683    4.90999985    2.80999994
   16.31250000  203.82200623    4.90999985    2.80999994
   16.31861115  203.82200623    4.90999985    2.80999994
   16.32250023  220.85800171    4.90999985    2.80999994
   16.32583427  185.80700684    4.90999985    2.80999994
   16.32916832  220.02600098    4.90999985    2.80999994
   16.33222389  232.64100647    4.90999985    2.78999996
   16.33555603  245.38400269    4.90999985    2.80999994
   16.33861160  187.02000427    4.90999985    2.80999994
   16.34194565  210.53199768    4.90999985    2.78999996
   16.34527779  201.39599609    4.90999985    2.80999994
   16.34833336  202.23100281    4.90999985    2.80999994
   16.35111237  197.17799377    4.90999985    2.78999996
   16.35194397  197.19000244    4.90999985    2.80999994
   16.35527802  167.66999817    4.90999985    2.78999996
   16.36138916  167.66999817    4.90999985    2.80999994
   16.36555672  215.50500488    4.90999985    2.78999996
   16.36861038  203.24800110    4.90999985    2.78999996
   16.37194443  202.26800537    4.90999985    2.80999994
   16.37500000  202.87199402    4.90999985    2.78999996
   16.37833405  202.88600159    4.90999985    2.80999994
   16.38166618  224.00500488    4.90999985    2.78999996
   16.38444519  216.00500488    4.90999985    2.80999994
   16.38527679  200.24899292    4.90999985    2.78999996
   16.38861084  247.81100464    4.90999985    2.80999994
   16.39166641  251.22200012    4.90999985    2.80999994
   16.39500046  208.32299805    4.90999985    2.78999996
   16.39833260  234.91000366    4.90999985    2.80999994
   16.40416718  234.91000366    4.90999985    2.80999994
   16.40833282  215.82699585    4.90999985    2.80999994
   16.41138840  229.26199341    4.90999985    2.78999996
   16.41472244  191.64100647    4.90999985    2.78999996
   16.41777802  228.82899475    4.90999985    2.78999996
   16.41833305  196.63299561    4.90999985    2.80999994
   16.42166519  189.00399780    4.90999985    2.80999994
   16.42472076  222.67399597    4.90999985    2.80999994
   16.42805481  236.78799438    4.90999985    2.78999996
   16.43138885  206.21600342    4.90999985    2.80999994
   16.43444443  234.46800232    4.90999985    2.80999994
   16.43777657  227.66000366    4.90999985    2.80999994
   16.44111061  225.47300720    4.90999985    2.80999994
   16.44694328  225.47300720    4.90999985    2.80999994
   16.45111275  240.16499329    4.90999985    2.80999994
   16.45444489  236.59700012    4.90999985    2.82999992
   16.45750046  224.80599976    4.90999985    2.80999994
   16.46083450  240.42399597    4.90999985    2.80999994
   16.46416664  234.59800720    4.90999985    2.80999994
   16.46722221  261.28100586    4.90999985    2.80999994
   16.47055626  256.18099976    4.90999985    2.80999994
   16.47361183  329.79199219    4.90999985    2.80999994
   16.47694588  254.65699768    4.90999985    2.82999992
   16.48027802  236.60000610    4.90999985    2.80999994
   16.48333359  264.06298828    4.90999985    2.80999994
   16.48444557  256.22399902    4.90999985    2.80999994
   16.50499916  256.22399902    4.90999985    2.80999994
   16.50916672  276.53799438    4.90999985    2.80999994
   16.51250076  233.85800171    4.90999985    2.80999994
   16.51555634  256.39898682    4.90999985    2.80999994
   16.51777840  254.57600403    4.90999985    2.80999994
   16.51916695  273.83300781    4.90999985    2.80999994
   16.52249908  254.47700500    4.90999985    2.78999996
   16.52583313  323.51300049    4.90999985    2.80999994
   16.52888870  238.68800354    4.90999985    2.80999994
   16.53222275  290.56500244    4.90999985    2.80999994
   16.53527641  257.17999268    4.90999985    2.80999994
   16.53861046  295.86099243    4.90999985    2.80999994
   16.54194450  246.64300537    4.90999985    2.80999994
   16.54777718  246.64300537    4.90999985    2.80999994
   16.55194283  262.55801392    4.90999985    2.80999994
   16.55499840  263.77801514    4.90999985    2.80999994
   16.55833244  241.55099487    4.90999985    2.80999994
   16.56166649  265.49499512    4.90999985    2.80999994
   16.56472206  246.94999695    4.90999985    2.80999994
   16.56805611  271.48699951    4.90999985    2.82999992
   16.57139015  293.02200317    4.90999985    2.78999996
   16.57444572  267.44500732    4.90999985    2.80999994
   16.57777786  237.42799377    4.90999985    2.80999994
   16.58083344  277.11898804    4.90999985    2.80999994
   16.58416748  238.67300415    4.90999985    2.80999994
   16.58472252  250.48599243    4.90999985    2.80999994
   16.59055710  250.48599243    4.90999985    2.78999996
   16.59472275  234.45500183    4.90999985    2.80999994
   16.59805679  248.15400696    4.90999985    2.80999994
   16.60111237  241.88800049    4.90999985    2.78999996
   16.60444450  237.63499451    4.90999985    2.78999996
   16.60777855  270.90399170    4.90999985    2.78999996
   16.61083412  236.13200378    4.90999985    2.78999996
   16.61416626  234.58799744    4.90999985    2.80999994
   16.61722183  216.78799438    4.90999985    2.78999996
   16.61805534  240.23199463    4.90999985    2.80999994
   16.62111092  162.55000305    4.90999985    2.78999996
   16.62416649  259.68701172    4.90999985    2.80999994
   16.62750053  256.76400757    4.90999985    2.78999996
   16.63361168  256.76400757    4.90999985    2.80999994
   16.63750076  278.72100830    4.90999985    2.80999994
   16.64083290  246.92199707    4.90999985    2.78999996
   16.64416695  260.00201416    4.90999985    2.80999994
   16.64722252  262.86700439    4.90999985    2.80999994
   16.65055466  243.80999756    4.90999985    2.78999996
   16.65138817  256.71600342    4.90999985    2.78999996
   16.65416718  239.82800293    4.90999985    2.80999994
   16.65722275  224.18299866    4.90999985    2.80999994
   16.66055489  235.20399475    4.90999985    2.80999994
   16.66388893  264.72601318    4.90999985    2.80999994
   16.66694450  246.38400269    4.90999985    2.80999994
   16.67027664  243.42599487    4.90999985    2.80999994
   16.67638779  243.42599487    4.90999985    2.80999994
   16.68055534  269.98599243    4.90999985    2.80999994
   16.68361092  241.00999451    4.90999985    2.80999994
   16.68472099  285.51699829    4.90999985    2.80999994
   16.68750000  266.75799561    4.90999985    2.80999994
   16.69055557  242.57299805    4.90999985    2.80999994
   16.69388771  222.80599976    4.90999985    2.80999994
   16.69722176  233.10299683    4.90999985    2.80999994
   16.70027924  236.53300476    4.90999985    2.78999996
   16.70361137  241.05999756    4.90999985    2.80999994
   16.70666695  237.71000671    4.90999985    2.80999994
   16.71000099  239.03500366    4.90999985    2.80999994
   16.71333504  228.27600098    4.90999985    2.80999994
   16.71916771  228.27600098    4.90999985    2.80999994
   16.72333336  197.18800354    4.90999985    2.80999994
   16.72638893  218.21099854    4.90999985    2.80999994
   16.72972298  225.72099304    4.90999985    2.80999994
   16.73305511  216.03199768    4.90999985    2.80999994
   16.73611069  238.17799377    4.90999985    2.80999994
   16.73944473  224.33000183    4.90999985    2.80999994
   16.74277878  234.44999695    4.90999985    2.78999996
   16.74583435  226.98699951    4.90999985    2.78999996
   16.74916649  217.05499268    4.90999985    2.80999994
   16.75138855  243.96299744    4.90999985    2.80999994
   16.75277710  226.16700745    4.90999985    2.80999994
   16.75583267  208.47999573    4.90999985    2.80999994
   16.76194382  208.47999573    4.90999985    2.80999994
   16.76611137  223.54100037    4.90999985    2.80999994
   16.76944351  215.50700378    4.90999985    2.80999994
   16.77249908  193.99499512    4.90999985    2.80999994
   16.77583313  212.98199463    4.90999985    2.80999994
   16.77916718  171.90899658    4.90999985    2.80999994
   16.78222275  242.89599609    4.90999985    2.80999994
   16.78472137  202.95799255    4.90999985    2.80999994
   16.78610992  207.10400391    4.90999985    2.80999994
   16.78916550  200.74200439    4.90999985    2.80999994
   16.79249954  205.93800354    4.90999985    2.80999994
   16.79583359  207.83999634    4.90999985    2.80999994
   16.79888916  193.92199707    4.90999985    2.80999994
   16.80472183  193.92199707    4.90999985    2.80999994
   16.80888748  213.50900269    4.90999985    2.80999994
   16.81222153  184.54200745    4.90999985    2.80999994
   16.81555557  178.32699585    4.90999985    2.80999994
   16.81805611  208.00799561    4.90999985    2.80999994
   16.81916809  203.61500549    4.90999985    2.80999994
   16.82222366  197.71200562    4.90999985    2.80999994
   16.82555580  178.66400146    4.90999985    2.80999994
   16.82888985  214.30599976    4.90999985    2.80999994
   16.83194542  201.57699585    4.90999985    2.80999994
   16.83527756  174.46200562    4.90999985    2.80999994
   16.83861160  183.72399902    4.90999985    2.80999994
   16.84166718  213.44700623    4.90999985    2.80999994
   16.84777832  213.44700623    4.90999985    2.80999994
   16.85194397  220.42999268    4.90999985    2.80999994
   16.85499954  172.60600281    4.90999985    2.80999994
   16.85833359  178.89399719    4.90999985    2.78999996
   16.86138916  176.99600220    4.90999985    2.78999996
   16.86472321  222.91799927    4.90999985    2.80999994
   16.86805534  200.51899719    4.90999985    2.80999994
   16.87111092  213.85400391    4.90999985    2.80999994
   16.87444496  233.39599609    4.90999985    2.80999994
   16.87777710  235.19500732    4.90999985    2.80999994
   16.88083267  224.17999268    4.90999985    2.80999994
   16.88416672  243.83200073    4.90999985    2.80999994
   16.88472176  230.71000671    4.90999985    2.80999994
   16.89055634  230.71000671    4.90999985    2.78999996
   16.89472198  281.35800171    4.90999985    2.78999996
   16.89777756  234.84500122    4.90999985    2.80999994
   16.90111160  240.03999329    4.90999985    2.80999994
   16.90444374  210.07899475    4.90999985    2.78999996
   16.90749931  226.93099976    4.90999985    2.78999996
   16.91083336  167.50000000    4.90999985    2.80999994
   16.91416550  221.31900024    4.90999985    2.80999994
   16.91722107  231.03500366    4.90999985    2.78999996
   16.91805458  179.32899475    4.90999985    2.78999996
   16.92083359  194.33700562    4.90999985    2.80999994
   16.92416573  228.20100403    4.90999985    2.78999996
   16.92722130  204.14399719    4.90999985    2.80999994
   16.93333244  204.14399719    4.90999985    2.80999994
   16.93750000  192.72599792    4.90999985    2.80999994
   16.94083214  161.93299866    4.90999985    2.78999996
   16.94388771  180.60899353    4.90999985    2.78999996
   16.94722176  153.33000183    4.90999985    2.78999996
   16.95055580  191.99800110    4.90999985    2.78999996
   16.95138931  193.30599976    4.90999985    2.80999994
   16.95416832  187.85600281    4.90999985    2.80999994
   16.95722389  156.75100708    4.90999985    2.80999994
   16.96055603  174.91299438    4.90999985    2.80999994
   16.96389008  193.24200439    4.90999985    2.78999996
   16.96694565  176.67599487    4.90999985    2.78999996
   16.97027779  183.50599670    4.90999985    2.78999996
   16.97611237  183.50599670    4.90999985    2.78999996
   16.98027802  176.02799988    4.90999985    2.78999996
   16.98361206  162.43800354    4.90999985    2.78999996
   16.98472214  190.04800415    4.90999985    2.80999994
   16.98722267  177.42700195    4.90999985    2.78999996
   16.99027824  173.28799438    4.90999985    2.78999996
   16.99361229  160.94299316    4.90999985    2.78999996
   16.99694443  164.88000488    4.90999985    2.78999996
   17.00000000  151.83099365    4.90999985    2.78999996
   17.00333405  156.76300049    4.90999985    2.78999996
   17.00666618  146.98300171    4.90999985    2.78999996
   17.00972176  147.42199707    4.90999985    2.78999996
   17.01305580  125.67900085    4.90999985    2.78999996
   17.01916695  125.67900085    4.90999985    2.78999996
   17.02333260  145.81399536    4.90999985    2.78999996
   17.02638817  160.27900696    4.90999985    2.78999996
   17.02972221  124.16999817    4.90999985    2.80999994
   17.03277779  147.94999695    4.90999985    2.78999996
   17.03610992  129.76400757    4.90999985    2.78999996
   17.03944397  128.70500183    4.90999985    2.78999996
   17.04249954  153.58500671    4.90999985    2.78999996
   17.04583359  135.76600647    4.90999985    2.80999994
   17.04916573  156.07699585    4.90999985    2.78999996
   17.05138779  144.41900635    4.90999985    2.78999996
   17.05277634  140.08399963    4.90999985    2.78999996
   17.05583191  140.79600525    4.90999985    2.78999996
   17.06194305  140.79600525    4.90999985    2.80999994
   17.06611061  130.30000305    4.90999985    2.80999994
   17.06916809  138.23300171    4.90999985    2.80999994
   17.07250023  135.45300293    4.90999985    2.80999994
   17.07583427  128.91999817    4.90999985    2.80999994
   17.07888985  130.92300415    4.90999985    2.78999996
   17.08222389  139.73800659    4.90999985    2.80999994
   17.08472252  132.38299561    4.90999985    2.78999996
   17.08583450  124.50399780    4.90999985    2.78999996
   17.08889008  130.08299255    4.90999985    2.80999994
   17.09222221  130.36300659    4.90999985    2.80999994
   17.09555626  128.07299805    4.90999985    2.78999996
   17.09861183  127.61699677    4.90999985    2.80999994
   17.10472298  127.61699677    4.90999985    2.78999996
   17.10888863  117.87300110    4.90999985    2.78999996
   17.11222267  139.05900574    4.90999985    2.78999996
   17.11527824  120.07399750    4.90999985    2.78999996
   17.11805534  154.27600098    4.90999985    2.78999996
   17.11888885  135.27999878    4.90999985    2.78999996
   17.12194443  129.01300049    4.90999985    2.78999996
   17.12527847  127.66799927    4.90999985    2.78999996
   17.12861061  132.99600220    4.90999985    2.80999994
   17.13166618  141.10499573    4.90999985    2.78999996
   17.13500023  134.36500549    4.90999985    2.78999996
   17.13833237  145.58999634    4.90999985    2.78999996
   17.14138794  131.31100464    4.90999985    2.78999996
   17.14749908  131.31100464    4.90999985    2.80999994
   17.15166664  135.66999817    4.90999985    2.78999996
   17.15499878  129.43499756    4.90999985    2.78999996
   17.15833282  142.57000732    4.90999985    2.78999996
   17.16138840  134.77400208    4.90999985    2.78999996
   17.16472244  142.51499939    4.90999985    2.78999996
   17.16777802  135.04600525    4.90999985    2.80999994
   17.17111015  144.14900208    4.90999985    2.78999996
   17.17444420  152.53399658    4.90999985    2.78999996
   17.17749977  136.71099854    4.90999985    2.80999994
   17.18083191  138.68200684    4.90999985    2.78999996
   17.18416595  139.35299683    4.90999985    2.78999996
   17.18472099  134.17500305    4.90999985    2.78999996
   17.19055557  134.17500305    4.90999985    2.78999996
   17.19472122  137.53199768    4.90999985    2.78999996
   17.19777679  123.19599915    4.90999985    2.78999996
   17.20111275  136.72399902    4.90999985    2.78999996
   17.20416832  150.18899536    4.90999985    2.78999996
   17.20750046  138.90100098    4.90999985    2.76999998
   17.21083450  134.49400330    4.90999985    2.78999996
   17.21389008  130.01699829    4.90999985    2.78999996
   17.21722221  138.87199402    4.90999985    2.76999998
   17.21805573  124.80999756    4.90999985    2.76999998
   17.22083473  124.30599976    4.90999985    2.76999998
   17.22416687  126.18800354    4.90999985    2.78999996
   17.22722244  146.58500671    4.90999985    2.78999996
   17.23333359  146.58500671    4.90999985    2.78999996
   17.23750114  128.30099487    4.90999985    2.78999996
   17.24055672  135.54699707    4.90999985    2.80999994
   17.24388885  134.67999268    4.90999985    2.78999996
   17.24722290  142.91999817    4.90999985    2.78999996
   17.25027847  154.84800720    4.90999985    2.78999996
   17.25138855  134.20899963    4.90999985    2.78999996
   17.25388908  128.79800415    4.90999985    2.78999996
   17.25722313  140.16900635    4.90999985    2.78999996
   17.26027870  141.63699341    4.90999985    2.78999996
   17.26361084  127.05500031    4.90999985    2.78999996
   17.26666641  144.07600403    4.90999985    2.78999996
   17.27000046  136.92799377    4.90999985    2.78999996
   17.27611160  136.92799377    4.90999985    2.78999996
   17.28027725  135.05499268    4.90999985    2.78999996
   17.28361130  132.76699829    4.90999985    2.76999998
   17.28472137  133.28100586    4.90999985    2.78999996
   17.28722191  131.56199646    4.90999985    2.78999996
   17.29055595  138.47000122    4.90999985    2.78999996
   17.29361153  133.61999512    4.90999985    2.78999996
   17.29694366  133.80000305    4.90999985    2.78999996
   17.29999924  143.50199890    4.90999985    2.78999996
   17.30333328  142.88400269    4.90999985    2.76999998
   17.30666542  128.72099304    4.90999985    2.78999996
   17.30972099  134.27699280    4.90999985    2.78999996
   17.31305504  142.42100525    4.90999985    2.78999996
   17.31888962  142.42100525    4.90999985    2.80999994
   17.32305717  135.59700012    4.90999985    2.80999994
   17.32638931  141.97300720    4.90999985    2.80999994
   17.32972336  138.05700684    4.90999985    2.80999994
   17.33277893  142.34399414    4.90999985    2.82999992
   17.33611107  133.00100708    4.90999985    2.82999992
   17.33944511  143.80900574    4.90999985    2.80999994
   17.34250069  148.09800720    4.90999985    2.80999994
   17.34583473  141.94099426    4.90999985    2.78999996
   17.34889030  126.39299774    4.90999985    2.80999994
   17.35138893  132.64999390    4.90999985    2.80999994
   17.35277748  138.07299805    4.90999985    2.80999994
   17.35611153  136.32699585    4.90999985    2.82999992
   17.36194420  136.32699585    4.90999985    2.78999996
   17.36583328  129.28700256    4.90999985    2.80999994
   17.36916733  137.76600647    4.90999985    2.80999994
   17.37249947  132.38800049    4.90999985    2.78999996
   17.37555504  132.62199402    4.90999985    2.80999994
   17.37888908  123.25299835    4.90999985    2.80999994
   17.38222313  130.40800476    4.90999985    2.80999994
   17.38472176  127.64600372    4.90999985    2.80999994
   17.38583374  126.91999817    4.90999985    2.80999994
   17.38916588  130.45199585    4.90999985    2.80999994
   17.39222145  135.33099365    4.90999985    2.80999994
   17.39555550  142.75100708    4.90999985    2.78999996
   17.39888954  132.19400024    4.90999985    2.80999994
   17.40472221  132.19400024    4.90999985    2.78999996
   17.40888786  134.76199341    4.90999985    2.78999996
   17.41194344  127.72299957    4.90999985    2.78999996
   17.41527748  128.69200134    4.90999985    2.78999996
   17.41805458  134.45100403    4.90999985    2.78999996
   17.41888809  138.75000000    4.90999985    2.76999998
   17.42222214  126.84100342    4.90999985    2.76999998
   17.42527771  133.52099609    4.90999985    2.78999996
   17.42860985  141.71600342    4.90999985    2.78999996
   17.43194389  137.47999573    4.90999985    2.78999996
   17.43499947  130.00399780    4.90999985    2.78999996
   17.43833160  130.89399719    4.90999985    2.78999996
   17.44138718  118.05000305    4.90999985    2.76999998
   17.44749832  118.05000305    4.90999985    2.78999996
   17.45166779  141.96499634    4.90999985    2.78999996
   17.45499992  125.90899658    4.90999985    2.76999998
   17.45805550  126.64399719    4.90999985    2.76999998
   17.46138954  125.97100067    4.90999985    2.71000004
   17.46444511  130.32899475    4.90999985    2.67000008
   17.46777916  124.10900116    4.90999985    2.73000002
   17.47111130  138.80900574    4.90999985    2.69000006
   17.47416687  132.51199341    4.90999985    2.76999998
   17.47750092  117.49700165    4.90999985    2.75000000
   17.48083305  129.53100586    4.90999985    2.73000002
   17.48388863  126.19000244    4.90999985    2.75000000
   17.48472214  130.26499939    4.90999985    2.73000002
   17.49027824  130.26499939    4.90999985    2.76999998
   17.49444389  121.43299866    4.90999985    2.76999998
   17.49777794  123.85500336    4.90999985    2.76999998
   17.50083351  129.77600098    4.90999985    2.76999998
   17.51861000  124.29399872    4.90999985    2.78999996
   17.52083397  121.19000244    4.90999985    2.80999994
   17.52416611  131.74699402    4.90999985    2.78999996
   17.52750015  125.51699829    4.90999985    2.78999996
   17.53333282  125.51699829    4.90999985    2.78999996
   17.53750038  120.74700165    4.90999985    2.73000002
   17.54083252  124.59899902    4.90999985    2.78999996
   17.54388809  120.19599915    4.90999985    2.78999996
   17.54722214  121.89700317    4.90999985    2.75000000
   17.55055428  113.94400024    4.90999985    2.78999996
   17.55194283  120.15000153    4.90999985    2.76999998
   17.55416679  123.22200012    4.90999985    2.78999996
   17.55749893  115.19200134    4.90999985    2.78999996
   17.56055450  116.35700226    4.90999985    2.78999996
   17.56388855  125.64299774    4.90999985    2.78999996
   17.56722260  116.49400330    4.90999985    2.78999996
   17.57027817  141.92999268    4.90999985    2.78999996
   17.57638931  141.92999268    4.90999985    2.75000000
   17.58027840  122.57399750    4.90999985    2.75000000
   17.58361244  112.94999695    4.90999985    2.78999996
   17.58527756  124.48100281    4.90999985    2.78999996
   17.58722305  120.80200195    4.90999985    2.76999998
   17.59055710  128.80499268    4.90999985    2.76999998
   17.59361267  123.71499634    4.90999985    2.76999998
   17.59694481  128.75500488    4.90999985    2.76999998
   17.60027885  120.71900177    4.90999985    2.76999998
   17.60333443  133.81300354    4.90999985    2.78999996
   17.60666656  125.42199707    4.90999985    2.76999998
   17.61000061  123.05599976    4.90999985    2.76999998
   17.61305618  119.70700073    4.90999985    2.78999996
   17.61916733  119.70700073    4.90999985    2.76999998
   17.62333298  115.12200165    4.90999985    2.76999998
   17.62638855  125.43099976    4.90999985    2.76999998
   17.62972260  121.07499695    4.90999985    2.78999996
   17.63277817  119.08300018    4.90999985    2.76999998
   17.63611031  117.08300018    4.90999985    2.76999998
   17.63944435  115.99800110    4.90999985    2.78999996
   17.64249992  123.54299927    4.90999985    2.78999996
   17.64583397  115.67099762    4.90999985    2.78999996
   17.64916611  110.67299652    4.90999985    2.78999996
   17.65194321  128.87800598    4.90999985    2.78999996
   17.65277672  109.65899658    4.90999985    2.78999996
   17.65611076  122.13500214    4.90999985    2.78999996
   17.66194344  122.13500214    4.90999985    2.78999996
   17.66611099  124.71199799    4.90999985    2.78999996
   17.66916656  131.62600708    4.90999985    2.78999996
   17.67249870  117.36699677    4.90999985    2.78999996
   17.67583275  124.83599854    4.90999985    2.78999996
   17.67888832  125.42600250    4.90999985    2.78999996
   17.68222237  119.83399963    4.90999985    2.78999996
   17.68527603  127.55899811    4.90999985    2.78999996
   17.68583298  121.76200104    4.90999985    2.78999996
   17.68916512  114.42800140    4.90999985    2.78999996
   17.69222069  122.60199738    4.90999985    2.78999996
   17.69555473  124.51999664    4.90999985    2.78999996
   17.69888878  120.19899750    4.90999985    2.78999996
   17.70472336  120.19899750    4.90999985    2.78999996
   17.70888901  125.91200256    4.90999985    2.78999996
   17.71222305  124.36900330    4.90999985    2.78999996
   17.71527863  123.83599854    4.90999985    2.78999996
   17.71861076  121.68499756    4.90999985    2.78999996
   17.71888924  120.30100250    4.90999985    2.78999996
   17.72222328  126.50199890    4.90999985    2.78999996
   17.72527885  115.88999939    4.90999985    2.78999996
   17.72861099  124.14600372    4.90999985    2.78999996
   17.73194504  117.75299835    4.90999985    2.76999998
   17.73500061  115.46399689    4.90999985    2.78999996
   17.73833275  122.62899780    4.90999985    2.78999996
   17.74166679  121.80300140    4.90999985    2.78999996
   17.74749947  121.80300140    4.90999985    2.78999996
   17.75194359  119.28500366    4.90999985    2.78999996
   17.75222206  122.33300018    4.90999985    2.78999996
   17.75555611  120.76100159    4.90999985    2.78999996
   17.75861168  124.09799957    4.90999985    2.76999998
   17.76194382  131.82600403    4.90999985    2.76999998
   17.76527786  123.33999634    4.90999985    2.76999998
   17.76833344  119.50800323    4.90999985    2.78999996
   17.77166557  116.86499786    4.90999985    2.78999996
   17.77499962  122.94200134    4.90999985    2.78999996
   17.77805519  125.03500366    4.90999985    2.76999998
   17.78138924  117.64399719    4.90999985    2.76999998
   17.78472137  114.41300201    4.90999985    2.78999996
   17.78527641  121.48100281    4.90999985    2.78999996
   17.79055595  121.48100281    4.90999985    2.32999992
   17.79472160  128.31900024    4.90999985    2.53999996
   17.79777718  122.65599823    4.90999985    2.76999998
   17.80111122  116.58000183    4.90999985    2.73000002
   17.80416679  122.98699951    4.90999985    2.76999998
   17.80749893  120.59100342    4.90999985    2.78999996
   17.81083298  129.32699585    4.90999985    2.76999998
   17.81388855  114.62300110    4.90999985    2.76999998
   17.81722260  123.05699921    4.90999985    2.75000000
   17.81861115  134.13099670    4.90999985    2.75000000
   17.82083511  119.33699799    4.90999985    2.67000008
   17.82416725  121.12000275    4.90999985    2.69000006
   17.82750130  123.33100128    4.90999985    2.73000002
   17.83333397  123.33100128    4.90999985    2.64000010
   17.83750153  144.16799927    4.90999985    2.71000004
   17.84055710  155.13900757    4.90999985    2.64000010
   17.84388924  213.81199646    4.90999985    2.44000006
   17.84722328  204.78500366    4.90999985    2.39000010
   17.85027885  211.84899902    4.90999985    2.53999996
   17.85194397  187.17199707    4.90999985    2.34999990
   17.85388947  303.55599976    4.90999985    2.46000004
   17.85722351  300.45498657    4.90999985    2.36999989
   17.86055565  121.97799683    4.90999985    2.50000000
   17.86361122  322.58300781    4.90999985    1.86000001
   17.86694527  302.50399780    4.90999985    2.36999989
   17.87000084  165.97099304    4.90999985    2.26999998
   17.87611198  165.97099304    4.90999985    2.51999998
   17.88027763  123.82299805    4.90999985    2.21000004
   17.88361168  199.47200012    4.90999985    2.34999990
   17.88527679  115.35700226    4.90999985    2.34999990
   17.88722229  295.79501343    4.90999985    2.01999998
   17.89055634  160.07099915    4.90999985    2.44000006
   17.89388847  199.23199463    4.90999985    2.55999994
   17.89694405  253.49299622    4.90999985    2.48000002
   17.90027809  160.99000549    4.90999985    2.55999994
   17.90333366  137.33299255    4.90999985    2.59999990
   17.90666580  168.97399902    4.90999985    2.71000004
   17.90999985  139.68800354    4.90999985    2.69000006
   17.91305542  131.42199707    4.90999985    2.78999996
   17.91888809  131.42199707    4.90999985    2.46000004
   17.92305565  152.88900757    4.90999985    2.78999996
   17.92638779  245.51899719    4.90999985    2.39000010
   17.92972183  300.88400269    4.90999985    2.32999992
   17.93277740  167.75900269    4.90999985    1.96000004
   17.93610954  197.37699890    4.90999985    2.67000008
   17.93916512  125.24299622    4.90999985    2.71000004
   17.94249916  311.24600220    4.90999985    2.69000006
   17.94583321  182.24000549    4.90999985    2.13000011
   17.94888878  192.20100403    4.90999985    2.50000000
   17.95194435  131.09700012    4.90999985    2.59999990
   17.95250130  128.31700134    4.90999985    2.76999998
   17.95583344  152.03399658    4.90999985    2.73000002
   17.96194458  152.03399658    4.90999985    2.80999994
   17.96611214  131.67300415    4.90999985    2.61999989
   17.96916771  121.41500092    4.90999985    2.69000006
   17.97249985  133.06500244    4.90999985    2.80999994
   17.97555542  126.11499786    4.90999985    2.64000010
   17.97888947  216.23699951    4.90999985    2.64000010
   17.98222351  157.65800476    4.90999985    2.30999994
   17.98527718  137.30799866    4.90999985    2.82999992
   17.98555565  167.17799377    4.90999985    2.82999992
   17.98888969  214.41600037    4.90999985    2.36999989
   17.99222183  170.97999573    4.90999985    2.23000002
   17.99527740  148.06100464    4.90999985    2.64000010
   17.99861145  151.71200562    4.90999985    2.78999996
   18.00472260  151.71200562    4.90999985    2.80999994
   18.00888824  142.44000244    4.90999985    2.78999996
   18.01194382  167.44500732    4.90999985    2.73000002
   18.01527786  149.44099426    4.90999985    2.76999998
   18.01861000  138.15899658    4.90999985    2.78999996
   18.01888847  134.44700623    4.90999985    2.78999996
   18.02222252  150.91499329    4.90999985    2.76999998
   18.02555466  146.37899780    4.90999985    2.76999998
   18.02861023  149.62399292    4.90999985    2.78999996
   18.03194427  161.45500183    4.90999985    2.75000000
   18.03499985  157.63699341    4.90999985    2.71000004
   18.03833199  160.24499512    4.90999985    2.67000008
   18.04166603  145.02299500    4.90999985    2.67000008
   18.04749870  145.02299500    4.90999985    2.71000004
   18.05166626  222.02000427    4.90999985    2.55999994
   18.05222130  304.21798706    4.90999985    2.23000002
   18.05555534  153.36199951    4.90999985    2.26999998
   18.05861092  222.34100342    4.90999985    2.78999996
   18.06194305  139.88999939    4.90999985    1.80999994
   18.06499863  165.63000488    4.90999985    2.00000000
   18.06833458  135.42900085    4.90999985    2.67000008
   18.07166672  156.90400696    4.90999985    2.73000002
   18.07472229  141.17399597    4.90999985    2.73000002
   18.07805634  147.71899414    4.90999985    2.71000004
   18.08139038  146.78900146    4.90999985    2.67000008
   18.08444595  151.74600220    4.90999985    2.66000009
   18.08555603  174.39700317    4.90999985    2.66000009
   18.09027863  174.39700317    4.90999985    2.69000006
   18.09444427  165.27699280    4.90999985    2.64000010
   18.09777832  153.89399719    4.90999985    2.57999992
   18.10111237  133.88200378    4.90999985    2.61999989
   18.10416794  137.84100342    4.90999985    2.66000009
   18.10750008  146.12899780    4.90999985    2.64000010
   18.11083412  133.51800537    4.90999985    2.67000008
   18.11388969  148.54600525    4.90999985    2.61999989
   18.11722183  155.67999268    4.90999985    2.69000006
   18.11888885  163.52000427    4.90999985    2.69000006
   18.12083435  173.00900269    4.90999985    2.71000004
   18.12388992  217.17300415    4.90999985    2.75000000
   18.12722206  171.81399536    4.90999985    2.73000002
   18.13333321  171.81399536    4.90999985    2.73000002
   18.13750076  264.50000000    4.90999985    2.69000006
   18.14055634  216.44000244    4.90999985    2.73000002
   18.14388847  242.33799744    4.90999985    2.73000002
   18.14694405  262.01998901    4.90999985    2.64000010
   18.15027809  208.21699524    4.90999985    2.71000004
   18.15222168  198.77600098    4.90999985    2.76999998
   18.15416718  195.16799927    4.90999985    2.76999998
   18.15722275  189.79600525    4.90999985    2.75000000
   18.16055489  222.48100281    4.90999985    2.75000000
   18.16388893  220.97900391    4.90999985    2.73000002
   18.16694450  234.71299744    4.90999985    2.73000002
   18.17027664  222.90600586    4.90999985    2.69000006
   18.17611122  222.90600586    4.90999985    2.76999998
   18.18027687  249.68099976    4.90999985    2.69000006
   18.18333244  263.11401367    4.90999985    2.73000002
   18.18555450  251.96400452    4.90999985    2.75000000
   18.18722153  279.81399536    4.90999985    2.75000000
   18.19027710  278.89199829    4.90999985    2.73000002
   18.19361115  261.70498657    4.90999985    2.69000006
   18.19694328  281.82000732    4.90999985    2.64000010
   18.20000076  276.71398926    4.90999985    2.55999994
   18.20333481  281.70800781    4.90999985    2.57999992
   18.20639038  262.28799438    4.90999985    2.53999996
   18.20972252  245.83399963    4.90999985    2.57999992
   18.21305656  244.77499390    4.90999985    2.64000010
   18.21888924  244.77499390    4.90999985    2.64000010
   18.22305679  227.75700378    4.90999985    2.66000009
   18.22638893  224.31900024    4.90999985    2.64000010
   18.22944450  258.70300293    4.90999985    2.53999996
   18.23277855  227.19099426    4.90999985    2.57999992
   18.23611069  240.82299805    4.90999985    2.55999994
   18.23916626  177.05599976    4.90999985    2.67000008
   18.24250031  211.86199951    4.90999985    2.66000009
   18.24555588  222.35600281    4.90999985    2.66000009
   18.24888992  201.06599426    4.90999985    2.59999990
   18.25222206  199.41000366    4.90999985    2.61999989
   18.25277710  199.00799561    4.90999985    2.57999992
   18.25583267  170.52699280    4.90999985    2.55999994
   18.26166725  170.52699280    4.90999985    2.46000004
   18.26583290  162.72900391    4.90999985    2.51999998
   18.26916695  159.75199890    4.90999985    2.69000006
   18.27249908  229.75799561    4.90999985    2.57999992
   18.27555466  203.39799500    4.90999985    2.59999990
   18.27888870  215.78900146    4.90999985    2.51999998
   18.28194427  182.84599304    4.90999985    2.42000008
   18.28527641  155.27000427    4.90999985    2.59999990
   18.28610992  157.54499817    4.90999985    2.66000009
   18.28888893  147.09500122    4.90999985    2.69000006
   18.29222107  149.98199463    4.90999985    2.57999992
   18.29555511  166.30099487    4.90999985    2.57999992
   18.29861069  158.24699402    4.90999985    2.59999990
   18.30472183  158.24699402    4.90999985    2.50000000
   18.30888748  171.82800293    4.90999985    2.51999998
   18.31194305  167.86399841    4.90999985    2.64000010
   18.31527710  130.94000244    4.90999985    2.64000010
   18.31833458  143.18899536    4.90999985    2.75000000
   18.31944466  143.10099792    4.90999985    2.75000000
   18.32194519  129.07899475    4.90999985    2.73000002
   18.32527924  132.30299377    4.90999985    2.73000002
   18.32861137  132.73500061    4.90999985    2.75000000
   18.33166695  141.81100464    4.90999985    2.76999998
   18.33500099  143.70799255    4.90999985    2.78999996
   18.33805656  116.61100006    4.90999985    2.76999998
   18.34138870  122.92700195    4.90999985    2.76999998
   18.34749985  122.92700195    4.90999985    2.78999996
   18.35166740  161.52000427    4.90999985    2.78999996
   18.35277748  162.62399292    4.90999985    2.75000000
   18.35527802  147.23500061    4.90999985    2.75000000
   18.35861206  150.96200562    4.90999985    2.78999996
   18.36194420  166.08599854    4.90999985    2.78999996
   18.36499977  148.77799988    4.90999985    2.76999998
   18.36833382  153.20199585    4.90999985    2.76999998
   18.37138939  161.67199707    4.90999985    2.76999998
   18.37472153  166.68899536    4.90999985    2.76999998
   18.37805557  135.02600098    4.90999985    2.76999998
   18.38111115  136.24699402    4.90999985    2.76999998
   18.38444519  135.22900391    4.90999985    2.76999998
   18.38611031  147.00700378    4.90999985    2.78999996
   18.39027786  147.00700378    4.90999985    2.78999996
   18.39444351  135.27400208    4.90999985    2.78999996
   18.39777756  137.05299377    4.90999985    2.76999998
   18.40083313  127.31700134    4.90999985    2.76999998
   18.40416718  124.76000214    4.90999985    2.76999998
   18.40749931  132.88099670    4.90999985    2.76999998
   18.41055489  126.52700043    4.90999985    2.75000000
   18.41388893  127.75399780    4.90999985    2.76999998
   18.41694450  125.20999908    4.90999985    2.76999998
   18.41944313  126.48699951    4.90999985    2.76999998
   18.42055511  128.37800598    4.90999985    2.78999996
   18.42388916  117.62000275    4.90999985    2.78999996
   18.42722130  135.75500488    4.90999985    2.76999998
   18.43305397  135.75500488    4.90999985    2.76999998
   18.43722153  133.55700684    4.90999985    2.76999998
   18.44055557  136.67799377    4.90999985    2.78999996
   18.44388771  132.13999939    4.90999985    2.78999996
   18.44694328  128.17500305    4.90999985    2.76999998
   18.45027924  123.40200043    4.90999985    2.76999998
   18.45277786  122.93199921    4.90999985    2.78999996
   18.45388985  124.96499634    4.90999985    2.78999996
   18.45722389  138.93800354    4.90999985    2.78999996
   18.46055603  129.15699768    4.90999985    2.76999998
   18.46361160  136.54100037    4.90999985    2.76999998
   18.46694565  129.78999329    4.90999985    2.76999998
   18.47000122  130.87800598    4.90999985    2.76999998
   18.47611237  130.87800598    4.90999985    2.76999998
   18.48027802  133.24699402    4.90999985    2.76999998
   18.48333359  131.88999939    4.90999985    2.76999998
   18.48611069  125.97100067    4.90999985    2.76999998
   18.48694420  125.08699799    4.90999985    2.76999998
   18.49027824  125.87400055    4.90999985    2.76999998
   18.49361229  127.03199768    4.90999985    2.76999998
   18.49666786  130.88800049    4.90999985    2.76999998
   18.50000000  124.93099976    4.90999985    2.76999998
   18.50305557  134.20799255    4.90999985    2.76999998
   18.50638962  134.74400330    4.90999985    2.76999998
   18.50972176  129.67999268    4.90999985    2.76999998
   18.51277733  117.10800171    4.90999985    2.76999998
   18.51888847  117.10800171    4.90999985    2.76999998
   18.53722191  124.11599731    4.90999985    2.75000000
   18.54055595  131.03599548    4.90999985    2.75000000
   18.54361153  133.65100098    4.90999985    2.75000000
   18.54694366  134.53100586    4.90999985    2.76999998
   18.55027771  130.18600464    4.90999985    2.75000000
   18.55333328  119.94100189    4.90999985    2.75000000
   18.55666542  116.93399811    4.90999985    2.75000000
   18.56194305  116.93399811    4.90999985    2.76999998
   18.56611061  124.09300232    4.90999985    2.75000000
   18.56944466  135.64199829    4.90999985    2.75000000
   18.57027817  122.75900269    4.90999985    2.75000000
   18.57305717  133.53100586    4.90999985    2.75000000
   18.57611275  133.33700562    4.90999985    2.75000000
   18.57944489  125.04199982    4.90999985    2.75000000
   18.58277893  125.47699738    4.90999985    2.73000002
   18.58583450  114.35099792    4.90999985    2.73000002
   18.58916664  131.62100220    4.90999985    2.73000002
   18.59250069  120.12200165    4.90999985    2.73000002
   18.59555626  129.53799438    4.90999985    2.73000002
   18.59889030  132.82499695    4.90999985    2.73000002
   18.60472298  132.82499695    4.90999985    2.73000002
   18.60888863  122.19000244    4.90999985    2.73000002
   18.61222267  123.26100159    4.90999985    2.73000002
   18.61527824  121.55500031    4.90999985    2.73000002
   18.61861038  114.30300140    4.90999985    2.75000000
   18.62194443  130.00799561    4.90999985    2.71000004
   18.62500000  116.52100372    4.90999985    2.71000004
   18.62833405  130.16600037    4.90999985    2.71000004
   18.63166618  124.48600006    4.90999985    2.73000002
   18.63472176  129.60600281    4.90999985    2.64000010
   18.63694382  119.94899750    4.90999985    2.69000006
   18.63861084  117.81999969    4.90999985    2.67000008
   18.64166641  122.65799713    4.90999985    2.71000004
   18.64777756  122.65799713    4.90999985    2.69000006
   18.65166664  117.42400360    4.90999985    2.73000002
   18.65499878  126.13400269    4.90999985    2.73000002
   18.65833282  114.16600037    4.90999985    2.71000004
   18.66138840  116.40599823    4.90999985    2.73000002
   18.66472244  114.73400116    4.90999985    2.71000004
   18.66805458  125.92600250    4.90999985    2.73000002
   18.67027664  123.40100098    4.90999985    2.71000004
   18.67166519  128.51100159    4.90999985    2.69000006
   18.67472076  127.41799927    4.90999985    2.71000004
   18.67805481  114.77600098    4.90999985    2.71000004
   18.68138885  115.96099854    4.90999985    2.73000002
   18.68444443  120.37999725    4.90999985    2.71000004
   18.69055557  120.37999725    4.90999985    2.71000004
   18.69472122  127.20600128    4.90999985    2.73000002
   18.69777679  117.08200073    4.90999985    2.73000002
   18.70111275  118.04000092    4.90999985    2.75000000
   18.70361137  122.30699921    4.90999985    2.73000002
   18.70472336  121.74099731    4.90999985    2.73000002
   18.70805550  124.93800354    4.90999985    2.73000002
   18.71111107  116.21700287    4.90999985    2.71000004
   18.71444511  117.62699890    4.90999985    2.73000002
   18.71750069  114.61100006    4.90999985    2.73000002
   18.72083473  115.87100220    4.90999985    2.73000002
   18.72416687  112.32800293    4.90999985    2.75000000
   18.72722244  120.53399658    4.90999985    2.75000000
   18.73333359  120.53399658    4.90999985    2.57999992
   18.73750114  146.05000305    4.90999985    2.64000010
   18.74083328  111.56800079    4.90999985    2.61999989
   18.74388885  127.03299713    4.90999985    2.76999998
   18.74722290  124.89199829    4.90999985    2.71000004
   18.75027847  128.16700745    4.90999985    2.51999998
   18.75361061  128.29400635    4.90999985    2.71000004
   18.75694466  121.23000336    4.90999985    2.61999989
   18.76000023   -1.00000000    4.90999985    2.46000004
   18.76333427   -1.00000000    4.90999985    1.61000001
   18.76666641  364.73699951    4.90999985    1.83000004
   18.76972198  218.46800232    4.90999985    2.25000000
   18.77027702  175.13800049    4.90999985    2.25000000
   18.77611160  175.13800049    4.90999985    2.69000006
   18.78027725  117.69599915    4.90999985    2.66000009
   18.78361130  118.87500000    4.90999985    2.69000006
   18.78666687  118.38500214    4.90999985    2.69000006
   18.78999901  117.90899658    4.90999985    2.73000002
   18.79333305  130.11500549    4.90999985    2.69000006
   18.79638863  118.87500000    4.90999985    2.67000008
   18.79972076  115.43599701    4.90999985    2.73000002
   18.80305481  120.11599731    4.90999985    2.71000004
   18.80360985  117.01499939    4.90999985    2.69000006
   18.80666542  108.50399780    4.90999985    2.73000002
   18.80972099  118.18900299    4.90999985    2.73000002
   18.81305504  120.91799927    4.90999985    2.69000006
   18.81916809  120.91799927    4.90999985    2.73000002
   18.82305717  120.79900360    4.90999985    2.69000006
   18.82638931  117.37699890    4.90999985    2.71000004
   18.82972336  123.81600189    4.90999985    2.73000002
   18.83277893  115.97299957    4.90999985    2.73000002
   18.83611107  116.79900360    4.90999985    2.73000002
   18.83694458  124.39600372    4.90999985    2.71000004
   18.83972359  113.48699951    4.90999985    2.71000004
   18.84305573  119.77799988    4.90999985    2.75000000
   18.84611130  120.33599854    4.90999985    2.71000004
   18.84944534  128.96200562    4.90999985    2.73000002
   18.85250092  118.61900330    4.90999985    2.73000002
   18.85583305  127.85600281    4.90999985    2.71000004
   18.86194420  127.85600281    4.90999985    2.75000000
   18.86611176  199.54899597    4.90999985    2.26999998
   18.86916733  230.07400513    4.90999985    2.40000010
   18.87027740  291.70800781    4.90999985    2.39000010
   18.87277794  194.96699524    4.90999985    2.11999989
   18.87611198  157.80599976    4.90999985    2.48000002
   18.87916756  143.85499573    4.90999985    2.55999994
   18.88249969  133.87199402    4.90999985    2.69000006
   18.88555527  132.05200195    4.90999985    2.73000002
   18.88888931  133.84800720    4.90999985    2.73000002
   18.89222145  137.33999634    4.90999985    2.73000002
   18.89527702  120.78299713    4.90999985    2.71000004
   18.89861107  145.28500366    4.90999985    2.71000004
   18.90472221  145.28500366    4.90999985    2.71000004
   18.90888786  122.63600159    4.90999985    2.71000004
   18.91194344  123.45200348    4.90999985    2.71000004
   18.91527748  127.01899719    4.90999985    2.71000004
   18.91860962  119.60600281    4.90999985    2.71000004
   18.92166519  123.24700165    4.90999985    2.69000006
   18.92499924  117.84600067    4.90999985    2.71000004
   18.92833328  130.07299805    4.90999985    2.71000004
   18.93138885  126.18199921    4.90999985    2.69000006
   18.93472099  129.80400085    4.90999985    2.71000004
   18.93694305  134.85699463    4.90999985    2.71000004
   18.93833160  127.39499664    4.90999985    2.71000004
   18.94166565  145.43899536    4.90999985    2.71000004
   18.94749832  145.43899536    4.90999985    2.71000004
   18.95166779  134.81799316    4.90999985    2.71000004
   18.95499992  139.01800537    4.90999985    2.69000006
   18.95805550  135.43299866    4.90999985    2.69000006
   18.96138954  158.02099609    4.90999985    2.69000006
   18.96472359  157.43600464    4.90999985    2.69000006
   18.96777916  136.51100159    4.90999985    2.69000006
   18.97027779  143.76199341    4.90999985    2.69000006
   18.97138977  140.07000732    4.90999985    2.69000006
   18.97472191  144.02699280    4.90999985    2.69000006
   18.97777748  138.73599243    4.90999985    2.69000006
   18.98111153  126.03600311    4.90999985    2.71000004
   18.98416710  118.88800049    4.90999985    2.71000004
   18.99027824  118.88800049    4.90999985    2.71000004
   18.99444389  123.44400024    4.90999985    2.71000004
   18.99777794  129.84800720    4.90999985    2.69000006
   19.00111198  120.60900116    4.90999985    2.67000008
   19.00361061  124.07299805    4.90999985    2.71000004
   19.00472260  125.72599792    4.90999985    2.71000004
   19.00805473  121.98699951    4.90999985    2.71000004
   19.01111031  128.97599792    4.90999985    2.69000006
   19.01444435  120.73600006    4.90999985    2.71000004
   19.01749992  124.32299805    4.90999985    2.71000004
   19.02083397  115.13800049    4.90999985    2.71000004
   19.02416611  125.80899811    4.90999985    2.71000004
   19.02722168  117.30000305    4.90999985    2.69000006
   19.03333282  117.30000305    4.90999985    2.71000004
   19.03750038  127.53700256    4.90999985    2.71000004
   19.04055595  139.06500244    4.90999985    2.71000004
   19.04388809  126.73200226    4.90999985    2.71000004
   19.04722214  137.93499756    4.90999985    2.71000004
   19.05027771  142.16799927    4.90999985    2.67000008
   19.05360985  127.34899902    4.90999985    2.67000008
   19.05666542  128.39399719    4.90999985    2.69000006
   19.05999947  125.63600159    4.90999985    2.69000006
   19.06333351  131.19900513    4.90999985    2.71000004
   19.06638718  138.05200195    4.90999985    2.71000004
   19.06972313  124.90299988    4.90999985    2.71000004
   19.07027817  126.21700287    4.90999985    2.71000004
   19.07611275  126.21700287    4.90999985    2.69000006
   19.08027840  130.07899475    4.90999985    2.69000006
   19.08333397  124.70700073    4.90999985    2.69000006
   19.08666801  125.57099915    4.90999985    2.69000006
   19.09000015  116.50399780    4.90999985    2.69000006
   19.09305573  125.24700165    4.90999985    2.71000004
   19.09638977  126.08300018    4.90999985    2.69000006
   19.09972191  131.48699951    4.90999985    2.69000006
   19.10277748  128.41900635    4.90999985    2.69000006
   19.10361099  130.47799683    4.90999985    2.69000006
   19.10639000  137.94200134    4.90999985    2.69000006
   19.10972214  136.07600403    4.90999985    2.69000006
   19.11277771  131.57000732    4.90999985    2.69000006
   19.11888885  131.57000732    4.90999985    2.69000006
   19.12305641  134.53199768    4.90999985    2.71000004
   19.12638855  139.82400513    4.90999985    2.69000006
   19.12944412  121.11699677    4.90999985    2.71000004
   19.13277817  142.70300293    4.90999985    2.69000006
   19.13611031  133.57600403    4.90999985    2.67000008
   19.13694382  134.27600098    4.90999985    2.69000006
   19.13972282  132.59599304    4.90999985    2.69000006
   19.14305496  137.60099792    4.90999985    2.69000006
   19.14611053  142.67199707    4.90999985    2.69000006
   19.14944458  132.08500671    4.90999985    2.69000006
   19.15277672  132.73399353    4.90999985    2.69000006
   19.15583229  133.02299500    4.90999985    2.69000006
   19.16166687  133.02299500    4.90999985    2.71000004
   19.16583252  131.64500427    4.90999985    2.73000002
   19.16916656  142.15100098    4.90999985    2.71000004
   19.17027664  128.06599426    4.90999985    2.71000004
   19.17277718  141.91900635    4.90999985    2.69000006
   19.17611122  127.14800262    4.90999985    2.67000008
   19.17916679  133.45500183    4.90999985    2.73000002
   19.18249893  137.35099792    4.90999985    2.66000009
   19.18583298  146.31100464    4.90999985    2.55999994
   19.18888855  164.52299500    4.90999985    2.64000010
   19.19222069  137.86500549    4.90999985    2.64000010
   19.19527626  134.74800110    4.90999985    2.71000004
   19.19861031  143.25599670    4.90999985    2.69000006
   19.20472336  143.25599670    4.90999985    2.69000006
   19.20888901  144.52499390    4.90999985    2.69000006
   19.21194458  129.55000305    4.90999985    2.69000006
   19.21527863  137.76300049    4.90999985    2.67000008
   19.21833420  135.65699768    4.90999985    2.67000008
   19.22166634  133.36399841    4.90999985    2.66000009
   19.22500038  132.89700317    4.90999985    2.67000008
   19.22805595  123.10099792    4.90999985    2.67000008
   19.23139000  126.91400146    4.90999985    2.67000008
   19.23472214  124.86100006    4.90999985    2.67000008
   19.23694420  123.43000031    4.90999985    2.67000008
   19.23833275  127.92199707    4.90999985    2.67000008
   19.24166679  135.37199402    4.90999985    2.69000006
   19.24749947  135.37199402    4.90999985    2.67000008
   19.25166702  129.38499451    4.90999985    2.67000008
   19.25472260  125.54799652    4.90999985    2.69000006
   19.25805473  128.03599548    4.90999985    2.67000008
   19.26138878  127.17299652    4.90999985    2.64000010
   19.26444435  128.06399536    4.90999985    2.67000008
   19.26777840  122.57700348    4.90999985    2.67000008
   19.27027702  132.86300659    4.90999985    2.67000008
   19.27138901  127.28199768    4.90999985    2.67000008
   19.27472115  122.59999847    4.90999985    2.66000009
   19.27777672  117.49099731    4.90999985    2.67000008
   19.28111076  116.76899719    4.90999985    2.67000008
   19.28444481  127.22200012    4.90999985    2.66000009
   19.29027748  127.22200012    4.90999985    2.67000008
   19.29444313  125.85199738    4.90999985    2.67000008
   19.29777718  119.54399872    4.90999985    2.66000009
   19.30083275  119.70600128    4.90999985    2.67000008
   19.30360985  132.87899780    4.90999985    2.67000008
   19.30444336  122.70500183    4.90999985    2.67000008
   19.30777740  123.03500366    4.90999985    2.66000009
   19.31083298  124.33499908    4.90999985    2.66000009
   19.31416512  121.59999847    4.90999985    2.67000008
   19.31750107  123.72399902    4.90999985    2.66000009
   19.32055664  134.23800659    4.90999985    2.67000008
   19.32389069  120.82700348    4.90999985    2.66000009
   19.32694626  130.08900452    4.90999985    2.66000009
   19.33305550  130.08900452    4.90999985    2.67000008
   19.33722305  125.65499878    4.90999985    2.67000008
   19.34055710  119.85199738    4.90999985    2.67000008
   19.34388924  114.75299835    4.90999985    2.66000009
   19.34694481  117.84400177    4.90999985    2.67000008
   19.35027885  119.91899872    4.90999985    2.67000008
   19.35333443  119.69899750    4.90999985    2.67000008
   19.35666656  115.84899902    4.90999985    2.67000008
   19.36000061  118.37000275    4.90999985    2.66000009
   19.36305618  120.65799713    4.90999985    2.67000008
   19.36638832  117.65299988    4.90999985    2.67000008
   19.36972237  117.18900299    4.90999985    2.67000008
   19.37027740  114.54799652    4.90999985    2.67000008
   19.37611198  114.54799652    4.90999985    2.67000008
   19.38027763  118.34100342    4.90999985    2.67000008
   19.38333321  120.80999756    4.90999985    2.67000008
   19.38666725  122.20999908    4.90999985    2.67000008
   19.38972282  116.90000153    4.90999985    2.67000008
   19.39305496  119.25299835    4.90999985    2.67000008
   19.39638901  121.20099640    4.90999985    2.66000009
   19.39972115  124.60600281    4.90999985    2.57999992
   19.40277672  112.92199707    4.90999985    2.69000006
   19.40361023  119.18900299    4.90999985    2.69000006
   19.40638924  124.92299652    4.90999985    2.71000004
   19.40972137  119.19499969    4.90999985    2.67000008
   19.41277695  122.69599915    4.90999985    2.69000006
   19.41888809  122.69599915    4.90999985    2.67000008
   19.42305565  122.41799927    4.90999985    2.64000010
   19.42611122  120.00199890    4.90999985    2.66000009
   19.42944336  119.73600006    4.90999985    2.64000010
   19.43277740  124.17500305    4.90999985    2.64000010
   19.43583298  121.28700256    4.90999985    2.64000010
   19.43694305  125.88999939    4.90999985    2.66000009
   19.43944359  115.45700073    4.90999985    2.66000009
   19.44277763  119.70500183    4.90999985    2.67000008
   19.44583321  161.36599731    4.90999985    2.53999996
   19.44916534  121.98699951    4.90999985    2.53999996
   19.45250130  139.65199280    4.90999985    2.64000010
   19.45555687  121.68399811    4.90999985    2.64000010
   19.46166801  121.68399811    4.90999985    2.67000008
   19.46583366  121.80300140    4.90999985    2.67000008
   19.46916771  124.99900055    4.90999985    2.67000008
   19.47055626  116.58100128    4.90999985    2.67000008
   19.47277832  126.62100220    4.90999985    2.67000008
   19.47611237  125.32900238    4.90999985    2.69000006
   19.47916794  127.68399811    4.90999985    2.69000006
   19.48250008  132.36999512    4.90999985    2.66000009
   19.48583412  125.38500214    4.90999985    2.69000006
   19.48888969  124.79199982    4.90999985    2.71000004
   19.49222183  122.34799957    4.90999985    2.69000006
   19.49555588  133.76499939    4.90999985    2.69000006
   19.49861145  127.71299744    4.90999985    2.67000008
   19.50444412  127.71299744    4.90999985    2.69000006
   19.50861168  113.83799744    4.90999985    2.69000006
   19.51194382  118.56900024    4.90999985    2.69000006
   19.51527786  119.93499756    4.90999985    2.67000008
   19.51833344  115.98999786    4.90999985    2.67000008
   19.52166557  124.27400208    4.90999985    2.67000008
   19.52472115  123.36000061    4.90999985    2.66000009
   19.52805519  132.97500610    4.90999985    2.67000008
   19.53138924  121.80899811    4.90999985    2.66000009
   19.53444481  131.41799927    4.90999985    2.64000010
   19.53722191  113.00000000    4.90999985    2.57999992
   19.55777740  113.00000000    4.90999985    2.30999994
   19.56194305  162.60699463    4.90999985    2.51999998
   19.56499863  122.32700348    4.90999985    2.71000004
   19.56833458  124.48999786    4.90999985    2.71000004
   19.57055664  121.37500000    4.90999985    2.69000006
   19.57194519  116.48200226    4.90999985    2.69000006
   19.57527924  119.05999756    4.90999985    2.69000006
   19.57861137  117.88999939    4.90999985    2.66000009
   19.58166695  120.44400024    4.90999985    2.67000008
   19.58500099  120.88600159    4.90999985    2.66000009
   19.58833313  119.73600006    4.90999985    2.66000009
   19.59138870  113.48300171    4.90999985    2.66000009
   19.59472275  123.41300201    4.90999985    2.66000009
   19.60055542  123.41300201    4.90999985    2.66000009
   19.60472298  114.35399628    4.90999985    2.66000009
   19.60777855  116.46399689    4.90999985    2.66000009
   19.61111069  120.37799835    4.90999985    2.64000010
   19.61416626  111.33399963    4.90999985    2.66000009
   19.61750031  110.46299744    4.90999985    2.66000009
   19.62083435  113.41400146    4.90999985    2.66000009
   19.62388992  115.45500183    4.90999985    2.66000009
   19.62722206  112.57800293    4.90999985    2.64000010
   19.63055611  120.37000275    4.90999985    2.64000010
   19.63361168  127.19100189    4.90999985    2.66000009
   19.63694382  118.92900085    4.90999985    2.64000010
   19.63750076  118.68199921    4.90999985    2.64000010
   19.64333344  118.68199921    4.90999985    2.66000009
   19.64749908  112.54100037    4.90999985    2.64000010
   19.65083313  132.05400085    4.90999985    2.64000010
   19.65388870  115.20200348    4.90999985    2.64000010
   19.65722275  116.36199951    4.90999985    2.66000009
   19.66027832  112.70200348    4.90999985    2.66000009
   19.66361046  112.35399628    4.90999985    2.64000010
   19.66694450  121.89600372    4.90999985    2.64000010
   19.67000008  142.97399902    4.90999985    2.64000010
   19.67083359  123.28800201    4.90999985    2.64000010
   19.67361069  119.00700378    4.90999985    2.64000010
   19.67694473  125.87699890    4.90999985    2.64000010
   19.68027687  129.31300354    4.90999985    2.64000010
   19.68610954  129.31300354    4.90999985    2.64000010
   19.69027710  116.55899811    4.90999985    2.64000010
   19.69361115  133.55400085    4.90999985    2.64000010
   19.69666672  118.65399933    4.90999985    2.64000010
   19.70000076  121.99199677    4.90999985    2.64000010
   19.70333481  126.12000275    4.90999985    2.64000010
   19.70416832  125.41799927    4.90999985    2.64000010
   19.70666695  135.97799683    4.90999985    2.64000010
   19.71000099  123.36100006    4.90999985    2.64000010
   19.71333504  118.56500244    4.90999985    2.64000010
   19.71638870  124.30699921    4.90999985    2.64000010
   19.71972275  121.47499847    4.90999985    2.61999989
   19.72305679  117.94300079    4.90999985    2.64000010
   19.72888947  117.94300079    4.90999985    2.61999989
   19.73305511  119.98799896    4.90999985    2.64000010
   19.73638916  111.32399750    4.90999985    2.64000010
   19.73750114  116.46499634    4.90999985    2.64000010
   19.73999977  124.84999847    4.90999985    2.64000010
   19.74333382  118.50299835    4.90999985    2.64000010
   19.74666786  112.78299713    4.90999985    2.64000010
   19.74972153  119.82499695    4.90999985    2.64000010
   19.75305557  114.57800293    4.90999985    2.64000010
   19.75638962  114.28399658    4.90999985    2.64000010
   19.75944519  110.46700287    4.90999985    2.64000010
   19.76277733  110.03099823    4.90999985    2.64000010
   19.76583290  118.80999756    4.90999985    2.64000010
   19.77194405  118.80999756    4.90999985    2.64000010
   19.77611160  123.47799683    4.90999985    2.64000010
   19.77916718  114.57800293    4.90999985    2.64000010
   19.78249931  111.11699677    4.90999985    2.61999989
   19.78555489  111.33100128    4.90999985    2.61999989
   19.78888893  112.75000000    4.90999985    2.64000010
   19.79222107  120.14399719    4.90999985    2.64000010
   19.79527664  110.98899841    4.90999985    2.64000010
   19.79861069  119.59200287    4.90999985    2.64000010
   19.80166626  123.06600189    4.90999985    2.64000010
   19.80416679  119.17700195    4.90999985    2.64000010
   19.80527687  114.44200134    4.90999985    2.61999989
   19.80861092  117.19300079    4.90999985    2.64000010
   19.81472206  117.19300079    4.90999985    2.61999989
   19.81888962  120.89800262    4.90999985    2.61999989
   19.82194519  117.33399963    4.90999985    2.64000010
   19.82527924  112.62599945    4.90999985    2.61999989
   19.82861137  123.01699829    4.90999985    2.61999989
   19.83166695  122.29399872    4.90999985    2.61999989
   19.83500099  117.92500305    4.90999985    2.61999989
   19.83750153  110.15699768    4.90999985    2.59999990
   19.83861160  107.42600250    4.90999985    2.59999990
   19.84194565  119.67900085    4.90999985    2.59999990
   19.84527779  122.99700165    4.90999985    2.59999990
   19.84833336  114.95099640    4.90999985    2.59999990
   19.85166740  114.35299683    4.90999985    2.61999989
   19.85750008  114.35299683    4.90999985    2.59999990
   19.86166763  113.60399628    4.90999985    2.59999990
   19.86499977  116.68099976    4.90999985    2.59999990
   19.86805534  108.71800232    4.90999985    2.59999990
   19.87083435  113.52100372    4.90999985    2.61999989
   19.87166595  114.04499817    4.90999985    2.61999989
   19.87500000  116.53299713    4.90999985    2.61999989
   19.87833405  129.68800354    4.90999985    2.64000010
   19.88138962  110.86399841    4.90999985    2.67000008
   19.88472176  139.08799744    4.90999985    2.55999994
   19.88805580  166.94200134    4.90999985    1.71000004
   19.89111137  141.58599854    4.90999985    2.03999996
   19.89444351  377.30801392    4.90999985    1.98000002
   19.90027809  377.30801392    4.90999985    2.61999989
   19.90444374  139.61599731    4.90999985    2.59999990
   19.90777779  118.75099945    4.90999985    2.61999989
   19.91110992  135.10800171    4.90999985    2.46000004
   19.91416550  130.72700500    4.90999985    2.13000011
   19.91749954  146.79899597    4.90999985    2.46000004
   19.92055511  120.85299683    4.90999985    2.46000004
   19.92388916  122.68900299    4.90999985    2.53999996
   19.92722130  142.15699768    4.90999985    2.53999996
   19.93027687  128.44900513    4.90999985    2.57999992
   19.93361092  119.04399872    4.90999985    2.59999990
   19.93694305  125.44799805    4.90999985    2.59999990
   19.93750000  134.92199707    4.90999985    2.59999990
   19.94333267  134.92199707    4.90999985    2.59999990
   19.94749832  126.97799683    4.90999985    2.59999990
   19.95055580  122.25599670    4.90999985    2.59999990
   19.95388985  128.50900269    4.90999985    2.59999990
   19.95694542  140.85000610    4.90999985    2.61999989
   19.96027946  114.66000366    4.90999985    2.59999990
   19.96361160  121.26000214    4.90999985    2.59999990
   19.96666718  130.34500122    4.90999985    2.61999989
   19.97000122  146.24600220    4.90999985    2.61999989
   19.97083473  143.53500366    4.90999985    2.61999989
   19.97361183  149.21400452    4.90999985    2.59999990
   19.97666740  129.44700623    4.90999985    2.61999989
   19.98000145  137.79600525    4.90999985    2.61999989
   19.98611069  137.79600525    4.90999985    2.61999989
   19.99027824  115.57800293    4.90999985    2.64000010
   19.99361229  118.63999939    4.90999985    2.64000010
   19.99666786  125.93900299    4.90999985    2.64000010
   20.00000000  113.38999939    4.90999985    2.64000010
   20.00305557  110.89800262    4.90999985    2.61999989
   20.00416756  109.97699738    4.90999985    2.64000010
   20.00694466  115.55500031    4.90999985    2.64000010
   20.01000023  106.68900299    4.90999985    2.64000010
   20.01333427  106.19799805    4.90999985    2.64000010
   20.01638794  109.10500336    4.90999985    2.61999989
   20.01972198  110.32800293    4.90999985    2.61999989
   20.02305603  102.54000092    4.90999985    2.61999989
   20.02888870  102.54000092    4.90999985    2.61999989
   20.03305435  110.39800262    4.90999985    2.64000010
   20.03638840  118.56500244    4.90999985    2.64000010
   20.03750038  115.79900360    4.90999985    2.64000010
   20.03999901  123.82499695    4.90999985    2.64000010
   20.04305458  109.98500061    4.90999985    2.64000010
   20.04638863  109.03500366    4.90999985    2.64000010
   20.04944420  116.34700012    4.90999985    2.64000010
   20.05277634  110.16100311    4.90999985    2.61999989
   20.05611038  114.40799713    4.90999985    2.61999989
   20.05916595  112.86199951    4.90999985    2.64000010
   20.06250000  117.99199677    4.90999985    2.61999989
   20.06583214  114.28399658    4.90999985    2.64000010
   20.07166672  114.28399658    4.90999985    2.64000010
   20.07583427  113.38700104    4.90999985    2.64000010
   20.07916832  114.00800323    4.90999985    2.64000010
   20.08222389  109.76699829    4.90999985    2.64000010
   20.08555603  109.27999878    4.90999985    2.61999989
   20.08889008  125.26100159    4.90999985    2.61999989
   20.09194565  117.38400269    4.90999985    2.64000010
   20.09527779  116.18900299    4.90999985    2.64000010
   20.09861183  120.89800262    4.90999985    2.61999989
   20.10166740  111.52600098    4.90999985    2.61999989
   20.10416794  111.46299744    4.90999985    2.61999989
   20.10527802  112.89399719    4.90999985    2.61999989
   20.10861206  126.47399902    4.90999985    2.55999994
   20.11499977  126.47399902    4.90999985    2.55999994
   20.11916733  115.39099884    4.90999985    2.61999989
   20.12222290  114.16100311    4.90999985    2.61999989
   20.12583351  113.96700287    4.90999985    2.61999989
   20.12916756  116.85900116    4.90999985    2.59999990
   20.13222313  122.29499817    4.90999985    2.61999989
   20.13555527  111.61599731    4.90999985    2.59999990
   20.13750076  122.14299774    4.90999985    2.57999992
   20.13916588  111.01699829    4.90999985    2.57999992
   20.14222145  118.61399841    4.90999985    2.61999989
   20.14555550  119.94799805    4.90999985    2.59999990
   20.14861107  138.01800537    4.90999985    2.51999998
   20.15194321  136.81300354    4.90999985    2.46000004
   20.15749931  136.81300354    4.90999985    2.40000010
   20.16166687  155.68299866    4.90999985    2.40000010
   20.16472244  232.31599426    4.90999985    2.30999994
   20.16805458  148.87199402    4.90999985    2.23000002
   20.17083359  151.06100464    4.90999985    2.40000010
   20.17194366  136.68499756    4.90999985    2.42000008
   20.17499924  169.85099792    4.90999985    2.30999994
   20.17833328  138.92999268    4.90999985    2.25000000
   20.18138885  123.93000031    4.90999985    2.48000002
   20.18472099  128.60699463    4.90999985    2.51999998
   20.18805504  131.91299438    4.90999985    2.42000008
   20.19111061  117.05899811    4.90999985    2.48000002
   20.19444275  115.51599884    4.90999985    2.59999990
   20.20027924  115.51599884    4.90999985    2.59999990
   20.20444489  124.19799805    4.90999985    2.59999990
   20.20777893  117.43800354    4.90999985    2.59999990
   20.21083450  125.37599945    4.90999985    2.61999989
   20.21416664  120.34400177    4.90999985    2.59999990
   20.21722221  121.64900208    4.90999985    2.59999990
   20.22055626  125.81900024    4.90999985    2.59999990
   20.22389030  115.24500275    4.90999985    2.59999990
   20.22694588  117.68399811    4.90999985    2.59999990
   20.23027802  130.96499634    4.90999985    2.59999990
   20.23361206  116.75299835    4.90999985    2.59999990
   20.23666763  125.54900360    4.90999985    2.59999990
   20.23750114  116.09300232    4.90999985    2.59999990
   20.24305534  116.09300232    4.90999985    2.59999990
   20.24722290  122.14499664    4.90999985    2.55999994
   20.25055504  119.39299774    4.90999985    2.55999994
   20.25361061  127.24299622    4.90999985    2.57999992
   20.25694466  121.42099762    4.90999985    2.57999992
   20.26027870  116.73500061    4.90999985    2.57999992
   20.26361084  137.72700500    4.90999985    2.53999996
   20.26666641  226.55499268    4.90999985    2.40000010
   20.27000046  242.29699707    4.90999985    2.21000004
   20.27083397  219.37399292    4.90999985    2.19000006
   20.27361107  238.12500000    4.90999985    2.13000011
   20.27666664   -1.00000000   -1.00000000   -1.00000000
   20.28000069   50.27159882    4.90999985    1.88000000
   20.28610992   50.27159882    4.90999985    2.21000004
   20.28999901  240.66299438    4.90999985    2.48000002
   20.29333305  215.88499451    4.90999985    2.23000002
   20.29666710  218.16499329    4.90999985    1.78999996
   20.29972076  251.22300720    4.90999985    2.13000011
   20.30305481  251.29899597    4.90999985    2.17000008
   20.30416679  251.16499329    4.90999985    2.13000011
   20.30666542  278.15798950    4.90999985    2.15000010
   20.30972099  307.07199097    4.90999985    2.15000010
   20.31305504  202.30499268    4.90999985    2.13000011
   20.31611061  209.34800720    4.90999985    2.13000011
   20.31944466  175.95199585    4.90999985    2.17000008
   20.32277870  171.02200317    4.90999985    2.03999996
   20.32888985  171.02200317    4.90999985    2.01999998
   20.33305550   71.89399719    4.90999985    2.07999992
   20.33611107   -1.00000000    4.90999985    2.15000010
   20.33972359   -1.00000000    4.90999985    2.25000000
   20.34305573   -1.00000000    4.90999985    2.23000002
   20.34611130   -1.00000000    4.90999985    2.25000000
   20.34944534   -1.00000000    4.90999985    2.39000010
   20.35277748   -1.00000000    4.90999985    2.36999989
   20.35583305   -1.00000000    4.90999985    2.40000010
   20.35916710   -1.00000000    4.90999985    2.44000006
   20.36250114   -1.00000000    4.90999985    2.48000002
   20.36555672   -1.00000000    4.90999985    2.50000000
   20.37583351   -1.00000000    4.90999985    2.48000002
   20.37888908   -1.00000000    4.90999985    2.50000000
   20.38222313   -1.00000000    4.90999985    2.50000000
   20.38555527   -1.00000000    4.90999985    2.50000000
   20.38861084   -1.00000000    4.90999985    2.51999998
   20.39194489   -1.00000000    4.90999985    2.53999996
   20.39500046   -1.00000000    4.90999985    2.53999996
   20.39833260   -1.00000000    4.90999985    2.53999996
   20.40166664   -1.00000000    4.90999985    2.53999996
   20.40499878   -1.00000000    4.90999985    2.53999996
   20.40833282   -1.00000000    4.90999985    2.53999996
   20.41860962   -1.00000000    4.90999985    2.53999996
   20.42194366   -1.00000000    4.90999985    2.53999996
   20.42499924   -1.00000000    4.90999985    2.53999996
   20.42833328   -1.00000000    4.90999985    2.55999994
   20.43138885   -1.00000000    4.90999985    2.53999996
   20.43472099   -1.00000000    4.90999985    2.53999996
   20.43833160   -1.00000000    4.90999985    2.53999996
   20.44166565   -1.00000000    4.90999985    2.53999996
   20.44472122   -1.00000000    4.90999985    2.53999996
   20.44805527   -1.00000000    4.90999985    2.53999996
   20.45138931   -1.00000000    4.90999985    2.51999998
   20.46138954   -1.00000000    4.90999985    2.53999996
   20.46472359   -1.00000000    4.90999985    2.53999996
   20.46777916   -1.00000000    4.90999985    2.53999996
   20.47138977   -1.00000000    4.90999985    2.53999996
   20.47472191   -1.00000000    4.90999985    2.51999998
   20.47777748   -1.00000000    4.90999985    2.51999998
   20.48111153   -1.00000000    4.90999985    2.51999998
   20.48444557   -1.00000000    4.90999985    2.51999998
   20.48750114   -1.00000000    4.90999985    2.51999998
   20.49083328   -1.00000000    4.90999985    2.51999998
   20.49416733   -1.00000000    4.90999985    2.51999998
   20.50416756   -1.00000000    4.90999985    2.53999996
   20.50749969   -1.00000000    4.90999985    2.51999998
   20.51083374   -1.00000000    4.90999985    2.51999998
   20.51388931   -1.00000000    4.90999985    2.51999998
   20.51722145   -1.00000000    4.90999985    2.51999998
   20.52055550   -1.00000000    4.90999985    2.51999998
   20.52361107   -1.00000000    4.90999985    2.51999998
   20.52694511   -1.00000000    4.90999985    2.51999998
   20.53000069   -1.00000000    4.90999985    2.51999998
   20.53333282   -1.00000000    4.90999985    2.51999998
   20.53666687   -1.00000000    4.90999985    2.51999998
   20.54722214   -1.00000000    4.90999985    2.51999998
   20.55027771   -1.00000000    4.90999985    2.51999998
   20.55360985   -1.00000000    4.90999985    2.53999996
   20.57333374   -1.00000000    4.90999985    2.51999998
   20.57666779   -1.00000000    4.90999985    2.51999998
   20.58000183   -1.00000000    4.90999985    2.51999998
   20.59000015   -1.00000000    4.90999985    2.51999998
   20.59333420   -1.00000000    4.90999985    2.50000000
   20.59638977   -1.00000000    4.90999985    2.51999998
   20.59972191   -1.00000000    4.90999985    2.51999998
   20.60305595   -1.00000000    4.90999985    2.51999998
   20.60639000   -1.00000000    4.90999985    2.51999998
   20.60972214   -1.00000000    4.90999985    2.51999998
   20.61277771   -1.00000000    4.90999985    2.51999998
   20.61611176   -1.00000000    4.90999985    2.51999998
   20.61944389   -1.00000000    4.90999985    2.51999998
   20.62249947   -1.00000000    4.90999985    2.50000000
   20.63277817   -1.00000000    4.90999985    2.51999998
   20.63611031   -1.00000000    4.90999985    2.50000000
   20.63972282   -1.00000000    4.90999985    2.51999998
   20.64305496   -1.00000000    4.90999985    2.51999998
   20.64611053   -1.00000000    4.90999985    2.51999998
   20.64944458   -1.00000000    4.90999985    2.51999998
   20.65277672   -1.00000000    4.90999985    2.50000000
   20.65583229   -1.00000000    4.90999985    2.50000000
   20.65916634   -1.00000000    4.90999985    2.50000000
   20.66222191   -1.00000000    4.90999985    2.50000000
   20.66555595   -1.00000000    4.90999985    2.50000000
   20.67583275   -1.00000000    4.90999985    2.50000000
   20.67888832   -1.00000000    4.90999985    2.50000000
   20.68222237   -1.00000000    4.90999985    2.51999998
   20.68555450   -1.00000000    4.90999985    2.50000000
   20.68861008   -1.00000000    4.90999985    2.48000002
   20.69194412   -1.00000000    4.90999985    2.50000000
   20.69527626   -1.00000000    4.90999985    2.50000000
   20.69833183   -1.00000000    4.90999985    2.50000000
   20.70166779   -1.00000000    4.90999985    2.50000000
   20.70527840   -1.00000000    4.90999985    2.50000000
   20.70861244   -1.00000000    4.90999985    2.48000002
   20.71861076   -1.00000000    4.90999985    2.50000000
   20.72194481   -1.00000000    4.90999985    2.48000002
   20.72500038   -1.00000000    4.90999985    2.50000000
   20.72833443   -1.00000000    4.90999985    2.50000000
   20.73166656   -1.00000000    4.90999985    2.50000000
   20.73472214   -1.00000000    4.90999985    2.48000002
   20.73833275   -1.00000000    4.90999985    2.50000000
   20.74166679   -1.00000000    4.90999985    2.50000000
   20.74472237   -1.00000000    4.90999985    2.48000002
   20.74805641   -1.00000000    4.90999985    2.50000000
   20.75138855   -1.00000000    4.90999985    2.48000002
   20.76138878   -1.00000000    4.90999985    2.48000002
   20.76472282   -1.00000000    4.90999985    2.46000004
   20.76805496   -1.00000000    4.90999985    2.46000004
   20.77138901   -1.00000000    4.90999985    2.46000004
   20.77472115   -1.00000000    4.90999985    2.46000004
   20.77777672   -1.00000000    4.90999985    2.46000004
   20.78111076   -1.00000000    4.90999985    2.46000004
   20.78444481   -1.00000000    4.90999985    2.46000004
   20.78750038   -1.00000000    4.90999985    2.46000004
   20.79083252   -1.00000000    4.90999985    2.46000004
   20.79388809   -1.00000000    4.90999985    2.46000004
   20.80472183   -1.00000000    4.90999985    2.46000004
   20.80805397   -1.00000000    4.90999985    2.46000004
   20.81110954   -1.00000000    4.90999985    2.46000004
   20.81444359   -1.00000000    4.90999985    2.44000006
   20.81777954   -1.00000000    4.90999985    2.46000004
   20.82083511   -1.00000000    4.90999985    2.44000006
   20.82416725   -1.00000000    4.90999985    2.44000006
   20.82722282   -1.00000000    4.90999985    2.44000006
   20.83055687   -1.00000000    4.90999985    2.44000006
   20.83388901   -1.00000000    4.90999985    2.46000004
   20.83694458   -1.00000000    4.90999985    2.44000006
   20.84722328   -1.00000000    4.90999985    2.44000006
   20.85027885   -1.00000000    4.90999985    2.42000008
   20.85361099   -1.00000000    4.90999985    2.44000006
   20.85694504   -1.00000000    4.90999985    2.44000006
   20.86000061   -1.00000000    4.90999985    2.42000008
   20.86333466   -1.00000000    4.90999985    2.42000008
   20.86666679   -1.00000000    4.90999985    2.42000008
   20.86972237   -1.00000000    4.90999985    2.42000008
   20.87333298   -1.00000000    4.90999985    2.42000008
   20.87666702   -1.00000000    4.90999985    2.42000008
   20.87972260   -1.00000000    4.90999985    2.42000008
   20.88999939   -1.00000000    4.90999985    2.42000008
   20.89333344   -1.00000000    4.90999985    2.40000010
   20.89638901   -1.00000000    4.90999985    2.42000008
   20.89972115   -1.00000000    4.90999985    2.42000008
   20.90277672   -1.00000000    4.90999985    2.40000010
   20.90638924   -1.00000000    4.90999985    2.40000010
   20.90972137   -1.00000000    4.90999985    2.40000010
   20.91277695   -1.00000000    4.90999985    2.42000008
   20.91611099   -1.00000000    4.90999985    2.40000010
   20.91944313   -1.00000000    4.90999985    2.40000010
   20.92249870   -1.00000000    4.90999985    2.40000010
   20.93277740   -1.00000000    4.90999985    2.40000010
   20.93610954   -1.00000000    4.90999985    2.40000010
   20.93944359   -1.00000000    4.90999985    2.40000010
   20.94277763   -1.00000000    4.90999985    2.39000010
   20.94583321   -1.00000000    4.90999985    2.39000010
   20.94916534   -1.00000000    4.90999985    2.39000010
   20.95250130   -1.00000000    4.90999985    2.39000010
   20.95555687   -1.00000000    4.90999985    2.39000010
   20.95888901   -1.00000000    4.90999985    2.39000010
   20.96222305   -1.00000000    4.90999985    2.39000010
   20.96527863   -1.00000000    4.90999985    2.39000010
   20.97555542   -1.00000000    4.90999985    2.39000010
   20.97888947   -1.00000000    4.90999985    2.40000010
   20.98222351   -1.00000000    4.90999985    2.40000010
   20.98527718   -1.00000000    4.90999985    2.40000010
   20.98861122   -1.00000000    4.90999985    2.42000008
   20.99194527   -1.00000000    4.90999985    2.42000008
   20.99500084   -1.00000000    4.90999985    2.44000006
   20.99833298   -1.00000000    4.90999985    2.42000008
   21.00138855   -1.00000000    4.90999985    2.44000006
   21.00499916   -1.00000000    4.90999985    2.46000004
   21.00833321   -1.00000000    4.90999985    2.46000004
   21.01861000   -1.00000000    4.90999985    2.42000008
   21.02166557   -1.00000000    4.90999985    2.15000010
   21.02499962   -1.00000000    4.90999985    1.83000004
   21.02833366   -1.00000000    4.90999985    1.80999994
   21.03138924   -1.00000000    4.90999985    2.09999990
   21.03472137   -1.00000000    4.90999985    2.15000010
   21.03805542   -1.00000000    4.90999985    2.05999994
   21.04138756   -1.00000000    4.90999985    2.19000006
   21.04444313   -1.00000000    4.90999985    2.26999998
   21.04777718   -1.00000000    4.90999985    2.26999998
   21.05111122   -1.00000000    4.90999985    2.30999994
   21.06138802   -1.00000000    0.40000001    0.31999999
   21.06472206   -1.00000000    0.20999999    0.13000000
   21.06777954   -1.00000000    0.20999999    0.13000000
   21.07139015   -1.00000000    0.20999999    0.13000000
   21.07472229   -1.00000000    0.20999999    0.13000000
   21.07777786   -1.00000000    0.20999999    0.13000000
   21.08111191   -1.00000000    0.20999999    0.13000000
   21.08444595   -1.00000000    0.20999999    0.13000000
   21.08750153   -1.00000000    0.20999999    0.13000000
   21.09083366   -1.00000000    0.20999999    0.13000000
   21.09416771   -1.00000000    0.20999999    0.13000000
   21.10416794   -1.00000000    0.20999999    0.13000000
   21.10805511   -1.00000000    0.20999999    0.13000000
   21.11111069   -1.00000000    0.20999999    0.13000000
   21.11444473   -1.00000000    0.20999999    0.13000000
   21.11750031   -1.00000000    0.20999999    0.13000000
   21.12083435   -1.00000000    0.20999999    0.13000000
   21.12416649   -1.00000000    0.20999999    0.13000000
   21.12722206   -1.00000000    0.20999999    0.13000000
   21.13055611   -1.00000000    0.20999999    0.13000000
   21.13388824   -1.00000000    0.20999999    0.13000000
   21.13694382   -1.00000000    0.20999999    0.13000000
   21.14722252   -1.00000000    0.20999999    0.13000000
   21.15027809   -1.00000000    0.20999999    0.13000000
   21.15361023   -1.00000000    0.20999999    0.13000000
   21.15666580   -1.00000000    0.20999999    0.13000000
   21.15999985   -1.00000000    0.20999999    0.13000000
   21.16333389   -1.00000000    0.20999999    0.13000000
   21.16638756   -1.00000000    0.20999999    0.13000000
   21.16972160   -1.00000000    0.20999999    0.13000000
   21.17333221   -1.00000000    0.20999999    0.13000000
