    HOUR (UT)   FLARE FACTOR    SKY TESTER    SUN TESTER
   10.83027744   -1.00000000   -1.00000000   -1.00000000
   11.17472267   81.50440216    4.90999985    2.25000000
   11.17805576   83.60189819    4.90999985    2.25000000
   11.18111134   -1.00000000    4.90999985    2.25000000
   11.18444443   82.51930237    4.90999985    2.25000000
   11.18777752   81.72769928    4.90999985    2.25000000
   11.19083309   85.55539703    4.90999985    2.26999998
   11.19499969   85.55539703    4.90999985    2.26999998
   11.19916630   84.97180176    4.90999985    2.26999998
   11.20249939   79.93869781    4.90999985    2.26999998
   11.20555496   83.49120331    4.90999985    2.26999998
   11.20777798   82.36799622    4.90999985    2.26999998
   11.20944405   81.13980103    4.90999985    2.26999998
   11.21249962   82.02829742    4.90999985    2.26999998
   11.21583271   81.32399750    4.90999985    2.26999998
   11.21916580   82.09999847    4.90999985    2.28999996
   11.22222137   83.07579803    4.90999985    2.26999998
   11.22555542   86.27140045    4.90999985    2.26999998
   11.22861099   80.83409882    4.90999985    2.26999998
   11.23222160   82.22789764    4.90999985    2.26999998
   11.23777771   82.22789764    4.90999985    2.28999996
   11.24194431   84.37629700    4.90999985    2.28999996
   11.24527836   89.69969940    4.90999985    2.28999996
   11.24861145   83.45510101    4.90999985    2.30999994
   11.25166702   82.65229797    4.90999985    2.28999996
   11.25500011   84.68350220    4.90999985    2.28999996
   11.25833321   85.79070282    4.90999985    2.28999996
   11.26138878   84.41139984    4.90999985    2.28999996
   11.26472187   87.18099976    4.90999985    2.28999996
   11.26805496   82.74089813    4.90999985    2.28999996
   11.27111053   82.78070068    4.90999985    2.28999996
   11.27444458   80.71600342    4.90999985    2.30999994
   11.27499962   83.03620148    4.90999985    2.30999994
   11.28083324   83.03620148    4.90999985    2.30999994
   11.28472233   84.43509674    4.90999985    2.30999994
   11.28805637   85.25360107    4.90999985    2.30999994
   11.29138947   84.54389954    4.90999985    2.30999994
   11.29444504   85.10729980    4.90999985    2.30999994
   11.29777813   84.28649902    4.90999985    2.30999994
   11.30111122   84.57019806    4.90999985    2.30999994
   11.30416679   84.09279633    4.90999985    2.30999994
   11.30749989   86.09619904    4.90999985    2.30999994
   11.30805588   79.49310303    4.90999985    2.30999994
   11.31111145   86.31379700    4.90999985    2.30999994
   11.31444454   86.29229736    4.90999985    2.32999992
   11.31777763   81.80789948    4.90999985    2.32999992
   11.34138870   85.22160339    4.90999985    2.32999992
   11.34472179   81.73259735    4.90999985    2.32999992
   11.34805489   82.22119904    4.90999985    2.32999992
   11.35111141   84.18199921    4.90999985    2.32999992
   11.35444450   86.99050140    4.90999985    2.34999990
   11.35777855   87.86250305    4.90999985    2.32999992
   11.36166668   87.86250305    4.90999985    2.34999990
   11.36583328   83.04720306    4.90999985    2.34999990
   11.36916637   81.26370239    4.90999985    2.34999990
   11.37250042   87.32969666    4.90999985    2.34999990
   11.37472248   81.98919678    4.90999985    2.34999990
   11.37611103   83.10289764    4.90999985    2.34999990
   11.37916660   80.35649872    4.90999985    2.34999990
   11.38249969   79.72290039    4.90999985    2.34999990
   11.38583279   82.67910004    4.90999985    2.34999990
   11.38888836   81.09929657    4.90999985    2.34999990
   11.39222240   80.19779968    4.90999985    2.34999990
   11.39555550   81.57620239    4.90999985    2.34999990
   11.39861107   80.80020142    4.90999985    2.34999990
   11.40472221   80.80020142    4.90999985    2.34999990
   11.40888882   82.15579987    4.90999985    2.36999989
   11.41194439   82.34349823    4.90999985    2.36999989
   11.41527748   81.71820068    4.90999985    2.36999989
   11.41833401   78.52210236    4.90999985    2.36999989
   11.42166710   82.90429688    4.90999985    2.39000010
   11.42500019   84.09179688    4.90999985    2.36999989
   11.42833328   82.31130219    4.90999985    2.36999989
   11.43138885   81.71170044    4.90999985    2.36999989
   11.43472195   85.90090179    4.90999985    2.36999989
   11.43777752   81.86669922    4.90999985    2.36999989
   11.44111156   84.91979980    4.90999985    2.36999989
   11.44166660   82.43129730    4.90999985    2.36999989
   11.44750023   82.43129730    4.90999985    2.39000010
   11.45166683   80.35859680    4.90999985    2.39000010
   11.45472240   76.91030121    4.90999985    2.39000010
   11.45805550   80.04519653    4.90999985    2.39000010
   11.46138859   79.49459839    4.90999985    2.39000010
   11.46444416   82.78929901    4.90999985    2.39000010
   11.46777725   79.78309631    4.90999985    2.39000010
   11.47111034   84.18900299    4.90999985    2.39000010
   11.47416592   84.29789734    4.90999985    2.39000010
   11.47499943   82.77100372    4.90999985    2.39000010
   11.47805500   81.27030182    4.90999985    2.39000010
   11.48111057   80.29180145    4.90999985    2.39000010
   11.48444462   82.06849670    4.90999985    2.40000010
   11.49027824   82.06849670    4.90999985    2.39000010
   11.49444485   81.04350281    4.90999985    2.40000010
   11.49777794   80.01129913    4.90999985    2.40000010
   11.50083351   83.14080048    4.90999985    2.39000010
   11.50416660   83.43530273    4.90999985    2.40000010
   11.50749969   84.20149994    4.90999985    2.40000010
   11.50833321   82.59030151    4.90999985    2.39000010
   11.51111126   80.73349762    4.90999985    2.39000010
   11.51416683   79.78389740    4.90999985    2.39000010
   11.51749992   81.92130280    4.90999985    2.40000010
   11.52083302   80.47429657    4.90999985    2.40000010
   11.52388859   79.35639954    4.90999985    2.40000010
   11.52722168   80.73860168    4.90999985    2.40000010
   11.53305531   80.73860168    4.90999985    2.40000010
   11.53722286   80.84490204    4.90999985    2.40000010
   11.54055595   83.62380219    4.90999985    2.40000010
   11.54166698   85.81549835    4.90999985    2.40000010
   11.54416752   79.00900269    4.90999985    2.40000010
   11.54722309   81.09500122    4.90999985    2.40000010
   11.55055618   82.48229980    4.90999985    2.40000010
   11.55388927   82.62560272    4.90999985    2.40000010
   11.55694485   82.97869873    4.90999985    2.40000010
   11.56027794   84.47519684    4.90999985    2.40000010
   11.56333351   78.80000305    4.90999985    2.42000008
   11.56666660   81.46869659    4.90999985    2.40000010
   11.56999969   82.87030029    4.90999985    2.42000008
   11.57611084   82.87030029    4.90999985    2.42000008
   11.58027744   85.03510284    4.90999985    2.42000008
   11.58333302   81.68789673    4.90999985    2.42000008
   11.58666611   82.49040222    4.90999985    2.42000008
   11.58972168   83.69319916    4.90999985    2.42000008
   11.59305477   80.15879822    4.90999985    2.42000008
   11.59638882   85.03340149    4.90999985    2.44000006
   11.59944439   84.37490082    4.90999985    2.42000008
   11.60277843   80.99729919    4.90999985    2.42000008
   11.60611153   83.56590271    4.90999985    2.42000008
   11.60833359   83.25769806    4.90999985    2.42000008
   11.60972214   81.17669678    4.90999985    2.44000006
   11.61277771   84.90370178    4.90999985    2.44000006
   11.61888885   84.90370178    4.90999985    2.42000008
   11.62305546   83.13140106    4.90999985    2.44000006
   11.62611103   80.57759857    4.90999985    2.44000006
   11.62944412   81.80509949    4.90999985    2.44000006
   11.63277817   84.61060333    4.90999985    2.44000006
   11.63583279   80.16790009    4.90999985    2.42000008
   11.63916683   79.57779694    4.90999985    2.44000006
   11.64166641   87.57900238    4.90999985    2.42000008
   11.64277744   81.07929993    4.90999985    2.44000006
   11.64583302   75.13829803    4.90999985    2.44000006
   11.64916611   82.42669678    4.90999985    2.44000006
   11.65249920   81.21140289    4.90999985    2.44000006
   11.65555477   85.42780304    4.90999985    2.44000006
   11.66166592   85.42780304    4.90999985    2.44000006
   11.66583252   81.69799805    4.90999985    2.44000006
   11.66916656   81.73259735    4.90999985    2.44000006
   11.67222214   79.73709869    4.90999985    2.44000006
   11.67500019   76.93920135    4.90999985    2.44000006
   11.67611122   78.83719635    4.90999985    2.46000004
   11.67916679   77.93139648    4.90999985    2.46000004
   11.68249989   80.78240204    4.90999985    2.46000004
   11.68555546   84.28440094    4.90999985    2.44000006
   11.68888855   81.44869995    4.90999985    2.46000004
   11.69222260   80.45839691    4.90999985    2.46000004
   11.69527817   85.81379700    4.90999985    2.44000006
   11.69861126   81.57910156    4.90999985    2.46000004
   11.70444393   81.57910156    4.90999985    2.46000004
   11.70861053   78.03659821    4.90999985    2.46000004
   11.71194458   78.28890228    4.90999985    2.46000004
   11.71500015   80.07469940    4.90999985    2.46000004
   11.71833324   78.85189819    4.90999985    2.46000004
   11.72166634   82.30090332    4.90999985    2.46000004
   11.72472191   80.46510315    4.90999985    2.46000004
   11.72805500   79.56780243    4.90999985    2.46000004
   11.73138809   75.86540222    4.90999985    2.46000004
   11.73444462   79.68389893    4.90999985    2.48000002
   11.73777771   81.49620056    4.90999985    2.46000004
   11.74111176   84.08480072    4.90999985    2.46000004
   11.74166679   85.38690186    4.90999985    2.46000004
   11.74750042   85.38690186    4.90999985    2.46000004
   11.75166702   75.77749634    4.90999985    2.46000004
   11.75472260   77.35060120    4.90999985    2.46000004
   11.75805569   79.63150024    4.90999985    2.46000004
   11.76111126   76.59069824    4.90999985    2.46000004
   11.76444435   78.69450378    4.90999985    2.48000002
   11.76777744   79.92780304    4.90999985    2.48000002
   11.77083302   76.89929962    4.90999985    2.48000002
   11.77416611   79.35449982    4.90999985    2.48000002
   11.77499962   80.11799622    4.90999985    2.48000002
   11.77777767   82.75469971    4.90999985    2.48000002
   11.78083324   78.10669708    4.90999985    2.50000000
   11.78416729   78.28299713    4.90999985    2.48000002
   11.79027843   78.28299713    4.90999985    2.48000002
   11.79444504   80.29460144    4.90999985    2.48000002
   11.79750061   79.90899658    4.90999985    2.48000002
   11.80083370   80.20970154    4.90999985    2.48000002
   11.80416679   78.59600067    4.90999985    2.48000002
   11.80722237   82.08709717    4.90999985    2.50000000
   11.80833340   82.49729919    4.90999985    2.48000002
   11.81111145   81.74099731    4.90999985    2.50000000
   11.81416702   85.86990356    4.90999985    2.48000002
   11.81750011   97.93720245    4.90999985    2.50000000
   11.82083321   94.00289917    4.90999985    2.50000000
   11.82388878  102.81300354    4.90999985    2.50000000
   11.82722187   93.09300232    4.90999985    2.50000000
   11.83305550   93.09300232    4.90999985    2.50000000
   11.83722210   90.35710144    4.90999985    2.50000000
   11.84055519   83.03949738    4.90999985    2.50000000
   11.84166622   88.88390350    4.90999985    2.50000000
   11.84416676   86.41110229    4.90999985    2.50000000
   11.84722233   86.00309753    4.90999985    2.50000000
   11.85055637   91.68579865    4.90999985    2.50000000
   11.85388947   86.27339935    4.90999985    2.50000000
   11.85694504   91.52390289    4.90999985    2.50000000
   11.86027813   87.91549683    4.90999985    2.50000000
   11.86333370   88.39810181    4.90999985    2.50000000
   11.86666679   86.12449646    4.90999985    2.50000000
   11.86999989   85.81500244    4.90999985    2.50000000
   11.87583351   85.81500244    4.90999985    2.50000000
   11.88000011   79.47100067    4.90999985    2.50000000
   11.88333321   89.12830353    4.90999985    2.50000000
   11.88638878   88.66200256    4.90999985    2.51999998
   11.88972187   92.26580048    4.90999985    2.51999998
   11.89305496   84.75450134    4.90999985    2.50000000
   11.89611053   84.24819946    4.90999985    2.50000000
   11.89944458   97.55319977    4.90999985    2.50000000
   11.90277767  100.62999725    4.90999985    2.50000000
   11.90583324  100.22799683    4.90999985    2.51999998
   11.90833282   92.19190216    4.90999985    2.51999998
   11.90972137   94.35900116    4.90999985    2.51999998
   11.91277695   84.74539948    4.90999985    2.51999998
   11.91888905   84.74539948    4.90999985    2.50000000
   11.92277813   87.40399933    4.90999985    2.51999998
   11.92611122   87.70880127    4.90999985    2.51999998
   11.92944431   97.12860107    4.90999985    2.51999998
   11.93249989   91.05439758    4.90999985    2.51999998
   11.93583298   90.94370270    4.90999985    2.51999998
   11.93888855   85.36499786    4.90999985    2.51999998
   11.94166660   87.72519684    4.90999985    2.51999998
   11.94277763   90.10980225    4.90999985    2.51999998
   11.94583321   85.76470184    4.90999985    2.51999998
   11.94916630   87.89240265    4.90999985    2.53999996
   11.95249939   89.13719940    4.90999985    2.53999996
   11.95555496   87.50820160    4.90999985    2.51999998
   11.96166611   87.50820160    4.90999985    2.51999998
   11.96583271   89.20939636    4.90999985    2.51999998
   11.96888828   88.40769958    4.90999985    2.51999998
   11.97222137   80.78430176    4.90999985    2.53999996
   11.97499943   81.13130188    4.90999985    2.51999998
   11.97583294   84.43489838    4.90999985    2.51999998
   11.97888851   83.06929779    4.90999985    2.55999994
   11.98222160   82.03720093    4.90999985    2.53999996
   11.98555565   81.78530121    4.90999985    2.53999996
   11.98861122   85.84249878    4.90999985    2.51999998
   11.99194431   83.56539917    4.90999985    2.53999996
   11.99499989   83.40390015    4.90999985    2.53999996
   11.99833393   83.21350098    4.90999985    2.51999998
   12.00444412   83.21350098    4.90999985    2.53999996
   12.00861073   80.04740143    4.90999985    2.53999996
   12.01166630   81.58930206    4.90999985    2.53999996
   12.01500034   78.65039825    4.90999985    2.53999996
   12.01833344   82.60839844    4.90999985    2.53999996
   12.02138901   82.04460144    4.90999985    2.51999998
   12.02472210   81.19819641    4.90999985    2.53999996
   12.02805519   76.46420288    4.90999985    2.53999996
   12.03111076   78.99849701    4.90999985    2.53999996
   12.03444481   78.83100128    4.90999985    2.53999996
   12.03750038   81.84269714    4.90999985    2.53999996
   12.04083347   78.14299774    4.90999985    2.51999998
   12.04166698   83.34519958    4.90999985    2.53999996
   12.04722309   83.34519958    4.90999985    2.55999994
   12.05138874   81.24210358    4.90999985    2.55999994
   12.05472279   76.45670319    4.90999985    2.55999994
   12.05777836   86.37380219    4.90999985    2.53999996
   12.06111145   75.24700165    4.90999985    2.53999996
   12.06444454   78.53099823    4.90999985    2.53999996
   12.06750011   80.58020020    4.90999985    2.55999994
   12.07083321   80.84590149    4.90999985    2.55999994
   12.07388878   78.04479980    4.90999985    2.55999994
   12.07499981   78.40709686    4.90999985    2.55999994
   12.07777786   76.61830139    4.90999985    2.55999994
   12.08083344   82.81240082    4.90999985    2.53999996
   12.08416653   80.66500092    4.90999985    2.55999994
   12.09027767   80.66500092    4.90999985    2.55999994
   12.09416676   77.29470062    4.90999985    2.55999994
   12.09749985   78.41799927    4.90999985    2.55999994
   12.10083389   77.57420349    4.90999985    2.55999994
   12.10388947   83.83509827    4.90999985    2.55999994
   12.10722256   80.99649811    4.90999985    2.55999994
   12.10833359   77.83070374    4.90999985    2.55999994
   12.11083412   78.15360260    4.90999985    2.57999992
   12.11416721   75.79000092    4.90999985    2.55999994
   12.11722279   78.77680206    4.90999985    2.57999992
   12.12055588   77.81809998    4.90999985    2.57999992
   12.12361145   76.00650024    4.90999985    2.57999992
   12.12694454   79.62329865    4.90999985    2.55999994
   12.13305569   79.62329865    4.90999985    2.55999994
   12.13722229   78.84169769    4.90999985    2.57999992
   12.14027786   79.62729645    4.90999985    2.57999992
   12.14166641   79.94619751    4.90999985    2.57999992
   12.14388847   76.56199646    4.90999985    2.57999992
   12.14722252   79.26889801    4.90999985    2.57999992
   12.15027714   81.98629761    4.90999985    2.57999992
   12.15361118   76.65679932    4.90999985    2.57999992
   12.15666676   80.75939941    4.90999985    2.57999992
   12.15999985   77.88449860    4.90999985    2.57999992
   12.16333294   79.23729706    4.90999985    2.57999992
   12.16638851   81.46820068    4.90999985    2.57999992
   12.16972256   77.42240143    4.90999985    2.57999992
   12.17583370   77.42240143    4.90999985    2.57999992
   12.18000031   83.45760345    4.90999985    2.57999992
   12.18333340   79.43250275    4.90999985    2.57999992
   12.18638897   78.44580078    4.90999985    2.57999992
   12.18972206   79.65489960    4.90999985    2.57999992
   12.19305515   79.76920319    4.90999985    2.57999992
   12.19611073   79.07350159    4.90999985    2.57999992
   12.19944477   78.47139740    4.90999985    2.59999990
   12.20277786   78.32879639    4.90999985    2.59999990
   12.20583344   76.19550323    4.90999985    2.57999992
   12.20833302   77.22129822    4.90999985    2.57999992
   12.20944405   79.07969666    4.90999985    2.59999990
   12.21249962   78.73660278    4.90999985    2.59999990
   12.21861076   78.73660278    4.90999985    2.57999992
   12.22277737   76.91269684    4.90999985    2.59999990
   12.22611046   78.21900177    4.90999985    2.59999990
   12.22916603   79.26809692    4.90999985    2.59999990
   12.23249912   81.08979797    4.90999985    2.59999990
   12.23583317   77.42330170    4.90999985    2.59999990
   12.23888874   79.75820160    4.90999985    2.59999990
   12.24166679   77.53350067    4.90999985    2.59999990
   12.24277782   79.28399658    4.90999985    2.57999992
   12.24583340   79.92279816    4.90999985    2.59999990
   12.24916649   77.44869995    4.90999985    2.59999990
   12.25249958   77.68640137    4.90999985    2.59999990
   12.25555515   80.30960083    4.90999985    2.59999990
   12.26166630   80.30960083    4.90999985    2.57999992
   12.26555538   77.60800171    4.90999985    2.57999992
   12.26888847   76.72059631    4.90999985    2.59999990
   12.27222157   84.63619995    4.90999985    2.57999992
   12.27499962   80.19020081    4.90999985    2.59999990
   12.27583313   80.05500031    4.90999985    2.59999990
   12.27888870   81.63110352    4.90999985    2.59999990
   12.28222179   87.32119751    4.90999985    2.57999992
   12.28555584   80.51090240    4.90999985    2.57999992
   12.28861141   73.93029785    4.90999985    2.59999990
   12.29194450   90.68730164    4.90999985    2.59999990
   12.29527855   95.34230042    4.90999985    2.61999989
   12.29833412  100.52500153    4.90999985    2.59999990
   12.30444431  100.52500153    4.90999985    2.59999990
   12.30861092   80.73549652    4.90999985    2.59999990
   12.31166649   87.15380096    4.90999985    2.59999990
   12.31500053   86.69020081    4.90999985    2.59999990
   12.31805515   78.38249969    4.90999985    2.61999989
   12.32138920   79.04180145    4.90999985    2.59999990
   12.32472229   82.58380127    4.90999985    2.59999990
   12.32777786  166.97799683    4.90999985    2.61999989
   12.33111095  184.14100647    4.90999985    2.61999989
   12.33444405  173.70899963    4.90999985    2.61999989
   12.33749962  175.61000061    4.90999985    2.61999989
   12.34083271  175.73699951    4.90999985    2.61999989
   12.34166622  180.50599670    4.90999985    2.61999989
   12.36250019  180.50599670    4.90999985    2.61999989
   12.36666679  171.80200195    4.90999985    2.61999989
   12.36972237  164.52099609    4.90999985    2.64000010
   12.37305546  171.54699707    4.90999985    2.61999989
   12.37500000  180.30299377    4.90999985    2.61999989
   12.37666702  164.82600403    4.90999985    2.61999989
   12.38000011  162.56900024    4.90999985    2.61999989
   12.38305569  182.00000000    4.90999985    2.61999989
   12.38638878  174.66400146    4.90999985    2.61999989
   12.38944435  152.98399353    4.90999985    2.61999989
   12.39277744  169.60499573    4.90999985    2.61999989
   12.39611053  166.30900574    4.90999985    2.61999989
   12.39916611  170.88900757    4.90999985    2.64000010
   12.40527725  170.88900757    4.90999985    2.64000010
   12.40944386  154.37399292    4.90999985    2.64000010
   12.41249943  150.00300598    4.90999985    2.61999989
   12.41583252  177.08599854    4.90999985    2.61999989
   12.41888905  156.72599792    4.90999985    2.61999989
   12.42222214  172.53300476    4.90999985    2.61999989
   12.42555618  166.58700562    4.90999985    2.61999989
   12.42861176  169.40699768    4.90999985    2.61999989
   12.43194485  167.36500549    4.90999985    2.61999989
   12.43527794  160.56199646    4.90999985    2.64000010
   12.43833351  164.28599548    4.90999985    2.64000010
   12.44166660  168.26600647    4.90999985    2.64000010
   12.44222260  164.85800171    4.90999985    2.64000010
   12.44805527  164.85800171    4.90999985    2.61999989
   12.45222187  169.09199524    4.90999985    2.64000010
   12.45527744  163.08799744    4.90999985    2.64000010
   12.45861053  179.67900085    4.90999985    2.64000010
   12.46194458  169.10099792    4.90999985    2.64000010
   12.46500015  168.23699951    4.90999985    2.64000010
   12.46833324  171.76300049    4.90999985    2.66000009
   12.47166634  174.25300598    4.90999985    2.64000010
   12.47472191  171.31300354    4.90999985    2.64000010
   12.47555542  166.72399902    4.90999985    2.64000010
   12.47833252  174.72300720    4.90999985    2.66000009
   12.48166656  171.78599548    4.90999985    2.64000010
   12.48500061  178.97700500    4.90999985    2.61999989
   12.49083328  178.97700500    4.90999985    2.64000010
   12.49499989  174.25100708    4.90999985    2.64000010
   12.49833393  158.58900452    4.90999985    2.64000010
   12.50138855  172.44200134    4.90999985    2.64000010
   12.50472260  160.63499451    4.90999985    2.64000010
   12.50805569  156.70300293    4.90999985    2.66000009
   12.50888920  166.52099609    4.90999985    2.66000009
   12.51138878  172.96299744    4.90999985    2.64000010
   12.51472187  161.54100037    4.90999985    2.64000010
   12.51805496  156.31599426    4.90999985    2.64000010
   12.52111053  165.26100159    4.90999985    2.64000010
   12.52444458  167.97799683    4.90999985    2.64000010
   12.52777767  155.14100647    4.90999985    2.64000010
   12.53361130  155.14100647    4.90999985    2.64000010
   12.53777790  167.99299622    4.90999985    2.64000010
   12.54111195  184.61900330    4.90999985    2.64000010
   12.54222298  170.61099243    4.90999985    2.64000010
   12.54472256  173.03399658    4.90999985    2.64000010
   12.54805565  165.19000244    4.90999985    2.66000009
   12.55138874  180.84399414    4.90999985    2.66000009
   12.55444431  174.46000671    4.90999985    2.64000010
   12.55777836  157.90899658    4.90999985    2.64000010
   12.56111145  174.04800415    4.90999985    2.64000010
   12.56416702  169.36900330    4.90999985    2.66000009
   12.56750011  187.03100586    4.90999985    2.66000009
   12.57055569  183.03900146    4.90999985    2.64000010
   12.57666683  183.03900146    4.90999985    2.66000009
   12.58083344  178.83599854    4.90999985    2.66000009
   12.58388901  172.26899719    4.90999985    2.66000009
   12.58722210  176.64700317    4.90999985    2.64000010
   12.59027767  170.26800537    4.90999985    2.64000010
   12.59361076  169.62600708    4.90999985    2.66000009
   12.59694386  182.60600281    4.90999985    2.66000009
   12.60000038  162.17199707    4.90999985    2.66000009
   12.60333347  161.62699890    4.90999985    2.66000009
   12.60666752  174.35499573    4.90999985    2.66000009
   12.60888958  168.22599792    4.90999985    2.66000009
   12.61000061  164.25599670    4.90999985    2.66000009
   12.61333370  152.95199585    4.90999985    2.66000009
   12.61944485  152.95199585    4.90999985    2.67000008
   12.62361145  171.28700256    4.90999985    2.66000009
   12.62666702  164.22999573    4.90999985    2.67000008
   12.63000011  182.90899658    4.90999985    2.64000010
   12.63333321  175.49899292    4.90999985    2.66000009
   12.63638878  170.48599243    4.90999985    2.66000009
   12.63972187  162.21499634    4.90999985    2.66000009
   12.64222240  166.22700500    4.90999985    2.66000009
   12.64333344  179.01600647    4.90999985    2.66000009
   12.64666653  159.81199646    4.90999985    2.67000008
   12.64999962  159.73899841    4.90999985    2.67000008
   12.65305519  162.50700378    4.90999985    2.67000008
   12.65638828  169.32200623    4.90999985    2.67000008
   12.66222191  169.32200623    4.90999985    2.66000009
   12.66638851  181.47200012    4.90999985    2.66000009
   12.66972256  169.08299255    4.90999985    2.66000009
   12.67277813  172.14399719    4.90999985    2.67000008
   12.67555618  179.41200256    4.90999985    2.66000009
   12.67638874  183.00599670    4.90999985    2.66000009
   12.67972279  157.00399780    4.90999985    2.66000009
   12.68305588  167.41999817    4.90999985    2.66000009
   12.68611145  169.02999878    4.90999985    2.66000009
   12.68944454  171.29299927    4.90999985    2.67000008
   12.69277763  175.19900513    4.90999985    2.67000008
   12.69583321  175.37500000    4.90999985    2.66000009
   12.69916630  160.41600037    4.90999985    2.67000008
   12.70499992  160.41600037    4.90999985    2.69000006
   12.70916653  176.82699585    4.90999985    2.67000008
   12.71249962  172.38699341    4.90999985    2.67000008
   12.71583271  172.90600586    4.90999985    2.67000008
   12.71888828  162.93499756    4.90999985    2.67000008
   12.72222137  175.90299988    4.90999985    2.67000008
   12.72527695  172.77699280    4.90999985    2.67000008
   12.72861099  172.70599365    4.90999985    2.66000009
   12.73194408  170.93600464    4.90999985    2.67000008
   12.73500061  157.63800049    4.90999985    2.67000008
   12.73833370  144.09599304    4.90999985    2.67000008
   12.74166679  152.87399292    4.90999985    2.67000008
   12.74222279  155.23899841    4.90999985    2.69000006
   12.74805546  155.23899841    4.90999985    2.69000006
   12.75222206  163.50100708    4.90999985    2.67000008
   12.75527763  157.78900146    4.90999985    2.69000006
   12.75861073  164.56100464    4.90999985    2.67000008
   12.76166630  157.70100403    4.90999985    2.71000004
   12.76500034  169.99899292    4.90999985    2.69000006
   12.76833344  173.39599609    4.90999985    2.67000008
   12.77138901  163.63999939    4.90999985    2.69000006
   12.77472210  156.31300354    4.90999985    2.69000006
   12.77555561  168.10600281    4.90999985    2.69000006
   12.77833271  156.41499329    4.90999985    2.69000006
   12.78138828  189.20300293    4.90999985    2.67000008
   12.78472233  164.93699646    4.90999985    2.69000006
   12.79083347  164.93699646    4.90999985    2.69000006
   12.79500008  186.27400208    4.90999985    2.69000006
   12.79805565  201.79299927    4.90999985    2.67000008
   12.80138874  235.26699829    4.90999985    2.69000006
   12.80472279  193.08900452    4.90999985    2.69000006
   12.80777836  185.89500427    4.90999985    2.69000006
   12.80888939  226.48500061    4.90999985    2.69000006
   12.81166649  197.01499939    4.90999985    2.69000006
   12.81472206  231.43600464    4.90999985    2.69000006
   12.81805515  216.05700684    4.90999985    2.69000006
   12.82111073  194.73199463    4.90999985    2.69000006
   12.82444477  172.70799255    4.90999985    2.69000006
   12.82777786  200.51899719    4.90999985    2.71000004
   12.83361053  200.51899719    4.90999985    2.69000006
   12.83777714  195.98800659    4.90999985    2.69000006
   12.84111118  204.40299988    4.90999985    2.69000006
   12.84222221  204.16700745    4.90999985    2.69000006
   12.84472179  208.11900330    4.90999985    2.69000006
   12.84777737  207.70399475    4.90999985    2.71000004
   12.85111141  215.94200134    4.90999985    2.69000006
   12.85416698  254.64100647    4.90999985    2.71000004
   12.85750008  282.35699463    4.90999985    2.69000006
   12.86083412  277.83099365    4.90999985    2.71000004
   12.86416721  321.58099365    4.90999985    2.69000006
   12.86722279  327.79000854    4.90999985    2.69000006
   12.87055588  314.14401245    4.90999985    2.71000004
   12.87638855  314.14401245    4.90999985    2.71000004
   12.88055611  297.98098755    4.90999985    2.71000004
   12.88388920  299.05599976    4.90999985    2.71000004
   12.88694477  318.49899292    4.90999985    2.71000004
   12.89027786  283.21301270    4.90999985    2.73000002
   12.89361095  289.64801025    4.90999985    2.71000004
   12.89666653  264.03399658    4.90999985    2.71000004
   12.89999962  224.29899597    4.90999985    2.71000004
   12.90333271  238.41999817    4.90999985    2.71000004
   12.90638828  229.11099243    4.90999985    2.71000004
   12.90888882  234.22599792    4.90999985    2.71000004
   12.91027737  246.94799805    4.90999985    2.71000004
   12.91333294  219.63600159    4.90999985    2.71000004
   12.91944504  219.63600159    4.90999985    2.71000004
   12.92361164  232.94400024    4.90999985    2.73000002
   12.92666721  230.21200562    4.90999985    2.75000000
   12.93000031  222.56100464    4.90999985    2.73000002
   12.93305588  220.16799927    4.90999985    2.73000002
   12.93638897  221.48199463    4.90999985    2.73000002
   12.93972206  200.78700256    4.90999985    2.71000004
   12.94222260  217.42300415    4.90999985    2.71000004
   12.94333363  239.45199585    4.90999985    2.71000004
   12.94638920  229.52999878    4.90999985    2.71000004
   12.94972229  228.68400574    4.90999985    2.71000004
   12.95305538  222.05299377    4.90999985    2.69000006
   12.95611095  225.06700134    4.90999985    2.71000004
   12.96222210  225.06700134    4.90999985    2.71000004
   12.96638870  201.55999756    4.90999985    2.73000002
   12.96944427  222.08399963    4.90999985    2.73000002
   12.97277737  223.71299744    4.90999985    2.71000004
   12.97555542  233.08099365    4.90999985    2.73000002
   12.97638798  218.97900391    4.90999985    2.71000004
   12.97944355  233.36000061    4.90999985    2.71000004
   12.98277760  236.29400635    4.90999985    2.73000002
   12.98583317  191.17300415    4.90999985    2.73000002
   12.98916721  211.16700745    4.90999985    2.73000002
   12.99250031  249.24499512    4.90999985    2.73000002
   12.99555588  211.49499512    4.90999985    2.73000002
   12.99888897  202.66799927    4.90999985    2.73000002
   13.00500011  202.66799927    4.90999985    2.73000002
   13.00916672  203.99499512    4.90999985    2.73000002
   13.01249981  207.06700134    4.90999985    2.71000004
   13.01555538  193.78900146    4.90999985    2.73000002
   13.01888847  222.99800110    4.90999985    2.75000000
   13.02194405  229.56399536    4.90999985    2.71000004
   13.02527714  198.74000549    4.90999985    2.73000002
   13.02861118  179.68600464    4.90999985    2.73000002
   13.03166676  203.10800171    4.90999985    2.73000002
   13.03500080  214.17199707    4.90999985    2.75000000
   13.03833389  202.38800049    4.90999985    2.75000000
   13.04138947  222.38900757    4.90999985    2.73000002
   13.04222298  213.96000671    4.90999985    2.75000000
   13.04777813  213.96000671    4.90999985    2.75000000
   13.05194473  196.29200745    4.90999985    2.73000002
   13.05527782  172.08500671    4.90999985    2.73000002
   13.05833340  183.77600098    4.90999985    2.73000002
   13.06166649  180.65299988    4.90999985    2.75000000
   13.06500053  203.62899780    4.90999985    2.75000000
   13.06805515  192.63200378    4.90999985    2.73000002
   13.07138920  156.53799438    4.90999985    2.73000002
   13.07472229  205.10800171    4.90999985    2.75000000
   13.07555580  191.54899597    4.90999985    2.73000002
   13.07833290  187.27299500    4.90999985    2.75000000
   13.08138847  201.99600220    4.90999985    2.75000000
   13.08472157  185.38299561    4.90999985    2.73000002
   13.09083271  185.38299561    4.90999985    2.75000000
   13.09472179  198.03700256    4.90999985    2.75000000
   13.09805489  160.74200439    4.90999985    2.75000000
   13.10138893  170.70899963    4.90999985    2.73000002
   13.10444450  176.54299927    4.90999985    2.75000000
   13.10777855  177.75199890    4.90999985    2.73000002
   13.10888958  185.33599854    4.90999985    2.75000000
   13.11138916  173.72799683    4.90999985    2.75000000
   13.11444473  202.03900146    4.90999985    2.75000000
   13.11777782  192.31900024    4.90999985    2.75000000
   13.12111092  191.83099365    4.90999985    2.75000000
   13.12416649  183.26400757    4.90999985    2.75000000
   13.12750053  185.58500671    4.90999985    2.75000000
   13.13361073  185.58500671    4.90999985    2.76999998
   13.13777733  217.19599915    4.90999985    2.75000000
   13.14083290  225.69999695    4.90999985    2.75000000
   13.14222240  197.96499634    4.90999985    2.75000000
   13.14472198  190.63200378    4.90999985    2.76999998
   13.14777756  200.20100403    4.90999985    2.75000000
   13.15111065  199.50700378    4.90999985    2.75000000
   13.15444374  204.19700623    4.90999985    2.73000002
   13.15749931  194.11999512    4.90999985    2.73000002
   13.16083336  198.80299377    4.90999985    2.75000000
   13.16388893  186.82099915    4.90999985    2.75000000
   13.16722298  171.87500000    4.90999985    2.75000000
   13.17055607  178.65499878    4.90999985    2.75000000
   13.17638874  178.65499878    4.90999985    2.75000000
   13.18055630  186.68400574    4.90999985    2.75000000
   13.18388939  180.40299988    4.90999985    2.75000000
   13.18694496  195.72599792    4.90999985    2.75000000
   13.19027805  165.46000671    4.90999985    2.75000000
   13.19333363  190.05200195    4.90999985    2.73000002
   13.19666672  180.06900024    4.90999985    2.73000002
   13.19999981  179.93400574    4.90999985    2.75000000
   13.20305538  186.04200745    4.90999985    2.75000000
   13.20638847  189.18299866    4.90999985    2.75000000
   13.20888901  181.24800110    4.90999985    2.75000000
   13.21000004  150.69099426    4.90999985    2.75000000
   13.21305561  161.56900024    4.90999985    2.75000000
   13.21916580  161.56900024    4.90999985    2.76999998
   13.22333336  180.07400513    4.90999985    2.75000000
   13.22666645  182.89599609    4.90999985    2.75000000
   13.22972202  175.16600037    4.90999985    2.75000000
   13.23305511  197.60699463    4.90999985    2.75000000
   13.23638916  164.43299866    4.90999985    2.75000000
   13.23944473  174.30299377    4.90999985    2.75000000
   13.24222279  182.82600403    4.90999985    2.75000000
   13.24333382  176.50599670    4.90999985    2.75000000
   13.24638939  178.76800537    4.90999985    2.76999998
   13.24972248  174.07800293    4.90999985    2.75000000
   13.25305557  169.72000122    4.90999985    2.75000000
   13.25611115  172.17199707    4.90999985    2.75000000
   13.26222229  172.17199707    4.90999985    2.75000000
   13.26611137  168.32400513    4.90999985    2.75000000
   13.26944447  158.83299255    4.90999985    2.75000000
   13.27277756  164.91499329    4.90999985    2.76999998
   13.27555561  157.89100647    4.90999985    2.76999998
   13.27638817  149.60200500    4.90999985    2.76999998
   13.27944374  152.75700378    4.90999985    2.75000000
   13.28277779  164.06399536    4.90999985    2.76999998
   13.28611183  155.39500427    4.90999985    2.76999998
   13.28916740  179.86900330    4.90999985    2.76999998
   13.29250050  154.72999573    4.90999985    2.76999998
   13.29583359  158.87199402    4.90999985    2.76999998
   13.29888916  165.76199341    4.90999985    2.75000000
   13.30500031  165.76199341    4.90999985    2.75000000
   13.30916691  150.59300232    4.90999985    2.76999998
   13.31222248  157.47900391    4.90999985    2.76999998
   13.31555557  162.54600525    4.90999985    2.73000002
   13.31888866  154.83700562    4.90999985    2.76999998
   13.32194424  157.08999634    4.90999985    2.75000000
   13.32527733  159.75999451    4.90999985    2.76999998
   13.32833290  168.47799683    4.90999985    2.78999996
   13.33166695  156.09399414    4.90999985    2.76999998
   13.33500004  161.50799561    4.90999985    2.76999998
   13.33805561  158.17799377    4.90999985    2.76999998
   13.34138870  154.68699646    4.90999985    2.76999998
   13.34222221  155.41200256    4.90999985    2.76999998
   13.34777737  155.41200256    4.90999985    2.78999996
   13.35194492  150.76400757    4.90999985    2.76999998
   13.35527802  160.48399353    4.90999985    2.78999996
   13.35833359  159.14300537    4.90999985    2.76999998
   13.37611103  156.76400757    4.90999985    2.76999998
   13.37833309  160.17199707    4.90999985    2.76999998
   13.38166714  169.20899963    4.90999985    2.78999996
   13.38472176  145.77499390    4.90999985    2.76999998
   13.39083290  145.77499390    4.90999985    2.78999996
   13.39499950  165.90100098    4.90999985    2.76999998
   13.39805508  159.13000488    4.90999985    2.78999996
   13.40138817  153.93200684    4.90999985    2.76999998
   13.40472221  165.28700256    4.90999985    2.76999998
   13.40777779  155.96400452    4.90999985    2.76999998
   13.40916634  161.76800537    4.90999985    2.78999996
   13.41166592  157.47500610    4.90999985    2.76999998
   13.41499996  157.69500732    4.90999985    2.76999998
   13.41805553  168.05099487    4.90999985    2.76999998
   13.42138958  162.17900085    4.90999985    2.76999998
   13.42444515  167.71800232    4.90999985    2.78999996
   13.42777824  179.83099365    4.90999985    2.78999996
   13.43361092  179.83099365    4.90999985    2.78999996
   13.43777752  179.69900513    4.90999985    2.78999996
   13.44111156  186.93899536    4.90999985    2.78999996
   13.44250011  190.15899658    4.90999985    2.76999998
   13.44472218  166.06100464    4.90999985    2.76999998
   13.44805527  178.71299744    4.90999985    2.78999996
   13.45111084  155.49400330    4.90999985    2.78999996
   13.45444393  205.59300232    4.90999985    2.78999996
   13.45749950  152.69599915    4.90999985    2.76999998
   13.46083355  179.53700256    4.90999985    2.78999996
   13.46416664  167.47799683    4.90999985    2.78999996
   13.46722221  163.80700684    4.90999985    2.78999996
   13.47055531  166.23800659    4.90999985    2.78999996
   13.47638798  166.23800659    4.90999985    2.78999996
   13.48055553  148.52299500    4.90999985    2.78999996
   13.48388958  151.38499451    4.90999985    2.78999996
   13.48722267  169.67799377    4.90999985    2.78999996
   13.49027824  155.21499634    4.90999985    2.76999998
   13.49361134  162.92500305    4.90999985    2.78999996
   13.49666691  150.64999390    4.90999985    2.78999996
   13.50000000  156.38099670    4.90999985    2.78999996
   13.50333309  161.08299255    4.90999985    2.78999996
   13.50638866  163.76699829    4.90999985    2.78999996
   13.50916672  152.81100464    4.90999985    2.80999994
   13.51000023  156.65699768    4.90999985    2.78999996
   13.51333332  165.28500366    4.90999985    2.78999996
   13.51944447  165.28500366    4.90999985    2.78999996
   13.52361107  165.18600464    4.90999985    2.78999996
   13.52666664  174.08399963    4.90999985    2.78999996
   13.52999973  173.50300598    4.90999985    2.78999996
   13.53305531  152.53300476    4.90999985    2.80999994
   13.53638935  164.75300598    4.90999985    2.78999996
   13.53972244  143.29499817    4.90999985    2.80999994
   13.54250050  143.36300659    4.90999985    2.78999996
   13.54333401  150.38000488    4.90999985    2.78999996
   13.54666710  156.00300598    4.90999985    2.76999998
   13.54972267  156.04699707    4.90999985    2.80999994
   13.55305576  154.55000305    4.90999985    2.80999994
   13.55638885  139.95799255    4.90999985    2.78999996
   13.56222248  139.95799255    4.90999985    2.80999994
   13.56638908  152.43400574    4.90999985    2.78999996
   13.56944466  160.65800476    4.90999985    2.80999994
   13.57277775  158.88600159    4.90999985    2.78999996
   13.57583332  151.58099365    4.90999985    2.78999996
   13.57638836  151.94299316    4.90999985    2.78999996
   13.57972240  149.35499573    4.90999985    2.78999996
   13.58277798  149.32299805    4.90999985    2.78999996
   13.58611107  146.92199707    4.90999985    2.78999996
   13.58916664  150.28799438    4.90999985    2.80999994
   13.59249973  152.15800476    4.90999985    2.78999996
   13.59583282  148.87899780    4.90999985    2.78999996
   13.59888840  151.44599915    4.90999985    2.78999996
   13.60500050  151.44599915    4.90999985    2.78999996
   13.60916710  168.06700134    4.90999985    2.78999996
   13.60972214  161.83700562    4.90999985    2.78999996
   13.61305618  173.08700562    4.90999985    2.78999996
   13.61611176  148.28500366    4.90999985    2.78999996
   13.61944485  168.28700256    4.90999985    2.78999996
   13.62250042  168.71000671    4.90999985    2.78999996
   13.62583351  169.60699463    4.90999985    2.80999994
   13.62916660  165.97999573    4.90999985    2.80999994
   13.63222218  160.69299316    4.90999985    2.80999994
   13.63555527  164.77699280    4.90999985    2.78999996
   13.63888836  143.08999634    4.90999985    2.80999994
   13.64194393  143.17900085    4.90999985    2.82999992
   13.64249992  143.57499695    4.90999985    2.82999992
   13.64777756  143.57499695    4.90999985    2.82999992
   13.65194416  146.83399963    4.90999985    2.80999994
   13.65527725  141.93600464    4.90999985    2.80999994
   13.65861034  139.70700073    4.90999985    2.80999994
   13.66166592  141.69799805    4.90999985    2.80999994
   13.66499996  159.30599976    4.90999985    2.80999994
   13.66805553  167.81799316    4.90999985    2.80999994
   13.67138958  166.52000427    4.90999985    2.80999994
   13.67472267  153.48800659    4.90999985    2.80999994
   13.67583370  149.77999878    4.90999985    2.80999994
   13.67833328  172.78100586    4.90999985    2.82999992
   13.68166733  160.30599976    4.90999985    2.82999992
   13.68472195  158.51600647    4.90999985    2.80999994
   13.69083309  158.51600647    4.90999985    2.80999994
   13.69499969  161.82499695    4.90999985    2.80999994
   13.69805527  150.99400330    4.90999985    2.80999994
   13.70138836  143.66099548    4.90999985    2.80999994
   13.70444393  149.02799988    4.90999985    2.80999994
   13.70777798  156.66299438    4.90999985    2.80999994
   13.70916653  153.75100708    4.90999985    2.80999994
   13.71138859  166.43800354    4.90999985    2.82999992
   13.71472168  152.73399353    4.90999985    2.82999992
   13.71777725  155.25799561    4.90999985    2.82999992
   13.72111034  144.81300354    4.90999985    2.80999994
   13.72444439  145.34899902    4.90999985    2.80999994
   13.72749996  149.00900269    4.90999985    2.80999994
   13.73361111  149.00900269    4.90999985    2.78999996
   13.73777771  152.19400024    4.90999985    2.80999994
   13.74083328  160.36399841    4.90999985    2.80999994
   13.74250031  153.89900208    4.90999985    2.78999996
   13.74444485  148.52299500    4.90999985    2.80999994
   13.74777794  157.54499817    4.90999985    2.78999996
   13.75083351  154.84399414    4.90999985    2.82999992
   13.75416660  152.43899536    4.90999985    2.80999994
   13.75749969  160.00399780    4.90999985    2.80999994
   13.76055527  155.29200745    4.90999985    2.80999994
   13.76388931  165.04100037    4.90999985    2.80999994
   13.76694393  169.29400635    4.90999985    2.82999992
   13.77027798  160.22999573    4.90999985    2.80999994
   13.77638817  160.22999573    4.90999985    2.80999994
   13.78055573  153.03599548    4.90999985    2.82999992
   13.78388977  155.63699341    4.90999985    2.82999992
   13.78694534  149.58500671    4.90999985    2.82999992
   13.79027843  148.22700500    4.90999985    2.80999994
   13.79361153  148.68800354    4.90999985    2.80999994
   13.79666710  148.94299316    4.90999985    2.80999994
   13.80000019  145.30400085    4.90999985    2.82999992
   13.80333328  149.53399658    4.90999985    2.82999992
   13.80638885  147.68400574    4.90999985    2.80999994
   13.80916691  166.76400757    4.90999985    2.80999994
   13.81000042  154.04299927    4.90999985    2.80999994
   13.81333351  157.74699402    4.90999985    2.80999994
   13.81916618  157.74699402    4.86999989    2.82999992
   13.82333374  163.58700562    4.84999990    2.82999992
   13.82666683  148.40100098    4.82999992    2.82999992
   13.82999992  159.69900513    4.84999990    2.82999992
   13.83305550  147.22799683    4.84999990    2.80999994
   13.83638859  147.79600525    4.84999990    2.82999992
   13.83944416  149.41400146    4.82999992    2.82999992
   13.84249973  149.10099792    4.82999992    2.82999992
   13.84305477  148.84500122    4.82999992    2.82999992
   13.84638882  157.14599609    4.84999990    2.82999992
   13.84944439  145.68699646    4.84999990    2.80999994
   13.85277843  151.21000671    4.86999989    2.82999992
   13.85611153  153.47099304    4.86999989    2.82999992
   13.86222267  153.47099304    4.84999990    2.82999992
   13.86638927  146.27900696    4.84999990    2.80999994
   13.86944485  148.17199707    4.84999990    2.80999994
   13.87277794  157.33999634    4.86999989    2.80999994
   13.87583351  149.54699707    4.88999987    2.82999992
   13.87638855  161.05799866    4.88999987    2.82999992
   13.87972260  152.53100586    4.88999987    2.80999994
   13.88277817  154.21800232    4.90999985    2.80999994
   13.88611126  165.48399353    4.90999985    2.80999994
   13.88944435  157.20500183    4.90999985    2.80999994
   13.89249992  153.78399658    4.90999985    2.82999992
   13.89583302  147.97599792    4.88999987    2.82999992
   13.89888859  154.94299316    4.88999987    2.82999992
   13.90499973  154.94299316    4.88999987    2.82999992
   13.90916634  155.96400452    4.90999985    2.82999992
   13.90972137  158.82600403    4.90999985    2.80999994
   13.91277695  156.41299438    4.90999985    2.82999992
   13.91611099  149.08900452    4.90999985    2.82999992
   13.91944504  163.49699402    4.90999985    2.82999992
   13.92250061  145.40100098    4.88999987    2.82999992
   13.92583370  149.05700684    4.86999989    2.82999992
   13.92916679  145.95700073    4.84999990    2.82999992
   13.93222237  155.20899963    4.86999989    2.82999992
   13.93555546  147.15800476    4.84999990    2.82999992
   13.93861103  146.31300354    4.80999994    2.82999992
   13.94194412  157.77200317    4.80000019    2.82999992
   13.94305515  146.55700684    4.78000021    2.82999992
   13.94777775  146.55700684    4.78000021    2.82999992
   13.95194435  160.37199402    4.76000023    2.82999992
   13.95527744  151.15600586    4.78000021    2.82999992
   13.95833302  163.66000366    4.78000021    2.84999990
   13.96166611  150.57499695    4.78000021    2.84999990
   13.96500015  150.48100281    4.78000021    2.82999992
   13.96805477  153.57600403    4.73999977    2.82999992
   13.97138882  158.18699646    4.71999979    2.84999990
   13.97472191  144.98500061    4.67999983    2.82999992
   13.97638798  146.25000000    4.69999981    2.82999992
   13.97805500  144.73500061    4.69999981    2.84999990
   13.98138809  146.85499573    4.69999981    2.82999992
   13.98472214  151.71099854    4.71999979    2.84999990
   13.99055576  151.71099854    4.69999981    2.82999992
   13.99472237  145.51600647    4.63999987    2.82999992
   13.99805546  150.58700562    4.61999989    2.84999990
   14.00138855  152.11700439    4.59999990    2.86999989
   14.00444412  139.30000305    4.57999992    2.84999990
   14.00777817  141.99400330    4.57999992    2.84999990
   14.00972176  149.97799683    4.57999992    2.84999990
   14.01138878  151.10499573    4.59999990    2.82999992
   14.01472187  153.37800598    4.61999989    2.84999990
   14.01805496  146.57299805    4.63999987    2.82999992
   14.02111053  149.96499634    4.65999985    2.82999992
   14.02444458  144.46499634    4.67999983    2.84999990
   14.02777767  154.36999512    4.69999981    2.82999992
   14.03361130  154.36999512    4.73999977    2.84999990
   14.03777790  149.97500610    4.73999977    2.84999990
   14.04083347  156.75999451    4.71999979    2.82999992
   14.04305553  152.16999817    4.69999981    2.84999990
   14.04444504  150.60499573    4.69999981    2.84999990
   14.04777813  151.60899353    4.65999985    2.84999990
   14.05111122  151.15600586    4.67999983    2.82999992
   14.05416679  153.67900085    4.69999981    2.82999992
   14.05749989  149.34100342    4.76000023    2.84999990
   14.06083393  160.60200500    4.78000021    2.84999990
   14.06388950  144.45700073    4.78000021    2.84999990
   14.06722260  152.27600098    4.78000021    2.82999992
   14.07027817  159.10699463    4.80000019    2.84999990
   14.07638836  159.10699463    4.82999992    2.82999992
   14.08055592  151.70199585    4.84999990    2.84999990
   14.08361053  162.30299377    4.88999987    2.82999992
   14.08694458  148.21299744    4.88999987    2.84999990
   14.09027767  148.96000671    4.90999985    2.82999992
   14.09333324  152.61599731    4.90999985    2.82999992
   14.09666634  145.46899414    4.90999985    2.82999992
   14.10000038  150.27400208    4.90999985    2.82999992
   14.10305595  156.81799316    4.90999985    2.84999990
   14.10638905  150.25199890    4.90999985    2.82999992
   14.10944462  151.43299866    4.90999985    2.84999990
   14.11000061  151.85200500    4.90999985    2.82999992
   14.11333370  157.08999634    4.90999985    2.84999990
   14.11916637  157.08999634    4.88999987    2.84999990
   14.12333393  155.60000610    4.90999985    2.82999992
   14.12666702  152.75399780    4.90999985    2.82999992
   14.12972260  145.01400757    4.90999985    2.82999992
   14.13305569  145.62500000    4.90999985    2.84999990
   14.13638878  147.63900757    4.90999985    2.82999992
   14.13944435  144.96600342    4.90999985    2.82999992
   14.14277744  157.27200317    4.88999987    2.82999992
   14.14333344  147.63200378    4.88999987    2.84999990
   14.14638901  152.22999573    4.88999987    2.82999992
   14.14972210  159.33900452    4.88999987    2.84999990
   14.15277767  142.50999451    4.88999987    2.82999992
   14.15611076  145.21699524    4.88999987    2.84999990
   14.16194439  145.21699524    4.88999987    2.84999990
   14.16611099  153.85899353    4.88999987    2.82999992
   14.16944504  145.69299316    4.90999985    2.84999990
   14.17277813  148.24400330    4.90999985    2.84999990
   14.17583370  152.61399841    4.90999985    2.82999992
   14.17666721  161.75799561    4.90999985    2.82999992
   14.17944431  146.70899963    4.90999985    2.82999992
   14.18277836  148.76600647    4.90999985    2.82999992
   14.18583298  144.78199768    4.90999985    2.84999990
   14.18916702  157.65400696    4.90999985    2.84999990
   14.19250011  146.35600281    4.90999985    2.82999992
   14.19555569  144.56599426    4.90999985    2.82999992
   14.19888878  151.67199707    4.90999985    2.84999990
   14.20499992  151.67199707    4.88999987    2.84999990
   14.20916653  152.35699463    4.88999987    2.84999990
   14.21000004  153.49299622    4.90999985    2.84999990
   14.21277714  153.67599487    4.90999985    2.82999992
   14.21611118  139.77099609    4.90999985    2.84999990
   14.21916580  146.79299927    4.90999985    2.82999992
   14.22249985  150.10800171    4.90999985    2.82999992
   14.22583294  153.86300659    4.90999985    2.84999990
   14.22888851  162.15299988    4.86999989    2.84999990
   14.23222160  150.25999451    4.84999990    2.82999992
   14.23527813  149.44400024    4.80999994    2.84999990
   14.23861122  141.51800537    4.80000019    2.84999990
   14.24194431  148.18400574    4.80000019    2.84999990
   14.24333382  150.06500244    4.80000019    2.84999990
   14.24777794  150.06500244    4.80000019    2.82999992
   14.25194454  153.46000671    4.76000023    2.84999990
   14.25500011  144.48300171    4.73999977    2.84999990
   14.25833321  154.35099792    4.73999977    2.84999990
   14.26166630  144.51699829    4.71999979    2.84999990
   14.26472187  154.38200378    4.69999981    2.84999990
   14.26805496  148.71600342    4.67999983    2.84999990
   14.27138901  154.32400513    4.65999985    2.84999990
   14.27444458  152.45700073    4.63999987    2.84999990
   14.27666664  154.56199646    4.61999989    2.84999990
   14.27805519  153.00199890    4.59999990    2.84999990
   14.28138828  161.68400574    4.57999992    2.84999990
   14.28444481  149.06399536    4.57999992    2.86999989
   14.29055595  149.06399536    4.59999990    2.84999990
   14.29472256  142.76800537    4.63999987    2.84999990
   14.29805565  156.10099792    4.65999985    2.84999990
   14.30111122  145.88200378    4.67999983    2.84999990
   14.30444431  141.68699646    4.71999979    2.84999990
   14.30777836  155.59500122    4.71999979    2.84999990
   14.31000042  152.33200073    4.73999977    2.84999990
   14.31138897  145.07800293    4.73999977    2.84999990
   14.31472206  150.02200317    4.71999979    2.84999990
   14.31777763  153.05799866    4.69999981    2.84999990
   14.32111073  152.84899902    4.69999981    2.84999990
   14.32444477  147.50399780    4.71999979    2.86999989
   14.32750034  140.08299255    4.73999977    2.84999990
   14.33333302  140.08299255    4.78000021    2.82999992
   14.33749962  146.23800659    4.73999977    2.84999990
   14.34083271  138.81199646    4.71999979    2.84999990
   14.34333324  145.76400757    4.69999981    2.84999990
   14.34444427  133.67900085    4.71999979    2.84999990
   14.34777737  143.02699280    4.67999983    2.86999989
   14.35083389  145.78999329    4.67999983    2.86999989
   14.35416698  151.04800415    4.65999985    2.86999989
   14.35750008  143.90400696    4.65999985    2.84999990
   14.36055565  149.81799316    4.65999985    2.84999990
   14.36388969  146.17399597    4.65999985    2.84999990
   14.36694431  151.86399841    4.65999985    2.84999990
   14.37027836  154.36399841    4.63999987    2.84999990
   14.37638855  154.36399841    4.59999990    2.86999989
   14.39472198  143.92300415    4.55999994    2.84999990
   14.39777756  154.61099243    4.53999996    2.84999990
   14.40111065  156.45700073    4.53000021    2.84999990
   14.40444374  137.87199402    4.53000021    2.84999990
   14.40749931  148.20199585    4.53000021    2.84999990
   14.41083336  142.67900085    4.53000021    2.84999990
   14.41416645  145.09599304    4.53000021    2.84999990
   14.41944504  145.09599304    4.55999994    2.84999990
   14.42361164  145.01400757    4.57999992    2.84999990
   14.42666721  136.82499695    4.57999992    2.86999989
   14.42777824  141.64599609    4.57999992    2.86999989
   14.43027782  137.93499756    4.59999990    2.86999989
   14.43361092  146.32600403    4.59999990    2.84999990
   14.43694496  146.16900635    4.59999990    2.84999990
   14.44000053  139.83299255    4.59999990    2.84999990
   14.44333363  143.60800171    4.57999992    2.84999990
   14.44666672  140.58500671    4.55999994    2.84999990
   14.44972229  142.57600403    4.57999992    2.84999990
   14.45305538  142.07299805    4.53999996    2.84999990
   14.45611095  142.22500610    4.53999996    2.84999990
   14.46222210  142.22500610    4.48999977    2.86999989
   14.46638870  140.61500549    4.42999983    2.86999989
   14.46972179  143.67500305    4.40999985    2.86999989
   14.47277737  142.80700684    4.40999985    2.86999989
   14.47611046  145.21499634    4.38999987    2.86999989
   14.47944355  140.77499390    4.34999990    2.86999989
   14.48249912  142.64300537    4.26999998    2.84999990
   14.48583317  144.20100403    4.21999979    2.86999989
   14.48916721  141.31799316    4.17999983    2.86999989
   14.49222279  140.67700195    4.13999987    2.89000010
   14.49444485  152.42100525    4.11999989    2.86999989
   14.49611092  147.41099548    4.07999992    2.86999989
   14.49916649  151.74000549    4.03999996    2.84999990
   14.50500011  151.74000549    4.00000000    2.86999989
   14.50916672  146.68400574    4.00000000    2.86999989
   14.51249981  139.33599854    3.95000005    2.86999989
   14.51555538  142.97099304    3.91000009    2.86999989
   14.51888847  135.18299866    3.89000010    2.86999989
   14.52222157  134.94799805    3.84999990    2.86999989
   14.52527714  146.15699768    3.75000000    2.89000010
   14.52777767  133.55000305    3.72000003    2.89000010
   14.52916622  140.61700439    3.72000003    2.89000010
   14.53222179  141.53199768    3.73000002    2.86999989
   14.53555584  133.00500488    3.68000007    2.89000010
   14.53861141  144.08500671    3.66000009    2.89000010
   14.54194450  140.94400024    3.70000005    2.89000010
   14.54777813  140.94400024    3.70000005    2.89000010
   14.55194473  136.72099304    3.66000009    2.86999989
   14.55527782  141.17799377    3.66000009    2.89000010
   14.55861092  142.08299255    3.68000007    2.86999989
   14.56111145  136.91999817    3.70000005    2.86999989
   14.56222248  136.72000122    3.70000005    2.89000010
   14.56527805  156.55599976    3.66000009    2.84999990
   14.56861115  147.90400696    3.61999989    2.86999989
   14.57166672  141.25000000    3.59999990    2.89000010
   14.57499981  145.90299988    3.57999992    2.89000010
   14.57833290  135.09899902    3.53999996    2.89000010
   14.58138847  145.35000610    3.48000002    2.89000010
   14.58472157  132.86799622    3.46000004    2.89000010
   14.59083271  132.86799622    3.41000009    2.89000010
   14.59499931  150.61399841    3.43000007    2.89000010
   14.59805489  147.20199585    3.48000002    2.89000010
   14.60138893  147.66700745    3.50000000    2.91000009
   14.60444450  140.19799805    3.51999998    2.91000009
   14.60777855  133.57099915    3.61999989    2.89000010
   14.61111164  145.96899414    3.66000009    2.86999989
   14.61416721  136.27999878    3.70000005    2.89000010
   14.61750031  141.42700195    3.72000003    2.89000010
   14.62083340  143.86000061    3.72000003    2.86999989
   14.62388897  141.22999573    3.72000003    2.89000010
   14.62722206  142.86799622    3.70000005    2.89000010
   14.62777805  142.91200256    3.70000005    2.89000010
   14.63361073  142.91200256    3.66000009    2.86999989
   14.63777733  133.54100037    3.75000000    2.86999989
   14.64111137  149.28100586    3.76999998    2.91000009
   14.64416695  146.77499390    3.76999998    2.86999989
   14.64750004  145.96000671    3.82999992    2.86999989
   14.65083313  148.00000000    3.80999994    2.89000010
   14.65388870  150.41499329    3.76999998    2.89000010
   14.65722179  133.58500671    3.72000003    2.89000010
   14.66027737  149.00100708    3.66000009    2.89000010
   14.66111088  144.01199341    3.61999989    2.89000010
   14.66416645  137.16700745    3.53999996    2.89000010
   14.66722298  140.30499268    3.50000000    2.91000009
   14.67055607  154.22700500    3.48000002    2.89000010
   14.67638874  154.22700500    3.57999992    2.91000009
   14.68055630  133.31900024    3.55999994    2.89000010
   14.68388939  155.81100464    3.53999996    2.89000010
   14.68694496  151.56799316    3.59999990    2.89000010
   14.69027805  139.65600586    3.64000010    2.89000010
   14.69361115  142.96899414    3.61999989    2.89000010
   14.69444466  147.74899292    3.59999990    2.89000010
   14.69722271  138.36099243    3.57999992    2.89000010
   14.70027733  135.51800537    3.55999994    2.89000010
   14.70361137  144.28999329    3.53999996    2.89000010
   14.70694447  153.05000305    3.51999998    2.91000009
   14.71000004  156.69200134    3.57999992    2.89000010
   14.71333313  135.96899414    3.59999990    2.89000010
   14.71916580  135.96899414    3.51999998    2.89000010
   14.72333336  148.77000427    3.55999994    2.89000010
   14.72666645  153.09700012    3.59999990    2.89000010
   14.72777748  155.96099854    3.59999990    2.89000010
   14.73027706  155.67599487    3.64000010    2.86999989
   14.73333359  142.00500488    3.64000010    2.89000010
   14.73666668  144.37100220    3.66000009    2.86999989
   14.74000072  144.75300598    3.64000010    2.89000010
   14.74305534  153.16099548    3.61999989    2.91000009
   14.74638939  152.17799377    3.61999989    2.89000010
   14.74944496  155.21400452    3.57999992    2.89000010
   14.75277805  155.68099976    3.57999992    2.89000010
   14.75611115  155.14399719    3.61999989    2.89000010
   14.76222229  155.14399719    3.75000000    2.89000010
   14.76638889  137.86099243    3.76999998    2.89000010
   14.76944447  153.19999695    3.78999996    2.91000009
   14.77277756  149.83299255    3.82999992    2.86999989
   14.77583313  149.86799622    3.89000010    2.89000010
   14.77916622  151.04400635    3.91000009    2.91000009
   14.78249931  143.63299561    3.95000005    2.86999989
   14.78555584  151.96899414    3.93000007    2.89000010
   14.78888893  139.79800415    3.89000010    2.86999989
   14.79222298  139.96899414    3.86999989    2.89000010
   14.79444504  152.99800110    3.86999989    2.86999989
   14.79583359  144.37199402    3.86999989    2.89000010
   14.79888916  140.60000610    3.91000009    2.89000010
   14.80500031  140.60000610    3.91000009    2.86999989
   14.80916691  142.80499268    3.86999989    2.86999989
   14.81222248  141.49699402    3.84999990    2.89000010
   14.81555557  149.35400391    3.84999990    2.86999989
   14.81888866  148.63600159    3.86999989    2.89000010
   14.82194424  149.44400024    3.86999989    2.89000010
   14.82527733  146.45500183    3.91000009    2.89000010
   14.82777786  144.29600525    3.93000007    2.89000010
   14.82888889  149.05900574    3.97000003    2.86999989
   14.83194447  153.92900085    3.99000001    2.86999989
   14.83527756  155.66400146    3.97000003    2.89000010
   14.83861065  142.57099915    3.99000001    2.86999989
   14.84166622  142.87399292    4.00000000    2.86999989
   14.84777737  142.87399292    4.07999992    2.89000010
   14.85194492  143.62399292    4.07999992    2.89000010
   14.85527802  151.21699524    4.07999992    2.89000010
   14.85833359  135.46899414    4.05999994    2.86999989
   14.86111164  142.19999695    4.07999992    2.86999989
   14.86222267  134.44700623    4.09999990    2.89000010
   14.86527824  143.48699951    4.13999987    2.86999989
   14.86861134  140.96400452    4.11999989    2.86999989
   14.87194443  135.96000671    4.11999989    2.86999989
   14.87500000  143.27200317    4.11999989    2.89000010
   14.87833309  141.28700256    4.11999989    2.89000010
   14.88138866  134.73100281    4.11999989    2.89000010
   14.88472176  137.22399902    4.13999987    2.89000010
   14.89055538  137.22399902    4.15999985    2.86999989
   14.89472198  155.39500427    4.13999987    2.86999989
   14.89805508  135.49699402    4.11999989    2.89000010
   14.90138817  142.58700562    4.07999992    2.86999989
   14.90444374  138.31199646    4.07999992    2.89000010
   14.90777779  137.48199463    4.11999989    2.89000010
   14.91111088  140.75599670    4.15999985    2.86999989
   14.91416645  142.13000488    4.23999977    2.89000010
   14.91750050  138.83900452    4.26999998    2.89000010
   14.92055607  142.79200745    4.28999996    2.86999989
   14.92388916  137.96200562    4.28999996    2.89000010
   14.92722225  134.97500610    4.30999994    2.89000010
   14.92777824  150.46600342    4.28999996    2.86999989
   14.93361092  150.46600342    4.36999989    2.86999989
   14.93777752  145.18499756    4.42999983    2.86999989
   14.94083309  138.47700500    4.48999977    2.86999989
   14.94416714  138.25100708    4.57999992    2.86999989
   14.94722271  145.93299866    4.61999989    2.86999989
   14.95055580  141.26899719    4.59999990    2.86999989
   14.95388889  149.23300171    4.59999990    2.86999989
   14.95694447  150.22900391    4.55999994    2.86999989
   14.96027756  144.23199463    4.55999994    2.86999989
   14.96111107  150.62800598    4.55999994    2.84999990
   14.96388912  164.94700623    4.55999994    2.86999989
   14.96694374  137.30999756    4.51000023    2.86999989
   14.97027779  156.83099365    4.51000023    2.86999989
   14.97638798  156.83099365    4.44999981    2.86999989
   14.98055553  141.93600464    4.40999985    2.89000010
   14.98361111  146.51400757    4.34999990    2.86999989
   14.98694515  136.99899292    4.30999994    2.86999989
   14.99027824  141.47300720    4.28999996    2.86999989
   14.99333382  148.11700439    4.28999996    2.86999989
   14.99444485  143.68299866    4.28999996    2.86999989
   14.99722290  133.96699524    4.28999996    2.89000010
   15.00027752  149.38299561    4.34999990    2.89000010
   15.00361156  150.83900452    4.38999987    2.86999989
   15.00694466  134.96400452    4.38999987    2.86999989
   15.01000023  133.93899536    4.38999987    2.89000010
   15.01333332  135.63099670    4.38999987    2.86999989
   15.01916599  135.63099670    4.44999981    2.86999989
   15.02333355  151.21299744    4.53000021    2.86999989
   15.02666664  139.39799500    4.53000021    2.86999989
   15.02777767  144.37600708    4.53000021    2.89000010
   15.03027725  145.82699585    4.53000021    2.86999989
   15.03333378  133.52699280    4.57999992    2.86999989
   15.03666687  154.98599243    4.65999985    2.86999989
   15.04000092  135.82800293    4.65999985    2.86999989
   15.04305553  129.74600220    4.63999987    2.86999989
   15.04638958  148.04499817    4.61999989    2.86999989
   15.04972267  150.46299744    4.61999989    2.86999989
   15.05277824  158.41900635    4.63999987    2.86999989
   15.15666676   -1.00000000   -1.00000000   -1.00000000
   15.26055527   -1.00000000   -1.00000000   -1.00000000
   15.37583351   -1.00000000   -1.00000000   -1.00000000
   15.40916634  195.66499329    4.44999981    2.86999989
   15.41305542  151.91099548    4.38999987    2.89000010
   15.41638851  177.74299622    4.30999994    2.89000010
   15.41944504  151.13000488    4.36999989    2.89000010
   15.42277813  167.27699280    4.42999983    2.89000010
   15.42944431  167.27699280    4.44999981    2.89000010
   15.43361092  181.05900574    4.53999996    2.89000010
   15.43666649  183.35699463    4.57999992    2.86999989
   15.44000053  184.58299255    4.59999990    2.86999989
   15.44250011  184.41200256    4.59999990    2.89000010
   15.44361115  166.27299500    4.61999989    2.86999989
   15.44694424  175.60099792    4.61999989    2.89000010
   15.45027733  169.34500122    4.61999989    2.86999989
   15.45333290  183.11799622    4.59999990    2.86999989
   15.45666695  151.83599854    4.59999990    2.89000010
   15.46000004  168.52099609    4.57999992    2.86999989
   15.46305561  196.31500244    4.53999996    2.86999989
   15.46638870  168.05400085    4.40999985    2.86999989
   15.47222137  168.05400085    4.38999987    2.89000010
   15.47638798  161.50500488    4.36999989    2.86999989
   15.47944355  164.53799438    4.38999987    2.86999989
   15.48277760  169.73500061    4.38999987    2.89000010
   15.48611164  156.29400635    4.42999983    2.89000010
   15.48916721  152.43299866    4.42999983    2.86999989
   15.49250031  160.20899963    4.44999981    2.89000010
   15.49583340  167.60899353    4.42999983    2.86999989
   15.49888897  154.07499695    4.44999981    2.86999989
   15.50222206  156.76800537    4.42999983    2.86999989
   15.50527763  155.52000427    4.40999985    2.86999989
   15.50861073  158.27099609    4.34999990    2.89000010
   15.50916672  149.96600342    4.30999994    2.86999989
   15.51500034  149.96600342    4.28999996    2.86999989
   15.51916599  142.98399353    4.30999994    2.89000010
   15.52250004  161.24699402    4.32999992    2.89000010
   15.52555561  134.79800415    4.32999992    2.86999989
   15.52888870  135.41000366    4.28999996    2.86999989
   15.53222179  146.00999451    4.30999994    2.86999989
   15.53527832  140.43499756    4.34999990    2.89000010
   15.53861141  129.97700500    4.34999990    2.89000010
   15.54166698  139.66099548    4.28999996    2.89000010
   15.54250050  140.19500732    4.28999996    2.89000010
   15.54555607  135.06599426    4.23999977    2.89000010
   15.54861164  165.66499329    4.23999977    2.89000010
   15.55194473  153.25399780    4.23999977    2.89000010
   15.55777836  153.25399780    4.32999992    2.86999989
   15.56194496  135.18499756    4.38999987    2.89000010
   15.56527805  143.02200317    4.38999987    2.86999989
   15.56861115  143.48500061    4.44999981    2.89000010
   15.57166672  133.37800598    4.53000021    2.86999989
   15.57527733  145.21000671    4.55999994    2.89000010
   15.57583332  155.47700500    4.55999994    2.89000010
   15.57888889  117.36499786    4.53999996    2.86999989
   15.58194447  138.31100464    4.51000023    2.89000010
   15.58527756  135.50900269    4.51000023    2.89000010
   15.58861065  133.24600220    4.46999979    2.89000010
   15.59166622  134.86999512    4.42999983    2.89000010
   15.59499931  142.07699585    4.38999987    2.89000010
   15.60083389  142.07699585    4.34999990    2.89000010
   15.60472298  144.44599915    4.40999985    2.86999989
   15.60805607  138.78700256    4.46999979    2.89000010
   15.60916710  136.24200439    4.48999977    2.86999989
   15.61166668  150.53300476    4.53000021    2.89000010
   15.61472225  141.04100037    4.55999994    2.86999989
   15.61805534  149.24800110    4.57999992    2.86999989
   15.62138939  159.42199707    4.57999992    2.89000010
   15.62444496  153.43400574    4.59999990    2.89000010
   15.62777805  125.03600311    4.57999992    2.86999989
   15.63111115  132.22900391    4.53999996    2.89000010
   15.63416672  139.77099609    4.53999996    2.89000010
   15.63749981  146.12100220    4.53000021    2.89000010
   15.64361095  146.12100220    4.44999981    2.89000010
   15.64777756  125.52400208    4.38999987    2.89000010
   15.65083313  141.45199585    4.30999994    2.89000010
   15.65416622  136.66499329    4.23999977    2.91000009
   15.65749931  139.67799377    4.19999981    2.89000010
   15.66055489  136.50900269    4.21999979    2.86999989
   15.66388893  139.68400574    4.23999977    2.86999989
   15.66722298  107.45400238    4.26000023    2.89000010
   15.67027855  132.66600037    4.19999981    2.91000009
   15.67361164  133.66000366    4.19999981    2.89000010
   15.67611122  135.60099792    4.19999981    2.89000010
   15.67722225  130.51699829    4.19999981    2.86999989
   15.68055630  127.79399872    4.26000023    2.89000010
   15.68638897  127.79399872    4.26999998    2.89000010
   15.69055557  125.15299988    4.21999979    2.89000010
   15.69388866  118.98999786    4.19999981    2.91000009
   15.69694424  131.27200317    4.11999989    2.89000010
   15.70027733  126.51799774    4.07999992    2.91000009
   15.70361137  133.25100708    4.11999989    2.91000009
   15.70666695  129.82200623    4.13999987    2.91000009
   15.70916653  124.56300354    4.30999994    2.86999989
   15.71027756  127.03900146    4.28999996    2.89000010
   15.71361065  125.99600220    4.13999987    2.89000010
   15.71666622  131.96699524    4.11999989    2.89000010
   15.71999931  139.74800110    4.11999989    2.91000009
   15.72305489  128.82200623    4.13999987    2.89000010
   15.72916603  128.82200623    4.23999977    2.89000010
   15.73333359  136.28900146    4.26000023    2.91000009
   15.73666668  134.42599487    4.26999998    2.91000009
   15.74000072  133.06100464    4.23999977    2.89000010
   15.74250031  135.02900696    4.17999983    2.89000010
   15.74361134  132.61900330    4.17999983    2.89000010
   15.74694443  142.90299988    4.17999983    2.89000010
   15.75000000  146.47999573    4.15999985    2.89000010
   15.75333309  138.52000427    4.07999992    2.89000010
   15.75638866  135.13000488    4.00000000    2.91000009
   15.75972176  147.84300232    3.95000005    2.89000010
   15.76305580  160.87399292    4.00000000    2.89000010
   15.76611137  140.42100525    4.03999996    2.89000010
   15.77222157  140.42100525    4.03999996    2.91000009
   15.77611065  138.75999451    3.97000003    2.89000010
   15.77944374  135.29100037    3.91000009    2.89000010
   15.78277779  137.17599487    3.86999989    2.89000010
   15.78583336  132.92700195    3.76999998    2.89000010
   15.78916740  136.85299683    3.76999998    2.89000010
   15.79222298  139.02900696    3.76999998    2.91000009
   15.79555607  129.71000671    3.73000002    2.89000010
   15.79888916  140.25799561    3.68000007    2.91000009
   15.80194473  137.54400635    3.66000009    2.91000009
   15.80527782  145.59899902    3.66000009    2.91000009
   15.80861092  140.44599915    3.64000010    2.91000009
   15.80916691  132.72200012    3.61999989    2.91000009
   15.81500053  132.72200012    3.64000010    2.89000010
   15.81916618  145.87199402    3.57999992    2.91000009
   15.82222176  144.13200378    3.55999994    2.91000009
   15.82555580  135.73500061    3.51999998    2.91000009
   15.82861137  138.88299561    3.50000000    2.91000009
   15.83194447  135.72200012    3.48000002    2.93000007
   15.83527756  134.71200562    3.46000004    2.91000009
   15.83833313  135.71699524    3.45000005    2.91000009
   15.84166622  140.12199402    3.43000007    2.91000009
   15.84249973  139.99400330    3.43000007    2.91000009
   15.84527779  145.73199463    3.43000007    2.93000007
   15.84861088  136.30999756    3.39000010    2.91000009
   15.85166740  131.09500122    3.50000000    2.89000010
   15.85777855  131.09500122    3.64000010    2.91000009
   15.86194515  137.71699524    3.64000010    2.91000009
   15.86500072  131.69000244    3.66000009    2.91000009
   15.86833382  135.86599731    3.70000005    2.91000009
   15.87166691  134.46800232    3.66000009    2.91000009
   15.87472248  138.81199646    3.61999989    2.91000009
   15.87583351  141.09399414    3.64000010    2.91000009
   15.87833309  135.70100403    3.66000009    2.91000009
   15.88166714  143.40299988    3.76999998    2.91000009
   15.88472176  141.12800598    3.91000009    2.89000010
   15.88805580  134.25900269    4.00000000    2.91000009
   15.89111137  134.25300598    4.01999998    2.91000009
   15.89444447  122.30899811    4.05999994    2.89000010
   15.90055561  122.30899811    4.15999985    2.89000010
   15.90472221  132.05900574    4.15999985    2.89000010
   15.90805531  129.32800293    4.11999989    2.91000009
   15.90916634  129.88099670    4.09999990    2.89000010
   15.91166592  125.70200348    4.11999989    2.89000010
   15.91499996  132.85499573    4.26999998    2.89000010
   15.91805553  149.18600464    4.36999989    2.89000010
   15.92138958  136.20100403    4.38999987    2.89000010
   15.92444515  135.60400391    4.40999985    2.89000010
   15.92777824  131.32600403    4.38999987    2.89000010
   15.93111134  135.74299622    4.36999989    2.86999989
   15.93416691  131.77000427    4.28999996    2.89000010
   15.93750000  134.81700134    4.26000023    2.89000010
   15.94361115  134.81700134    4.13999987    2.91000009
   15.94750023  140.67900085    4.13999987    2.89000010
   15.95083332  134.36399841    4.19999981    2.89000010
   15.95416641  134.57600403    4.30999994    2.91000009
   15.95722198  134.34199524    4.38999987    2.89000010
   15.96055508  133.07000732    4.46999979    2.89000010
   15.96361065  137.96800232    4.53999996    2.91000009
   15.96694374  143.24600220    4.53999996    2.89000010
   15.97027779  136.28300476    4.53000021    2.89000010
   15.97333336  136.79200745    4.51000023    2.89000010
   15.97583294  128.39900208    4.53999996    2.89000010
   15.97694397  135.58000183    4.57999992    2.86999989
   15.98027706  132.33700562    4.65999985    2.89000010
   15.98638916  132.33700562    4.73999977    2.89000010
   15.99055576  137.51699829    4.73999977    2.89000010
   15.99361134  135.48899841    4.78000021    2.89000010
   15.99694443  136.80799866    4.80999994    2.86999989
   16.00027847  135.78599548    4.76000023    2.86999989
   16.00333405  139.14399719    4.71999979    2.86999989
   16.00666618  137.76699829    4.65999985    2.86999989
   16.00916672  148.27200317    4.59999990    2.86999989
   16.01027870  136.70899963    4.59999990    2.91000009
   16.01361084  147.16799927    4.57999992    2.89000010
   16.01666641  130.04600525    4.59999990    2.86999989
   16.02000046  134.83099365    4.57999992    2.89000010
   16.02305603  139.16799927    4.59999990    2.89000010
   16.02916718  139.16799927    4.61999989    2.89000010
   16.03333282  137.75199890    4.53999996    2.89000010
   16.03666687  139.44200134    4.48999977    2.89000010
   16.03972244  143.90299988    4.42999983    2.89000010
   16.04249954  134.04699707    4.36999989    2.89000010
   16.04333305  137.14100647    4.34999990    2.89000010
   16.04666710  134.80400085    4.26999998    2.89000010
   16.04972076  137.13900757    4.26999998    2.89000010
   16.05305481  144.29400635    4.23999977    2.91000009
   16.05611038  142.71600342    4.19999981    2.89000010
   16.05944443  138.73899841    4.15999985    2.91000009
   16.06277657  134.72099304    4.17999983    2.89000010
   16.06583214  135.91999817    4.11999989    2.89000010
   16.07194519  135.91999817    4.09999990    2.89000010
   16.07611275  135.09700012    4.17999983    2.93000007
   16.07944489  130.94900513    4.26000023    2.91000009
   16.08250046  138.76400757    4.30999994    2.89000010
   16.08583450  129.87899780    4.53000021    2.89000010
   16.08916664  135.48800659    4.80999994    2.86999989
   16.09222221  148.68899536    4.84999990    2.89000010
   16.09555626  139.04299927    4.76000023    2.91000009
   16.09889030  142.25700378    4.63999987    2.86999989
   16.10194397  140.58500671    4.65999985    2.89000010
   16.10527802  132.02299500    4.67999983    2.86999989
   16.10861206  136.70700073    4.78000021    2.86999989
   16.10916710  136.45799255    4.80000019    2.86999989
   16.11499977  136.45799255    4.76000023    2.89000010
   16.11888885  137.51100159    4.80999994    2.86999989
   16.12222290  131.92799377    4.76000023    2.89000010
   16.12555504  142.96099854    4.69999981    2.86999989
   16.12861061  137.62800598    4.73999977    2.89000010
   16.13194466  135.85600281    4.76000023    2.86999989
   16.13500023  140.46600342    4.63999987    2.89000010
   16.13833237  138.41299438    4.59999990    2.89000010
   16.14166641  140.98100281    4.59999990    2.89000010
   16.14249992  143.00999451    4.55999994    2.84999990
   16.14527702  144.79600525    4.42999983    2.89000010
   16.14861107  138.23800659    4.38999987    2.89000010
   16.15166664  139.91400146    4.36999989    2.89000010
   16.15777779  139.91400146    4.38999987    2.89000010
   16.16194344  145.37199402    4.42999983    2.91000009
   16.16499901  148.46200562    4.42999983    2.89000010
   16.16833305  140.53999329    4.38999987    2.89000010
   16.17166519  143.70500183    4.44999981    2.89000010
   16.17472076  142.99400330    4.53999996    2.89000010
   16.17583275  146.07699585    4.53000021    2.89000010
   16.17833328  138.56399536    4.53999996    2.89000010
   16.18166542  149.07899475    4.57999992    2.86999989
   16.18472099  143.58799744    4.61999989    2.89000010
   16.18805504  143.32600403    4.65999985    2.89000010
   16.19138718  142.56100464    4.73999977    2.89000010
   16.19444275  152.65600586    4.71999979    2.89000010
   16.20055580  152.65600586    4.78000021    2.89000010
   16.20472336  142.97200012    4.80999994    2.86999989
   16.20805550  143.79200745    4.82999992    2.89000010
   16.20916748  150.87800598    4.82999992    2.86999989
   16.21138954  146.20500183    4.86999989    2.89000010
   16.21472359  137.55599976    4.86999989    2.86999989
   16.21777916  141.09899902    4.86999989    2.86999989
   16.22111130  144.88000488    4.84999990    2.89000010
   16.22444534  137.73399353    4.86999989    2.86999989
   16.22750092  138.96499634    4.88999987    2.86999989
   16.23083305  142.71200562    4.90999985    2.86999989
   16.23416710  140.14300537    4.90999985    2.86999989
   16.23722267  136.10099792    4.90999985    2.86999989
   16.24333382  136.10099792    4.88999987    2.89000010
   16.24749947  137.76800537    4.86999989    2.89000010
   16.25083351  152.17900085    4.86999989    2.86999989
   16.25388908  140.30599976    4.82999992    2.89000010
   16.25722313  141.52699280    4.82999992    2.86999989
   16.26055527  135.16099548    4.84999990    2.89000010
   16.26361084  149.08599854    4.86999989    2.89000010
   16.26694489  144.52499390    4.82999992    2.86999989
   16.27000046  136.38600159    4.80000019    2.89000010
   16.27333260  139.92999268    4.73999977    2.89000010
   16.27583313  135.05999756    4.71999979    2.89000010
   16.27694511  130.50700378    4.73999977    2.86999989
   16.28027725  141.71899414    4.69999981    2.86999989
   16.28638840  141.71899414    4.63999987    2.89000010
   16.29027748  140.99099731    4.63999987    2.89000010
   16.29361153  142.03500366    4.63999987    2.89000010
   16.29694366  135.93699646    4.63999987    2.89000010
   16.29999924  143.11900330    4.59999990    2.91000009
   16.30333328  138.94599915    4.59999990    2.89000010
   16.30638885  133.26499939    4.59999990    2.91000009
   16.30916595  130.74099731    4.55999994    2.89000010
   16.30999947  129.22300720    4.53999996    2.89000010
   16.31333351  137.98599243    4.44999981    2.91000009
   16.31638718  133.42799377    4.38999987    2.91000009
   16.31972313  136.48100281    4.32999992    2.89000010
   16.32305717  133.49200439    4.36999989    2.89000010
   16.32916832  133.49200439    4.44999981    2.89000010
   16.33333397  140.46099854    4.65999985    2.89000010
   16.33638954  136.61199951    4.73999977    2.86999989
   16.33972359  128.16700745    4.67999983    2.89000010
   16.34250069  135.56700134    4.69999981    2.89000010
   16.34333420  134.27400208    4.69999981    2.89000010
   16.34666824  135.13999939    4.73999977    2.89000010
   16.34972191  143.07899475    4.80000019    2.89000010
   16.35305595  147.03100586    4.80999994    2.89000010
   16.35639000  143.14399719    4.82999992    2.86999989
   16.35944557  144.61000061    4.82999992    2.86999989
   16.36277771  138.57600403    4.86999989    2.86999989
   16.36583328  142.75700378    4.88999987    2.86999989
   16.37194443  142.75700378    4.84999990    2.86999989
   16.37611198  131.11799622    4.90999985    2.86999989
   16.37944412  127.67900085    4.90999985    2.86999989
   16.38249969  130.79899597    4.90999985    2.86999989
   16.38583374  134.98699951    4.90999985    2.86999989
   16.38888931  131.44700623    4.82999992    2.89000010
   16.39222145  135.90499878    4.73999977    2.89000010
   16.39555550  139.80299377    4.76000023    2.86999989
   16.39861107  139.22399902    4.78000021    2.86999989
   16.40194321  142.03500366    4.82999992    2.86999989
   16.40527725  137.87800598    4.80000019    2.89000010
   16.40833282  142.58799744    4.80000019    2.89000010
   16.40944481  142.94999695    4.82999992    2.86999989
   16.43000031  142.94999695    4.90999985    2.84999990
   16.43416595  148.16200256    4.90999985    2.86999989
   16.43750000  141.69799805    4.90999985    2.86999989
   16.44055557  145.49899292    4.90999985    2.86999989
   16.44277763  144.30999756    4.90999985    2.84999990
   16.44416618  142.32800293    4.90999985    2.84999990
   16.44749832  141.35600281    4.90999985    2.82999992
   16.45055580  146.44200134    4.90999985    2.82999992
   16.45388985  145.14900208    4.90999985    2.84999990
   16.45722389  145.82000732    4.90999985    2.82999992
   16.46027946  147.32299805    4.90999985    2.69000006
   16.46361160  140.29499817    4.90999985    2.73000002
   16.46694565  137.31399536    4.90999985    2.67000008
   16.47277832  137.31399536    4.90999985    2.82999992
   16.47694588  144.46899414    4.90999985    2.82999992
   16.48000145  128.58999634    4.90999985    2.82999992
   16.48333359  146.73199463    4.90999985    2.82999992
   16.48666763  152.24499512    4.90999985    2.76999998
   16.48972321  143.51199341    4.90999985    2.76999998
   16.49305534  131.69400024    4.90999985    2.82999992
   16.49638939  136.13800049    4.90999985    2.84999990
   16.49944496  142.39199829    4.90999985    2.84999990
   16.50277710  147.28799438    4.90999985    2.84999990
   16.50583267  153.82299805    4.90999985    2.75000000
   16.50916672  154.94999695    4.90999985    2.73000002
   16.50972176  151.54499817    4.90999985    2.73000002
   16.51555634  151.54499817    4.90999985    2.28999996
   16.51972198  176.68299866    4.90999985    1.96000004
   16.52305603  153.98699951    4.90999985    2.55999994
   16.52611160   -1.00000000    4.90999985    2.53999996
   16.52944374  162.89300537    4.90999985    1.51999998
   16.53249931  187.64100647    4.90999985    2.01999998
   16.53583336  152.61900330    4.90999985    2.57999992
   16.53916550  151.90400696    4.90999985    2.76999998
   16.54222107  141.21600342    4.90999985    2.78999996
   16.54305458  145.39999390    4.90999985    2.78999996
   16.54611015  142.37500000    4.90999985    2.84999990
   16.54916573  143.08599854    4.90999985    2.86999989
   16.55249977  141.11900330    4.90999985    2.86999989
   16.55833244  141.11900330    4.90999985    2.86999989
   16.56250000  141.50000000    4.88999987    2.86999989
   16.56583214  137.10200500    4.90999985    2.86999989
   16.56916809  138.26100159    4.90999985    2.86999989
   16.57222366  135.08399963    4.90999985    2.86999989
   16.57555580  142.53100586    4.90999985    2.86999989
   16.57638931  145.76300049    4.90999985    2.86999989
   16.57916832  136.86199951    4.90999985    2.86999989
   16.58222389  134.86799622    4.90999985    2.86999989
   16.58555603  142.90299988    4.90999985    2.86999989
   16.58889008  139.96200562    4.90999985    2.89000010
   16.59194565  133.87600708    4.88999987    2.86999989
   16.59527779  144.55099487    4.86999989    2.86999989
   16.60138893  144.55099487    4.90999985    2.86999989
   16.60527802  137.02999878    4.84999990    2.86999989
   16.60861206  137.72799683    4.88999987    2.86999989
   16.60972214  130.02600098    4.90999985    2.86999989
   16.61222267  128.12899780    4.90999985    2.86999989
   16.61527824  122.03299713    4.90999985    2.86999989
   16.61861038  130.38499451    4.90999985    2.86999989
   16.62194443  128.68200684    4.90999985    2.86999989
   16.62500000  131.42500305    4.90999985    2.86999989
   16.62833405  139.91000366    4.90999985    2.86999989
   16.63138962  136.18899536    4.90999985    2.86999989
   16.63472176  137.76400757    4.90999985    2.86999989
   16.63805580  141.05999756    4.90999985    2.84999990
   16.64416695  141.05999756    4.90999985    2.86999989
   16.64833260  138.08500671    4.90999985    2.86999989
   16.65138817  134.85400391    4.90999985    2.86999989
   16.65472221  144.76800537    4.90999985    2.86999989
   16.65805435  133.96299744    4.90999985    2.86999989
   16.66110992  136.08200073    4.88999987    2.89000010
   16.66444397  138.29100037    4.86999989    2.89000010
   16.66749954  137.30700684    4.90999985    2.86999989
   16.67083359  137.71699524    4.88999987    2.86999989
   16.67416573  132.75999451    4.88999987    2.86999989
   16.67638779  130.50700378    4.86999989    2.86999989
   16.67777634  133.12100220    4.86999989    2.86999989
   16.68083191  157.17700195    4.90999985    2.89000010
   16.68694305  157.17700195    4.90999985    2.86999989
   16.69111061  156.97599792    4.90999985    2.86999989
   16.69444275  147.04600525    4.90999985    2.86999989
   16.69749832  136.68899536    4.90999985    2.89000010
   16.70083427  121.55200195    4.90999985    2.86999989
   16.70388985  129.97200012    4.90999985    2.86999989
   16.70722389  136.57899475    4.90999985    2.89000010
   16.70972252  132.26100159    4.86999989    2.89000010
   16.71083450  137.23300171    4.86999989    2.89000010
   16.71389008  130.80200195    4.82999992    2.91000009
   16.71722221  135.69099426    4.80000019    2.86999989
   16.72055626  133.20599365    4.76000023    2.86999989
   16.72361183  128.60699463    4.73999977    2.89000010
   16.72972298  128.60699463    4.73999977    2.86999989
   16.73388863  134.15499878    4.78000021    2.89000010
   16.73722267  134.42300415    4.73999977    2.86999989
   16.74027824  133.02799988    4.69999981    2.89000010
   16.74305534  128.53599548    4.59999990    2.89000010
   16.74416733  130.52200317    4.59999990    2.89000010
   16.74722290  125.85099792    4.57999992    2.86999989
   16.75055504  128.02999878    4.57999992    2.89000010
   16.75388908  124.78900146    4.55999994    2.89000010
   16.75694466  133.62899780    4.53999996    2.89000010
   16.76027870  129.58299255    4.57999992    2.89000010
   16.76361084  125.48899841    4.59999990    2.89000010
   16.76666641  130.88999939    4.59999990    2.89000010
   16.77277756  130.88999939    4.57999992    2.89000010
   16.77666664  130.65600586    4.55999994    2.89000010
   16.78000069  129.51600647    4.53999996    2.86999989
   16.78333282  128.98399353    4.44999981    2.91000009
   16.78638840  128.50999451    4.40999985    2.89000010
   16.78972244  127.28600311    4.42999983    2.89000010
   16.79305458  138.70799255    4.53999996    2.89000010
   16.79611015  132.37600708    4.53000021    2.89000010
   16.79944420  131.78399658    4.53000021    2.89000010
   16.80249977  131.65400696    4.53999996    2.89000010
   16.80583191  134.69200134    4.55999994    2.89000010
   16.80916595  133.94299316    4.59999990    2.86999989
   16.80972099  131.27400208    4.57999992    2.89000010
   16.81555557  131.27400208    4.69999981    2.89000010
   16.81972313  127.38300323    4.78000021    2.89000010
   16.82277870  129.55999756    4.86999989    2.86999989
   16.82611275  125.72399902    4.90999985    2.86999989
   16.82944489  127.87500000    4.90999985    2.86999989
   16.83250046  131.21699524    4.90999985    2.89000010
   16.83583450  125.52999878    4.90999985    2.89000010
   16.83889008  133.66400146    4.90999985    2.86999989
   16.84222221  127.45400238    4.90999985    2.86999989
   16.84305573  127.66100311    4.90999985    2.86999989
   16.84583473  128.46099854    4.90999985    2.84999990
   16.84916687  134.68899536    4.90999985    2.80999994
   16.85222244  129.03999329    4.90999985    2.78999996
   16.85833359  129.03999329    4.90999985    2.71000004
   16.86250114  141.83999634    4.90999985    2.71000004
   16.86583328  131.86199951    4.90999985    2.75000000
   16.86888885  132.89100647    4.90999985    2.80999994
   16.87222290  132.38099670    4.90999985    2.80999994
   16.87527847  136.79499817    4.90999985    2.78999996
   16.87638855  134.13000488    4.90999985    2.80999994
   16.87916756  145.22799683    4.90999985    2.80999994
   16.88222313  131.35200500    4.90999985    2.86999989
   16.88555527  132.49899292    4.90999985    2.86999989
   16.88888931  143.35499573    4.90999985    2.86999989
   16.89194489  135.41200256    4.90999985    2.84999990
   16.89527702  138.31799316    4.90999985    2.84999990
   16.90111160  138.31799316    4.90999985    2.84999990
   16.90527725  136.09100342    4.90999985    2.82999992
   16.90861130  140.38600159    4.90999985    2.82999992
   16.90972137  121.69599915    4.90999985    2.84999990
   16.91222191  133.73599243    4.90999985    2.82999992
   16.91527748  134.40800476    4.90999985    2.78999996
   16.91860962  135.64900208    4.90999985    2.75000000
   16.92194366  138.36199951    4.90999985    2.75000000
   16.92499924  142.09100342    4.90999985    2.75000000
   16.92833328  142.91499329    4.90999985    2.69000006
   16.93166542  155.86599731    4.90999985    2.64000010
   16.93472099  146.61099243    4.90999985    2.69000006
   16.93805504  145.42900085    4.90999985    2.76999998
   16.94416618  145.42900085    4.90999985    2.73000002
   16.94805527  145.90400696    4.90999985    2.73000002
   16.95138931  149.55499268    4.90999985    2.73000002
   16.95472336  140.66700745    4.90999985    2.71000004
   16.95777893  156.61099243    4.90999985    2.73000002
   16.96111107  139.08500671    4.90999985    2.73000002
   16.96444511  137.70700073    4.90999985    2.80999994
   16.96750069  143.96099854    4.90999985    2.76999998
   16.97083473  137.80499268    4.90999985    2.73000002
   16.97389030  149.91700745    4.90999985    2.69000006
   16.97638893  150.44700623    4.90999985    2.64000010
   16.97777748  177.24299622    4.90999985    2.59999990
   16.98083305  176.41000366    4.90999985    2.51999998
   16.98694420  176.41000366    4.90999985    2.23000002
   16.99111176   -1.00000000    4.90999985    2.01999998
   16.99416733   83.83049774    4.90999985    1.78999996
   16.99749947  226.01400757    4.90999985    2.03999996
   17.00083351   -1.00000000    4.90999985    1.91999996
   17.00388908   -1.00000000    4.90999985    1.98000002
   17.00722313   -1.00000000    4.90999985    1.63000000
   17.01083374   23.57019997    4.90999985    1.80999994
   17.01388931  233.46299744    4.90999985    2.11999989
   17.01722145  121.68399811    4.90999985    2.17000008
   17.02027702   -1.00000000    4.90999985    1.78999996
   17.02361107   -1.00000000    4.90999985    1.60000002
   17.02972221   -1.00000000    4.90999985    2.01999998
   17.03388786   -1.00000000    4.90999985    1.80999994
   17.03722191   -1.00000000    4.90999985    1.64999998
   17.04027748   -1.00000000    4.90999985    1.66999996
   17.04388809   -1.00000000    4.90999985    1.44000006
   17.04694366   -1.00000000    4.90999985    1.09000003
   17.05027771   -1.00000000    4.90999985    0.92000002
   17.05333328   -1.00000000    4.90999985    0.95999998
   17.05666542   -1.00000000    4.90999985    0.86000001
   17.05999947   -1.00000000    4.90999985    0.95999998
   17.06305504   -1.00000000    4.90999985    1.01999998
   17.06638718   -1.00000000    4.90999985    1.01999998
   17.07666779   -1.00000000    4.90999985    0.83999997
   17.07972336   -1.00000000    4.90999985    0.81999999
   17.08305550   -1.00000000    4.90999985    0.86000001
   17.08638954   -1.00000000    4.90999985    0.81999999
   17.08944511   -1.00000000    4.90999985    0.79000002
   17.09277916   -1.00000000    4.90999985    0.92000002
   17.09611130   -1.00000000    4.90999985    1.03999996
   17.09916687   -1.00000000    4.90999985    1.09000003
   17.10250092   -1.00000000    4.90999985    1.13000000
   17.10555649   -1.00000000    4.90999985    1.11000001
   17.10888863   -1.00000000    4.90999985    1.36000001
   17.11555672   -1.00000000    4.90999985    1.63000000
   17.11944389   98.64389801    4.90999985    2.05999994
   17.12277794  146.11999512    4.90999985    2.03999996
   17.12611198  191.58299255    4.90999985    2.23000002
   17.12916756  244.99299622    4.90999985    1.91999996
   17.13249969  178.03300476    4.90999985    2.19000006
   17.13583374   -1.00000000    4.90999985    2.03999996
   17.13888931   -1.00000000    4.90999985    1.50000000
   17.14222145   -1.00000000    4.90999985    1.58000004
   17.14583397   -1.00000000    4.90999985    1.63000000
   17.14888954   -1.00000000    4.90999985    1.78999996
   17.15222168   -1.00000000    4.90999985    1.16999996
   17.15833282   -1.00000000    4.90999985    2.03999996
   17.16250038  305.94299316    4.90999985    1.94000006
   17.16555595  299.63101196    4.90999985    2.21000004
   17.16888809   -1.00000000    4.90999985    2.17000008
   17.17222214   -1.00000000    4.90999985    1.73000002
   17.17527771   -1.00000000    4.90999985    1.51999998
   17.17888832   -1.00000000    4.90999985    1.46000004
   17.18194389   30.49970055    4.90999985    1.64999998
   17.18527603  273.18099976    4.90999985    1.86000001
   17.18861008  235.75599670    4.90999985    2.30999994
   17.19166565  304.70199585    4.90999985    2.46000004
   17.19499969  193.35600281    4.90999985    2.01999998
   17.20111275  193.35600281    4.90999985    1.39999998
   17.20527840  151.77900696    4.90999985    2.36999989
   17.20861244  245.76899719    4.90999985    1.55999994
   17.20972252  240.58299255    4.90999985    2.26999998
   17.21222305  223.36700439    4.90999985    2.39000010
   17.21555710  236.34399414    4.90999985    2.48000002
   17.21861076  168.93899536    4.90999985    2.46000004
   17.22194481  164.57400513    4.90999985    2.73000002
   17.22500038  151.30799866    4.90999985    2.51999998
   17.22833443  176.85099792    4.90999985    2.64000010
   17.23166656  141.64700317    4.90999985    2.69000006
   17.23472214  159.13099670    4.90999985    2.69000006
   17.23805618  143.64799500    4.90999985    2.53999996
   17.24388885  143.64799500    4.90999985    2.05999994
   17.24805641  245.25199890    4.90999985    2.21000004
   17.25138855  127.76100159    4.90999985    2.48000002
   17.25444412  252.46099854    4.90999985    2.07999992
   17.25777817  144.81700134    4.90999985    2.36999989
   17.26111031  136.79600525    4.90999985    2.67000008
   17.26416588  135.24299622    4.90999985    2.80999994
   17.26749992  128.02099609    4.90999985    2.82999992
   17.27083397  136.52400208    4.90999985    2.82999992
   17.27388954  140.46200562    4.90999985    2.73000002
   17.27638817  124.25000000    4.90999985    2.78999996
   17.27750015  130.99800110    4.90999985    2.82999992
   17.28083229  127.03900146    4.90999985    2.86999989
   17.28694344  127.03900146    4.90999985    2.48000002
   17.29083252  129.21099854    4.90999985    2.64000010
   17.29416656  132.87100220    4.90999985    2.86999989
   17.29749870  126.58200073    4.90999985    2.80999994
   17.30055428  178.96899414    4.90999985    2.67000008
   17.30388832  152.80799866    4.90999985    2.32999992
   17.30722237  140.62600708    4.90999985    2.53999996
   17.30972099  137.00399780    4.90999985    2.71000004
   17.31083298  139.57800293    4.90999985    2.80999994
   17.31416512  128.71899414    4.90999985    2.82999992
   17.31722260  131.78100586    4.90999985    2.89000010
   17.32055664  130.94799805    4.73999977    2.89000010
   17.32389069  127.76300049    4.88999987    2.89000010
   17.32972336  127.76300049    4.90999985    2.86999989
   17.33388901  126.25599670    4.90999985    2.86999989
   17.33694458  126.51300049    4.90999985    2.89000010
   17.34027863  122.64800262    4.90999985    2.89000010
   17.34305573  132.83200073    4.30999994    2.91000009
   17.34388924  132.44000244    4.21999979    2.89000010
   17.34722328  123.54599762    4.21999979    2.91000009
   17.35027885  124.41000366    4.30999994    2.89000010
   17.35361099  128.53799438    4.38999987    2.86999989
   17.35694504  129.10099792    4.44999981    2.89000010
   17.36000061  137.19900513    4.44999981    2.89000010
   17.36333466  123.31199646    4.38999987    2.91000009
   17.36638832  123.10399628    4.51000023    2.89000010
   17.37249947  123.10399628    4.67999983    2.86999989
   17.37666702  131.60099792    4.71999979    2.89000010
   17.38000107  130.03100586    4.67999983    2.89000010
   17.38305473  124.46299744    4.65999985    2.86999989
   17.38638878  127.25199890    4.67999983    2.89000010
   17.38944435  126.38999939    4.76000023    2.86999989
   17.39277840  126.79199982    4.90999985    2.86999989
   17.39611053  131.23500061    4.90999985    2.86999989
   17.39916611  132.37800598    4.90999985    2.86999989
   17.40250015  134.41799927    4.90999985    2.80999994
   17.40583229  135.52400208    4.90999985    2.76999998
   17.40888786  129.02799988    4.90999985    2.73000002
   17.40972137  140.94500732    4.90999985    2.80999994
   17.41527748  140.94500732    4.90999985    2.76999998
   17.41944313  127.69999695    4.78000021    2.86999989
   17.42277718  132.90600586    4.67999983    2.86999989
   17.42583275  129.51100159    4.65999985    2.86999989
   17.44361115  122.08100128    4.44999981    2.89000010
   17.44583321  122.96299744    4.44999981    2.89000010
   17.44916534  127.26999664    4.40999985    2.89000010
   17.45222282  123.21700287    4.42999983    2.86999989
   17.45833397  123.21700287    4.51000023    2.86999989
   17.46250153  130.41999817    4.42999983    2.89000010
   17.46583366  125.19200134    4.38999987    2.89000010
   17.46888924  129.47300720    4.34999990    2.89000010
   17.47222328  125.42600250    4.28999996    2.89000010
   17.47555542  127.63899994    4.26000023    2.89000010
   17.47666740  128.71400452    4.21999979    2.89000010
   17.47916794  124.13099670    4.21999979    2.89000010
   17.48250008  128.34700012    4.28999996    2.86999989
   17.48555565  131.01499939    4.57999992    2.86999989
   17.48888969  127.10500336    4.88999987    2.84999990
   17.49222183  140.86099243    4.90999985    2.84999990
   17.49527740  129.79299927    4.90999985    2.86999989
   17.50111198  129.79299927    4.90999985    2.84999990
   17.50527763  140.01199341    4.90999985    2.84999990
   17.50861168  131.95700073    4.90999985    2.80999994
   17.51000023  131.06399536    4.90999985    2.82999992
   17.51222229  138.47900391    4.90999985    2.84999990
   17.51527786  141.75000000    4.90999985    2.86999989
   17.51861000  130.66700745    4.90999985    2.86999989
   17.52194405  129.52299500    4.90999985    2.86999989
   17.52499962  139.20399475    4.90999985    2.84999990
   17.52833366  133.21000671    4.90999985    2.84999990
   17.53166580  134.12600708    4.90999985    2.84999990
   17.53472137  135.90699768    4.90999985    2.84999990
   17.53805542  135.59399414    4.90999985    2.84999990
   17.54416656  135.59399414    4.90999985    2.86999989
   17.54833221  127.12400055    4.90999985    2.84999990
   17.55138779  124.04199982    4.90999985    2.86999989
   17.55472183  138.21000671    4.90999985    2.82999992
   17.55777740  129.45799255    4.90999985    2.86999989
   17.56110954  129.78999329    4.90999985    2.84999990
   17.56444359  127.09100342    4.90999985    2.86999989
   17.56777954  133.05599976    4.90999985    2.86999989
   17.57083511  131.73800659    4.90999985    2.86999989
   17.57416725  126.70999908    4.90999985    2.86999989
   17.57666779  129.71899414    4.90999985    2.84999990
   17.57777786  131.72500610    4.90999985    2.84999990
   17.58111191  140.36999512    4.90999985    2.86999989
   17.58694458  140.36999512    4.90999985    2.84999990
   17.59111214  138.13000488    4.90999985    2.84999990
   17.59416771  132.01499939    4.90999985    2.84999990
   17.59749985  126.84899902    4.90999985    2.84999990
   17.60083389  132.24099731    4.90999985    2.86999989
   17.60388947  130.46899414    4.90999985    2.86999989
   17.60722351  136.44299316    4.90999985    2.86999989
   17.61000061  137.65899658    4.90999985    2.86999989
   17.61083412  138.80499268    4.90999985    2.84999990
   17.61388969  131.08099365    4.84999990    2.86999989
   17.61722183  134.20799255    4.63999987    2.86999989
   17.62055588  132.69299316    4.57999992    2.89000010
   17.62361145  131.31799316    4.55999994    2.84999990
   17.62972260  131.31799316    4.53000021    2.86999989
   17.63388824  136.97000122    4.53000021    2.86999989
   17.63722229  139.67599487    4.46999979    2.86999989
   17.64027786  136.25000000    4.40999985    2.86999989
   17.64333344  134.23899841    4.30999994    2.86999989
   17.64388847  132.65299988    4.30999994    2.86999989
   17.64722252  130.95199585    4.26000023    2.89000010
   17.65027809  136.96800232    4.15999985    2.86999989
   17.65361023  126.16200256    4.09999990    2.89000010
   17.65694427  129.71400452    4.03999996    2.89000010
   17.65999985  132.30900574    3.97000003    2.89000010
   17.66333389  131.06100464    3.95000005    2.89000010
   17.66666603  130.02600098    4.00000000    2.89000010
   17.67249870  130.02600098    4.15999985    2.89000010
   17.67666626  132.34399414    4.32999992    2.86999989
   17.68000031  125.67500305    4.46999979    2.86999989
   17.68305397  127.05899811    4.61999989    2.86999989
   17.68638802  133.24400330    4.76000023    2.86999989
   17.68972206  141.53399658    4.90999985    2.86999989
   17.69277763  134.72000122    4.90999985    2.80999994
   17.69610977  145.75999451    4.90999985    2.75000000
   17.69944382  142.40899658    4.90999985    2.73000002
   17.70250130  136.86300659    4.90999985    2.75000000
   17.70583344  145.91499329    4.90999985    2.78999996
   17.70888901  149.44900513    4.90999985    2.80999994
   17.71000099  146.27099609    4.90999985    2.80999994
   17.71555710  146.27099609    4.90999985    2.75000000
   17.71944427  139.93600464    4.90999985    2.73000002
   17.72277832  153.21699524    4.90999985    2.66000009
   17.72611237  148.23500061    4.90999985    2.67000008
   17.72916794  145.24400330    4.90999985    2.55999994
   17.73250008  248.93299866    4.90999985    2.57999992
   17.73583412  135.94500732    4.90999985    2.36999989
   17.73888969  275.48199463    4.90999985    2.11999989
   17.74222183  226.56100464    4.90999985    2.26999998
   17.74333382  247.24400330    4.90999985    2.34999990
   17.74583435  193.02000427    4.90999985    2.30999994
   17.74916649  146.32200623    4.90999985    2.53999996
   17.75222206  152.09100342    4.90999985    2.64000010
   17.75833321  152.09100342    4.90999985    2.64000010
   17.76250076  139.66499329    4.90999985    2.73000002
   17.76555634  146.88299561    4.90999985    2.69000006
   17.76888847  136.48300171    4.90999985    2.73000002
   17.77222252  129.71200562    4.90999985    2.76999998
   17.77527809  140.74400330    4.90999985    2.80999994
   17.77666664  145.82099915    4.90999985    2.80999994
   17.77888870  136.82000732    4.90999985    2.82999992
   17.78222275  140.74000549    4.90999985    2.82999992
   17.78527641  144.29499817    4.90999985    2.80999994
   17.78861046  140.30400085    4.90999985    2.78999996
   17.79194450  146.33799744    4.90999985    2.80999994
   17.79500008  141.57000732    4.90999985    2.78999996
   17.80111122  141.57000732    4.90999985    2.66000009
   17.80527687  142.95599365    4.90999985    2.66000009
   17.80861092  126.97299957    4.90999985    2.71000004
   17.80999947  131.35800171    4.90999985    2.69000006
   17.81222153  125.65899658    4.90999985    2.76999998
   17.81555557  130.65400696    4.90999985    2.78999996
   17.81861115  128.65199280    4.90999985    2.82999992
   17.82194519  124.51300049    4.90999985    2.82999992
   17.82527924  132.11599731    4.90999985    2.84999990
   17.82833481  128.13099670    4.90999985    2.86999989
   17.83166695  128.55299377    4.90999985    2.84999990
   17.83472252  146.42300415    4.90999985    2.84999990
   17.83805656  123.74900055    4.90999985    2.86999989
   17.84388924  123.74900055    4.90999985    2.80999994
   17.84805679  125.72699738    4.90999985    2.82999992
   17.85138893  126.81500244    4.90999985    2.86999989
   17.85444450  128.75000000    4.55999994    2.86999989
   17.85777855  126.94999695    4.61999989    2.86999989
   17.86111069  124.93000031    4.90999985    2.86999989
   17.86416626  120.27400208    4.76000023    2.86999989
   17.86750031  129.66999817    4.48999977    2.86999989
   17.87083435  125.83799744    4.44999981    2.86999989
   17.87388992  122.98300171    4.53000021    2.86999989
   17.87666702  122.49800110    4.63999987    2.84999990
   17.87750053  127.37400055    4.65999985    2.84999990
   17.88083267  130.90800476    4.73999977    2.84999990
   17.88694382  130.90800476    4.90999985    2.84999990
   17.89083290  124.23899841    4.90999985    2.82999992
   17.89416695  125.44000244    4.90999985    2.84999990
   17.89749908  125.87799835    4.90999985    2.86999989
   17.90055466  124.21199799    4.90999985    2.82999992
   17.90388870  123.43699646    4.90999985    2.84999990
   17.90722275  127.79299927    4.90999985    2.84999990
   17.90999985  128.77099609    4.90999985    2.84999990
   17.91083336  135.91499329    4.90999985    2.84999990
   17.91416550  148.44500732    4.90999985    2.55999994
   17.91722107  146.61000061    4.90999985    2.59999990
   17.92055511  130.79800415    4.90999985    2.66000009
   17.92388916  219.32099915    4.90999985    2.34999990
   17.92972183  219.32099915    4.90999985    2.82999992
   17.93388748  126.00499725    4.90999985    2.64000010
   17.93694305  141.94400024    4.90999985    2.64000010
   17.94027710  137.75599670    4.90999985    2.34999990
   17.94333267  148.93800354    4.90999985    2.71000004
   17.94388771  151.96400452    4.90999985    2.69000006
   17.94722176  156.32600403    4.90999985    2.78999996
   17.95027924  143.02000427    4.90999985    2.57999992
   17.95361137  130.09399414    4.90999985    2.78999996
   17.95694542  234.14999390    4.90999985    2.71000004
   17.96000099  237.42900085    4.90999985    1.28999996
   17.96333504  173.01300049    4.90999985    2.42000008
   17.96638870  134.88499451    4.90999985    2.53999996
   17.97249985  134.88499451    4.90999985    2.89000010
   17.97666740  128.97399902    4.90999985    2.91000009
   17.97722244  134.51699829    4.90999985    2.91000009
   17.98055649  135.28999329    4.90999985    2.91000009
   17.98361206  128.93200684    4.90999985    2.84999990
   17.98694420  141.43800354    4.90999985    2.86999989
   17.99027824  132.41999817    4.90999985    2.91000009
   17.99333382  124.88500214    4.90999985    2.93000007
   17.99666786  134.99200439    4.90999985    2.93000007
   17.99972153  135.47300720    4.90999985    2.94000006
   18.00305557  140.31900024    4.90999985    2.86999989
   18.00638962  205.51400757    4.90999985    2.64000010
   18.00944519  172.38099670    4.90999985    2.34999990
   18.01055527  162.50500488    4.90999985    2.42000008
   18.01527786  162.50500488    4.90999985    2.51999998
   18.01944351  167.18200684    4.90999985    2.67000008
   18.02277756  163.80000305    4.90999985    2.57999992
   18.02611160  161.66099548    4.90999985    2.51999998
   18.02916718  162.04100037    4.90999985    2.64000010
   18.03249931  161.92199707    4.90999985    2.55999994
   18.03555489  144.95500183    4.90999985    2.66000009
   18.03888893  158.44000244    4.90999985    2.66000009
   18.04222107  275.56600952    4.90999985    2.50000000
   18.04388809  248.10600281    4.90999985    2.30999994
   18.04583359  208.56300354    4.90999985    2.28999996
   18.04888916  251.95799255    4.90999985    2.23000002
   18.05222130  174.03300476    4.90999985    2.21000004
   18.05833244  174.03300476    4.90999985    2.25000000
   18.06222153   99.72149658    4.90999985    2.34999990
   18.06555557   97.14920044    4.90999985    2.00000000
   18.06888962   86.40560150    4.90999985    2.03999996
   18.07194519  262.01400757    4.90999985    2.05999994
   18.07527924  234.50900269    4.90999985    2.26999998
   18.07722282  297.28298950    4.90999985    2.46000004
   18.07916832  277.03100586    4.90999985    2.30999994
   18.08222389  276.65600586    4.90999985    2.21000004
   18.08555603   90.22070313    4.90999985    2.19000006
   18.08861160  241.49600220    4.90999985    2.11999989
   18.09194565  276.78399658    4.90999985    2.26999998
   18.09527779  161.14399719    4.90999985    2.15000010
   18.10111237  161.14399719    4.90999985    2.25000000
   18.10527802  195.89500427    4.90999985    2.40000010
   18.10833359  177.30499268    4.90999985    2.61999989
   18.11055565  192.04299927    4.90999985    2.59999990
   18.11222267  268.95700073    4.90999985    2.55999994
   18.11527824  179.38099670    4.90999985    2.51999998
   18.11861038  185.07800293    4.90999985    2.57999992
   18.12166595  300.73901367    4.90999985    2.50000000
   18.12500000  194.81599426    4.90999985    2.15000010
   18.12833405  281.57800293    4.90999985    2.19000006
   18.13138962  237.53999329    4.90999985    2.48000002
   18.13472176  265.62500000    4.90999985    2.46000004
   18.13805580  314.69799805    4.90999985    2.32999992
   18.14388847  314.69799805    4.90999985    1.94000006
   18.14805603  161.93600464    4.90999985    2.53999996
   18.15138817  196.80700684    4.90999985    2.59999990
   18.15444374  157.36399841    4.90999985    2.28999996
   18.15777779  163.73599243    4.90999985    2.57999992
   18.16083336  161.41200256    4.80999994    2.39000010
   18.16416550  132.94700623    4.61999989    2.46000004
   18.16749954  149.65400696    4.17999983    2.30999994
   18.17055511  181.69000244    4.03999996    2.19000006
   18.17388916  177.03100586    4.82999992    1.98000002
   18.17722130   -1.00000000    4.90999985    1.63000000
   18.18083191  134.46400452    4.90999985    1.25000000
   18.19083214   -1.00000000    4.90999985    0.69000000
   18.19388771   -1.00000000    4.90999985    0.61000001
   18.19722176   -1.00000000    4.90999985    0.52999997
   18.20055580   -1.00000000    4.90999985    0.52999997
   18.20361137   -1.00000000    4.90999985    0.61000001
   18.20694542   -1.00000000    4.90999985    0.50000000
   18.21027946   -1.00000000    4.90999985    0.50000000
   18.21361160   -1.00000000    4.90999985    0.47999999
   18.21666718   -1.00000000    4.90999985    0.28000000
   18.22000122   -1.00000000    4.90999985    0.28000000
   18.22333336   -1.00000000    4.90999985    0.28000000
   18.23361206   -1.00000000    4.90999985    0.05000000
   18.23694420   -1.00000000    4.90999985    0.09000000
   18.23999977   -1.00000000    4.90999985    0.19000000
   18.24333382   -1.00000000    4.90999985    0.25000000
   18.24694443   -1.00000000    4.90999985    0.23000000
   18.25000000   -1.00000000    4.90999985    0.25000000
   18.25333405   -1.00000000    4.90999985    0.23000000
   18.25666618   -1.00000000    4.90999985    0.23000000
   18.25972176   -1.00000000    4.90999985    0.11000000
   18.26305580   -1.00000000    4.90999985    0.05000000
   18.26638794   -1.00000000    4.90999985    0.05000000
   18.27638817   -1.00000000    4.80000019    0.11000000
   18.28000069   -1.00000000    4.90999985    0.15000001
   18.28305435   -1.00000000    4.90999985    0.19000000
   18.28638840   -1.00000000    4.90999985    0.25999999
   18.28972244   -1.00000000    4.90999985    0.23000000
   18.29277802   -1.00000000    4.90999985    0.31999999
   18.29611015   -1.00000000    4.71999979    0.25999999
   18.29944420   -1.00000000    4.61999989    0.07000000
   18.30249977   -1.00000000    4.34999990    0.07000000
   18.30583191   -1.00000000    4.51000023    0.09000000
   18.30888748   -1.00000000    4.59999990    0.11000000
   18.31944466   -1.00000000    4.09999990    0.31999999
   18.32250023   -1.00000000    4.01999998    0.46000001
   18.32583427  221.06900024    4.17999983    0.51999998
   18.32888985  290.01901245    4.09999990    0.58999997
   18.33222389  286.25698853    4.36999989    0.63000000
   18.33555603   33.34529877    4.42999983    0.58999997
   18.33861160   -1.00000000    4.28999996    0.51999998
   18.34194565  269.68600464    4.15999985    0.56999999
   18.34444427  267.93600464    3.99000001    0.61000001
   18.34555626  256.68600464    3.86999989    0.61000001
   18.34889030  215.89700317    3.30999994    0.58999997
   18.35194397  270.95001221    2.82999992    0.61000001
   18.35805511  270.95001221    2.30999994    0.56999999
   18.36222267  139.43899536    2.59999990    0.46000001
   18.36555672  287.52301025    3.14000010    0.52999997
   18.36861038  141.84500122    3.76999998    0.52999997
   18.37194443  131.70500183    3.80999994    0.44000000
   18.37527847  108.24099731    3.64000010    0.44000000
   18.37888908   -1.00000000    3.84999990    0.46000001
   18.38194466   -1.00000000    4.11999989    0.46000001
   18.38527679   -1.00000000    4.28999996    0.40000001
   18.38861084   -1.00000000    4.34999990    0.40000001
   18.39166641   -1.00000000    4.32999992    0.31999999
   18.39500046   -1.00000000    4.38999987    0.36000001
   18.40499878   -1.00000000    3.41000009    0.19000000
   18.40833282   -1.00000000    3.26999998    0.17000000
   18.41194344   -1.00000000    3.32999992    0.07000000
   18.41499901   -1.00000000    3.34999990    0.11000000
   18.41833305   -1.00000000    3.41000009    0.13000000
   18.42166519   -1.00000000    3.28999996    0.07000000
   18.42472076   -1.00000000    3.18000007    0.13000000
   18.42805481   -1.00000000    2.28999996    0.28000000
   18.43138885   -1.00000000    1.89999998    0.28000000
   18.43444443  143.27699280    1.89999998    0.36000001
   18.43777657   -1.00000000    2.21000004    0.38000000
   18.44388771   -1.00000000    2.50000000    0.30000001
   18.46222305  143.10400391    0.75000000    0.52999997
   18.46555710  155.42399597    0.86000001    0.51999998
   18.46861076  145.38000488    0.80000001    0.51999998
   18.47194481  144.48199463    1.01999998    0.51999998
   18.47500038  143.03999329    1.41999996    0.50000000
   18.47833443  144.67399597    1.28999996    0.51999998
   18.48166656  164.37800598    0.70999998    0.51999998
   18.48694420  164.37800598    0.58999997    0.51999998
   18.49111176  158.10699463    0.44000000    0.50000000
   18.49416733  185.01199341    0.40000001    0.50000000
   18.49527740  161.68800354    0.38000000    0.51999998
   18.49805641  139.38600159    0.38000000    0.51999998
   18.50111198  135.63000488    0.38000000    0.50000000
   18.50444412  137.66799927    0.36000001    0.51999998
   18.50777817  137.88299561    0.34000000    0.50000000
   18.51083374  140.68299866    0.34000000    0.50000000
   18.51416588  137.65299988    0.36000001    0.50000000
   18.51749992  139.13000488    0.36000001    0.46000001
   18.52055550  145.15899658    0.36000001    0.47999999
   18.52388954  154.96499634    0.41999999    0.44000000
   18.52972221  154.96499634    0.76999998    0.46000001
   18.53388786  124.74600220    1.26999998    0.47999999
   18.53722191  131.94500732    1.28999996    0.47999999
   18.54027748  144.66999817    1.28999996    0.44000000
   18.54361153  134.25999451    1.60000002    0.41999999
   18.54694366  140.51699829    1.75000000    0.44000000
   18.54999924  142.82099915    1.75000000    0.41999999
   18.55333328  155.17300415    1.86000001    0.38000000
   18.55638885  148.88900757    1.86000001    0.40000001
   18.55972099  135.41299438    1.00000000    0.41999999
   18.56194305  148.82200623    0.70999998    0.40000001
   18.56361008  141.94799805    0.76999998    0.40000001
   18.56666756  131.54899597    0.88000000    0.41999999
   18.57250023  131.54899597    1.03999996    0.36000001
   18.57666779  146.96299744    1.05999994    0.38000000
   18.58000183  148.66900635    1.48000002    0.41999999
   18.58333397  236.95300293    1.85000002    0.40000001
   18.58638954  300.97100830    1.83000004    0.36000001
   18.58972359   -1.00000000    1.88000000    0.31999999
   18.59305573   -1.00000000    1.80999994    0.19000000
   18.59638977   -1.00000000    1.64999998    0.25000000
   18.59972191   -1.00000000    1.25000000    0.15000001
   18.60305595   -1.00000000    0.73000002    0.20999999
   18.60611153  106.02300262    0.70999998    0.25000000
   18.60944557  232.39799500    0.63000000    0.25000000
   18.61555672  232.39799500    0.61000001    0.36000001
   18.61944389  156.89700317    0.64999998    0.34000000
   18.62277794  154.26499939    0.51999998    0.38000000
   18.62611198  148.60899353    0.56999999    0.38000000
   18.62861061  147.49699402    0.64999998    0.38000000
   18.62972260  136.62300110    0.67000002    0.38000000
   18.63277817  144.06799316    0.58999997    0.38000000
   18.63611031  144.02799988    0.51999998    0.40000001
   18.63916588  147.61700439    0.41999999    0.40000001
   18.64249992  149.41499329    0.28000000    0.38000000
   18.64583397  154.81500244    0.25999999    0.38000000
   18.64888954  144.18499756    0.25999999    0.38000000
   18.65222168  137.94000244    0.25999999    0.40000001
   18.65833282  137.94000244    0.41999999    0.40000001
   18.66250038  146.72700500    0.51999998    0.40000001
   18.66555595  142.67399597    0.40000001    0.40000001
   18.66888809  133.69999695    0.38000000    0.40000001
   18.67222214  146.46299744    0.31999999    0.40000001
   18.67527771  135.40100098    0.31999999    0.40000001
   18.67860985  140.54800415    0.28000000    0.40000001
   18.68166542  139.64799500    0.28000000    0.40000001
   18.68499947  129.73899841    0.28000000    0.40000001
   18.68833160  139.81199646    0.28000000    0.38000000
   18.69138718  133.02600098    0.28000000    0.40000001
   18.69472122  131.62199402    0.30000001    0.40000001
   18.69527626  124.41100311    0.28000000    0.38000000
   18.70111275  124.41100311    0.40000001    0.38000000
   18.70527840  131.67700195    0.41999999    0.38000000
   18.70861244  138.09800720    0.40000001    0.40000001
   18.71166801  139.95899963    0.36000001    0.38000000
   18.71500015  132.15299988    0.36000001    0.38000000
   18.71805573  151.32099915    0.50000000    0.38000000
   18.72138977  140.59800720    0.58999997    0.38000000
   18.72472191  131.00100708    0.61000001    0.38000000
   18.72777748  139.35600281    0.55000001    0.38000000
   18.72861099  130.14500427    0.52999997    0.38000000
   18.73166656  132.91900635    0.51999998    0.40000001
   18.73472214  132.46000671    0.47999999    0.40000001
   18.73805618  131.07400513    0.44000000    0.40000001
   18.74388885  131.07400513    0.31999999    0.40000001
   18.74805641  133.19900513    0.31999999    0.40000001
   18.75138855  130.77499390    0.31999999    0.38000000
   18.75444412  126.58399963    0.31999999    0.40000001
   18.75777817  139.17900085    0.31999999    0.40000001
   18.76111031  153.10800171    0.31999999    0.38000000
   18.76194382  143.08500671    0.31999999    0.38000000
   18.76472282  147.71099854    0.31999999    0.38000000
   18.76777840  148.01699829    0.31999999    0.38000000
   18.77111053  143.53199768    0.34000000    0.38000000
   18.77444458  140.81900024    0.36000001    0.38000000
   18.77750015  146.66299438    0.36000001    0.38000000
   18.78083229  157.56500244    0.34000000    0.40000001
   18.78694344  157.56500244    0.34000000    0.38000000
   18.79083252  152.33299255    0.34000000    0.38000000
   18.79416656  144.00100708    0.36000001    0.38000000
   18.79527664  149.38499451    0.36000001    0.38000000
   18.79777718  143.24200439    0.38000000    0.38000000
   18.80083275  156.31900024    0.38000000    0.38000000
   18.80416679  142.59100342    0.36000001    0.38000000
   18.80749893  142.81300354    0.38000000    0.38000000
   18.81055450  155.91400146    0.34000000    0.38000000
   18.81388855  150.76199341    0.36000001    0.38000000
   18.81694603  146.11700439    0.40000001    0.36000001
   18.82027817  143.12800598    0.38000000    0.36000001
   18.82361221  161.69799805    0.36000001    0.34000000
   18.82972336  161.69799805    0.40000001    0.28000000
   18.83388901  313.85900879    0.51999998    0.23000000
   18.83694458   54.10770035    0.69000000    0.25000000
   18.84027863   -1.00000000    0.73000002    0.19000000
   18.84361267   -1.00000000    0.61000001    0.23000000
   18.84666824  177.85400391    0.56999999    0.28000000
   18.85000038  212.44299316    0.61000001    0.30000001
   18.85333443  165.81100464    0.79000002    0.36000001
   18.85639000  152.34399414    0.86000001    0.36000001
   18.85972214  192.38099670    0.79000002    0.31999999
   18.86305618   -1.00000000    0.67000002    0.17000000
   18.86638832   -1.00000000    0.61000001    0.15000001
   18.87666702   -1.00000000    2.11999989    0.20999999
   18.87972260   -1.00000000    2.57999992    0.15000001
   18.88305473   -1.00000000    2.75000000    0.09000000
   18.88638878   -1.00000000    2.66000009    0.09000000
   18.88944435   -1.00000000    2.69000006    0.09000000
   18.89277840   -1.00000000    2.71000004    0.15000001
   18.89611053   -1.00000000    2.26999998    0.19000000
   18.89944458   -1.00000000    1.75000000    0.15000001
   18.90277672   -1.00000000    2.01999998    0.07000000
   18.90583229   -1.00000000    2.50000000    0.11000000
   18.90916634   -1.00000000    2.66000009    0.15000001
   18.91527748   -1.00000000    2.89000010    0.20999999
   18.91944313   -1.00000000    3.05999994    0.23000000
   18.92277718   -1.00000000    3.00000000    0.20999999
   18.92611122  285.89001465    3.01999998    0.25000000
   18.92860985  203.48300171    3.05999994    0.31999999
   18.92972183  172.08599854    3.09999990    0.31999999
   18.93277740  211.03799438    2.84999990    0.36000001
   18.93610954  155.44400024    2.82999992    0.34000000
   18.93944359  140.43299866    2.71000004    0.38000000
   18.94249916  229.53399658    2.34999990    0.38000000
   18.94583321  205.45399475    2.11999989    0.34000000
   18.94916534  229.35299683    1.80999994    0.31999999
   18.95222282  176.23100281    1.44000006    0.31999999
   18.95833397  176.23100281    1.88000000    0.36000001
   18.96250153  152.25100708    2.28999996    0.40000001
   18.96555710  142.82699585    2.34999990    0.38000000
   18.96888924  144.51400757    2.26999998    0.38000000
   18.97194481  146.41400146    2.19000006    0.38000000
   18.97527885  148.31599426    2.05999994    0.38000000
   18.97861099  144.68499756    2.30999994    0.38000000
   18.98166656  140.63600159    2.55999994    0.38000000
   18.98500061  146.20199585    3.30999994    0.38000000
   18.98833275  149.59800720    3.36999989    0.38000000
   18.99138832  156.06199646    2.89000010    0.38000000
   18.99472237  150.54800415    2.01999998    0.38000000
   18.99527740  143.35499573    1.76999998    0.38000000
   19.00111198  143.35499573    1.51999998    0.40000001
   19.00527763  135.33399963    1.51999998    0.40000001
   19.00833321  158.75999451    1.53999996    0.38000000
   19.01166725  157.83999634    1.60000002    0.36000001
   19.01499939  192.48599243    1.71000004    0.31999999
   19.01833344  171.19500732    1.55999994    0.31999999
   19.02138901  143.44500732    1.38000000    0.38000000
   19.02472115  137.61000061    1.19000006    0.38000000
   19.02777672  154.51400757    1.03999996    0.36000001
   19.02861023  142.10200500    1.01999998    0.36000001
   19.03166580  130.34399414    0.98000002    0.36000001
   19.03472137  130.64300537    0.98000002    0.36000001
   19.03805542  146.08700562    0.92000002    0.38000000
   19.04388809  146.08700562    0.79000002    0.38000000
   19.04805565  140.22099304    0.80000001    0.38000000
   19.05138779  137.51699829    0.86000001    0.36000001
   19.05444336  133.12600708    0.88000000    0.38000000
   19.05777740  125.14499664    0.88000000    0.38000000
   19.06110954  139.57899475    0.86000001    0.38000000
   19.06194305  137.34199524    0.88000000    0.38000000
   19.06472206  140.52699280    0.88000000    0.38000000
   19.06777954  141.38699341    0.89999998    0.38000000
   19.07111168  147.16700745    0.88000000    0.38000000
   19.07444572  149.46699524    0.88000000    0.38000000
   19.07750130  137.52200317    1.21000004    0.38000000
   19.08083344  140.28500366    1.55999994    0.38000000
   19.08666801  140.28500366    2.07999992    0.28000000
   19.09083366   -1.00000000    1.89999998    0.11000000
   19.09416771   -1.00000000    2.36999989    0.15000001
   19.09777832   -1.00000000    2.96000004    0.15000001
   19.10083389  232.86799622    2.80999994    0.20999999
   19.10416794  159.65100098    1.34000003    0.38000000
   19.10722351  192.46800232    0.63000000    0.36000001
   19.11055565  265.34399414    0.63000000    0.38000000
   19.11388969  149.39900208    0.58999997    0.38000000
   19.11694527  142.72399902    0.61000001    0.38000000
   19.12027740  134.78799438    0.67000002    0.38000000
   19.12361145  143.16400146    0.69000000    0.38000000
   19.12972260  143.16400146    0.70999998    0.38000000
   19.13388824  137.56599426    0.79000002    0.38000000
   19.13694382  133.17700195    1.00000000    0.38000000
   19.14027786  137.48500061    1.38000000    0.40000001
   19.14333344  133.84199524    1.66999996    0.40000001
   19.14666748  136.54299927    1.66999996    0.40000001
   19.14999962  145.65299988    1.58000004    0.38000000
   19.15305519  172.95399475    1.60000002    0.36000001
   19.15638924  202.95599365    1.88000000    0.31999999
   19.15972137  182.57800293    2.03999996    0.31999999
   19.16194344  221.52600098    2.07999992    0.34000000
   19.16333389  231.91499329    2.09999990    0.34000000
   19.16666603   87.58519745    2.13000011    0.30000001
   19.17249870   87.58519745    2.55999994    0.25999999
   19.17666626  127.70300293    2.66000009    0.28000000
   19.17972183  258.86199951    2.78999996    0.30000001
   19.18305397  217.01899719    2.82999992    0.31999999
   19.18638802  183.78300476    2.76999998    0.31999999
   19.18944359  198.19700623    2.69000006    0.36000001
   19.19277763  137.72399902    2.67000008    0.36000001
   19.19527626  155.12199402    2.67000008    0.36000001
   19.19638824  160.63900757    2.71000004    0.36000001
   19.19972038  146.42300415    2.76999998    0.36000001
   19.20277786  150.00700378    2.76999998    0.38000000
   19.20611191  184.56300354    2.76999998    0.36000001
   19.20916748  164.25900269    2.67000008    0.34000000
   19.21527863  164.25900269    2.80999994    0.31999999
   19.21944427  356.24899292    2.76999998    0.30000001
   19.22277832  281.86499023    2.76999998    0.28000000
   19.22583389  353.64199829    2.71000004    0.30000001
   19.22861099  295.68600464    2.57999992    0.30000001
   19.22944450  232.00100708    2.57999992    0.30000001
   19.23277855  321.01000977    2.71000004    0.30000001
   19.23583412  249.47900391    2.59999990    0.31999999
   19.23916626  190.58900452    2.57999992    0.36000001
   19.24222183  236.11399841    2.57999992    0.34000000
   19.24555588  204.88400269    2.55999994    0.34000000
   19.24888992  211.53900146    2.61999989    0.31999999
   19.25194359  181.83900452    2.57999992    0.34000000
   19.25805473  181.83900452    2.11999989    0.34000000
   19.26222229  170.50399780    1.78999996    0.34000000
   19.26555634  160.95899963    1.76999998    0.34000000
   19.26888847  170.79299927    1.98000002    0.34000000
   19.27194405  179.75700378    2.07999992    0.31999999
   19.27527809  173.78500366    1.66999996    0.31999999
   19.27833366  165.04600525    1.39999998    0.31999999
   19.28166580  155.15199280    1.28999996    0.31999999
   19.28499985  162.83099365    1.16999996    0.31999999
   19.28805542  149.88900757    1.16999996    0.30000001
   19.29138756  154.16200256    1.13000000    0.28000000
   19.29472160  157.25999451    1.33000004    0.30000001
   19.29527664  178.16799927    1.41999996    0.30000001
   19.30111122  178.16799927    1.78999996    0.28000000
   19.30527687  163.97300720    1.86000001    0.28000000
   19.30833244  165.57499695    1.91999996    0.28000000
   19.31166649  153.73300171    1.78999996    0.28000000
   19.31499863  155.13299561    1.53999996    0.28000000
   19.31805611  174.64599609    1.46000004    0.28000000
   19.32139015  159.68600464    1.53999996    0.28000000
   19.32444572  165.32800293    1.53999996    0.25000000
   19.32777786  174.32299805    1.38000000    0.25000000
   19.32861137  166.93200684    1.34000003    0.25000000
   19.33139038  155.01400757    1.25000000    0.25000000
   19.33472252  155.29600525    1.16999996    0.25000000
   19.33777809  180.99000549    1.23000002    0.25000000
   19.34388924  180.99000549    1.38000000    0.23000000
   19.34805679  152.21499634    1.36000001    0.25000000
   19.35138893  168.71899414    1.26999998    0.23000000
   19.35444450  163.36000061    1.07000005    0.23000000
   19.35777855  164.87300110    0.79000002    0.23000000
   19.36083412  162.09300232    0.61000001    0.23000000
   19.36194420  166.49000549    0.55000001    0.23000000
   19.36472321  164.73100281    0.50000000    0.23000000
   19.36805534  161.93299866    0.44000000    0.20999999
   19.37111092  149.04699707    0.47999999    0.20999999
   19.37444496  163.66000366    0.50000000    0.20999999
   19.37777710  159.00700378    0.50000000    0.20999999
   19.38083267  158.83700562    0.46000001    0.20999999
   19.38666725  158.83700562    0.41999999    0.20999999
   19.39083290  148.74299622    0.41999999    0.20999999
   19.39416695  149.48800659    0.38000000    0.20999999
   19.39527702  159.25900269    0.38000000    0.19000000
   19.39777756  145.58200073    0.34000000    0.20999999
   19.40111160  162.06599426    0.31999999    0.19000000
   19.40416718  165.31900024    0.34000000    0.19000000
   19.40749931  153.36599731    0.34000000    0.17000000
   19.41083336  154.96099854    0.34000000    0.17000000
   19.41388893  163.81900024    0.30000001    0.17000000
   19.41722107  172.39199829    0.28000000    0.17000000
   19.42027664  157.03399658    0.28000000    0.17000000
   19.42361069  162.60600281    0.28000000    0.17000000
   19.42944336  162.60600281    0.28000000    0.15000001
   19.43361092  150.15299988    0.25999999    0.15000001
   19.43694305  154.73899841    0.25999999    0.13000000
   19.44027710  153.73899841    0.25999999    0.13000000
   19.44333267  160.20799255    0.28000000    0.13000000
   19.44666672  149.32099915    0.36000001    0.13000000
   19.44972038  149.38299561    0.40000001    0.11000000
   19.45305634  133.27499390    0.55000001    0.11000000
   19.45639038  158.69799805    0.63000000    0.13000000
   19.45944595  158.40600586    0.64999998    0.11000000
   19.46194458  164.50399780    0.64999998    0.11000000
   19.48277855  164.50399780    0.50000000    0.09000000
   19.48694420  138.66700745    0.50000000    0.07000000
   19.48999977  152.20700073    0.55000001    0.09000000
   19.49333382  200.53599548    0.56999999    0.07000000
   19.49527740  151.00799561    0.56999999    0.09000000
   19.49694443  162.70199585    0.55000001    0.09000000
   19.50027847  153.72900391    0.64999998    0.09000000
   19.50333405  143.96099854    0.76999998    0.07000000
   19.50666618  144.93499756    0.86000001    0.07000000
   19.51000023  146.15199280    0.86000001    0.07000000
   19.51305580  142.97900391    0.98000002    0.07000000
   19.51638794  147.99899292    1.13000000    0.09000000
   19.51944351  145.61999512    1.13000000    0.09000000
   19.52555466  145.61999512    1.19000006    0.07000000
   19.52944374  137.79600525    1.23000002    0.09000000
   19.53277779  139.03799438    1.25000000    0.07000000
   19.53610992  138.08500671    1.11000001    0.09000000
   19.53916550  142.08299255    1.16999996    0.09000000
   19.54249954  147.78500366    1.25000000    0.07000000
   19.54583359  147.22700500    1.26999998    0.07000000
   19.54888916  144.36300659    1.03999996    0.07000000
   19.55222130  145.25799561    1.11000001    0.07000000
   19.55527687  146.71099854    0.92000002    0.07000000
   19.55861092  137.62500000    0.55000001    0.07000000
   19.56194305  140.09599304    0.36000001    0.07000000
   19.56250000  135.87199402    0.36000001    0.07000000
   19.56833458  135.87199402    0.40000001    0.07000000
   19.57250023  156.98500061    0.80000001    0.05000000
   19.57555580  156.38200378    0.94000000    0.05000000
   19.57888985  150.61199951    0.40000001    0.05000000
   19.58222389  153.63600159    0.25000000    0.05000000
   19.58527756  145.97900391    0.36000001    0.05000000
   19.58861160  136.76400757    0.61000001    0.05000000
   19.59166718  150.07800293    0.70999998    0.05000000
   19.59500122  146.89399719    0.70999998    0.03000000
   19.59583473  143.68299866    0.69000000    0.05000000
   19.59861183  161.74899292    0.61000001    0.05000000
   19.60194397  147.08500671    0.50000000    0.03000000
   19.60527802  152.10499573    0.36000001    0.05000000
   19.61111069  152.10499573    0.31999999    0.03000000
   19.61527824  162.27699280    0.25999999    0.03000000
   19.61861038  144.41799927    0.30000001    0.03000000
   19.62166595  142.30999756    0.30000001    0.03000000
   19.62500000  145.94900513    0.30000001    0.03000000
   19.62805557  145.66400146    0.25999999    0.03000000
   19.62916756  148.79299927    0.25000000    0.03000000
   19.63166618  163.99899292    0.25000000    0.03000000
   19.63500023  137.65199280    0.25000000    0.03000000
   19.63833237  141.04800415    0.25999999    0.03000000
   19.64138794  147.61900330    0.25000000    0.03000000
   19.64472198  141.80999756    0.25000000    0.03000000
   19.64777756  150.87199402    0.23000000    0.03000000
   19.65388870  150.87199402    0.23000000    0.03000000
   19.65805435  152.71299744    0.25000000    0.03000000
   19.66138840  137.58599854    0.25000000    0.03000000
   19.66250038  164.68800354    0.25000000    0.03000000
   19.66499901  157.32800293    0.25000000    0.01000000
   19.66833305  144.49299622    0.25999999    0.01000000
   19.67166519  222.47700500    0.38000000    0.01000000
   19.67472076  223.98599243    0.55000001    0.01000000
   19.67805481  255.80900574    0.79000002    0.01000000
   19.68111038  275.08801270    0.89999998    0.01000000
   19.68444443   -1.00000000    0.92000002    0.01000000
   19.68777657   -1.00000000    1.13000000    0.01000000
   19.69083214   -1.00000000    1.51999998    0.01000000
   19.69666672   -1.00000000    1.88000000    0.03000000
   19.70083427  154.17799377    1.89999998    0.03000000
   19.70416832  174.64799500    1.91999996    0.03000000
   19.70750046  273.88000488    1.89999998    0.03000000
   19.71055603  297.65499878    1.94000006    0.03000000
   19.71389008   -1.00000000    1.85000002    0.01000000
   19.71694565   -1.00000000    1.73000002    0.01000000
   19.72027779   -1.00000000    1.73000002    0.01000000
   19.72361183   -1.00000000    1.73000002    0.01000000
   19.72666740   -1.00000000    1.73000002    0.01000000
   19.73027802   -1.00000000    1.73000002    0.01000000
   19.73333359   -1.00000000    1.73000002    0.01000000
   19.73972321   -1.00000000    0.94000000    0.01000000
   19.74388885   -1.00000000    1.23000002    0.01000000
   19.74694443  129.95899963    1.71000004    0.01000000
   19.75027847   -1.00000000    2.75000000    0.01000000
   19.75333405   -1.00000000    2.84999990    0.01000000
   19.75666618   -1.00000000    2.84999990    0.01000000
   19.76000023   -1.00000000    2.84999990    0.01000000
   19.76361084   -1.00000000    2.84999990    0.01000000
   19.76666641   -1.00000000    2.84999990    0.01000000
   19.77000046   -1.00000000    2.84999990    0.01000000
   19.77333260   -1.00000000    2.84999990    0.01000000
   19.77638817   -1.00000000    2.84999990    0.01000000
   19.78249931   -1.00000000    0.63000000    0.01000000
   19.78666687  170.72599792    0.76999998    0.01000000
   19.78999901  158.13999939    0.94000000    0.01000000
   19.79305458  149.96899414    1.26999998    0.01000000
   19.79583359  153.26400757    2.00000000    0.01000000
   19.79666710  152.93800354    2.09999990    0.01000000
   19.79999924  166.93200684    2.39000010    0.01000000
   19.80333328  178.89199829    1.86000001    0.01000000
   19.80638885  171.33200073    1.63000000    0.01000000
   19.80972099  159.20399475    1.36000001    0.01000000
   19.81277657  143.75500488    1.26999998    0.01000000
   19.81611061  162.88400269    1.36000001    0.01000000
   19.81944466  158.44099426    1.71000004    0.01000000
   19.82944489   -1.00000000    2.09999990    0.01000000
   19.83250046   -1.00000000    2.09999990    0.01000000
   19.83583450   -1.00000000    2.09999990    0.01000000
   19.83916664   -1.00000000    2.09999990    0.01000000
   19.84222221  213.32899475    2.09999990    0.01000000
   19.84555626   -1.00000000    2.09999990    0.01000000
   19.84889030  172.17399597    1.03999996    0.01000000
   19.85194397  151.81900024    1.07000005    0.01000000
   19.85527802  150.23399353    1.41999996    0.01000000
   19.85833359  148.57099915    1.76999998    0.01000000
   19.86166763   -1.00000000    1.69000006    0.01000000
   19.86805534   -1.00000000    2.13000011    0.01000000
   19.87222290  146.00000000    2.15000010    0.01000000
   19.87555504  145.26499939    1.64999998    0.01000000
   19.87888908  154.90600586    1.41999996    0.01000000
   19.88194466  154.36199951    2.05999994    0.01000000
   19.88527679  155.73199463    2.42000008    0.01000000
   19.88861084  147.16299438    2.50000000    0.01000000
   19.89166641  152.33999634    1.98000002    0.01000000
   19.89500046  152.76300049    1.38000000    0.01000000
   19.89583397  159.86099243    1.33000004    0.01000000
   19.89833260  153.91700745    1.05999994    0.01000000
   19.90166664  141.02000427    1.05999994    0.01000000
   19.90499878  154.31700134    1.05999994    0.01000000
   19.91110992  154.31700134    1.05999994    0.01000000
   19.91527748  148.01400757    1.05999994    0.01000000
   19.91833305  151.25300598    1.05999994    0.01000000
   19.92166519  143.72599792    0.70999998    0.01000000
   19.92499924  144.99200439    0.81999999    0.01000000
   19.92805481  136.60000610    0.86000001    0.01000000
   19.92916679  138.89300537    0.86000001    0.01000000
   19.93166542  140.23599243    0.83999997    0.01000000
   19.93499947  144.62500000    0.83999997    0.01000000
   19.93833160  137.06900024    0.81999999    0.01000000
   19.94138718  140.04499817    0.81999999    0.01000000
   19.94472122  139.31700134    0.81999999    0.01000000
   19.94805527  135.57200623    1.58000004    0.01000000
   19.95388985  135.57200623    1.83000004    0.01000000
   19.95805550  140.66099548    1.53999996    0.01000000
   19.96138954  143.89199829    1.03999996    0.01000000
   19.96250153  136.33999634    1.21000004    0.01000000
   19.96472359  136.35600281    1.33000004    0.01000000
   19.96805573  142.18400574    2.50000000    0.01000000
   19.97138977  144.54899597    2.50000000    0.01000000
   19.97444534  153.89599609    2.50000000    0.01000000
   19.97777748  142.71600342    2.53999996    0.01000000
   19.98111153  147.07200623    2.53999996    0.01000000
   19.98416710  141.82400513    2.53999996    0.01000000
   19.98750114  147.43699646    2.53999996    0.01000000
   19.99055672  148.26100159    2.53999996    0.01000000
   19.99666786  148.26100159    2.53999996    0.01000000
   20.00083351  133.56900024    2.53999996    0.01000000
   20.00416756  127.21800232    2.53999996    0.01000000
   20.00722313  137.94099426    2.53999996    0.01000000
   20.01055527  136.32800293    2.53999996    0.01000000
   20.01388931  146.00700378    2.53999996    0.01000000
   20.01694489  151.15499878    2.53999996    0.01000000
   20.02027702  137.92900085    2.53999996    0.01000000
   20.02333260  137.00300598    2.53999996    0.01000000
   20.02666664  125.66100311    2.53999996    0.01000000
   20.02916718  142.01699829    2.53999996    0.01000000
   20.03027725  134.49899292    2.53999996    0.01000000
   20.03361130  156.43800354    2.53999996    0.01000000
   20.03972244  156.43800354    2.53999996    0.01000000
   20.04361153  169.34500122    2.53999996    0.01000000
   20.04694366  164.58200073    2.53999996    0.01000000
   20.05027771  153.93800354    2.53999996    0.01000000
   20.05333328  137.32200623    2.53999996    0.01000000
   20.05666542  163.81599426    2.53999996    0.01000000
   20.05972099  151.48500061    2.53999996    0.01000000
   20.06250000  140.17599487    2.53999996    0.01000000
   20.06333351  125.07900238    2.53999996    0.01000000
   20.06666756  134.53199768    2.53999996    0.01000000
   20.07000160  141.33799744    2.53999996    0.01000000
   20.07305717  141.85200500    2.53999996    0.01000000
   20.07638931  147.25799561    2.53999996    0.01000000
   20.08250046  147.25799561    2.53999996    0.01000000
   20.08666801  133.77900696    2.53999996    0.01000000
   20.08972359  154.70599365    2.53999996    0.01000000
   20.09305573  170.40499878    2.53999996    0.01000000
   20.09583473  145.30200195    2.53999996    0.01000000
   20.09666824  143.39999390    2.53999996    0.01000000
   20.10000038  138.61900330    2.53999996    0.01000000
   20.10333443  164.41700745    2.53999996    0.01000000
   20.10639000  147.16499329    2.53999996    0.01000000
   20.10972214  152.40600586    2.53999996    0.01000000
   20.11305618  142.42100525    2.53999996    0.01000000
   20.11611176  172.30599976    2.53999996    0.01000000
   20.11944389  158.44500732    2.53999996    0.01000000
   20.12527847  158.44500732    2.53999996    0.01000000
   20.12944412  192.70700073    2.53999996    0.01000000
   20.13249969   -1.00000000    2.53999996    0.01000000
   20.13583374  124.05799866    2.53999996    0.01000000
   20.13916588  146.59300232    2.53999996    0.01000000
   20.14222145   -1.00000000    2.53999996    0.01000000
   20.14555550   -1.00000000    2.53999996    0.01000000
   20.14888954   -1.00000000    2.53999996    0.01000000
   20.15194321   -1.00000000    2.53999996    0.01000000
   20.15527725   -1.00000000    2.53999996    0.01000000
   20.15833282   -1.00000000    2.53999996    0.01000000
   20.16166687   -1.00000000    2.53999996    0.01000000
   20.17222214   -1.00000000    2.53999996    0.01000000
   20.17527771   -1.00000000    2.53999996    0.01000000
   20.17860985   -1.00000000    2.53999996    0.01000000
   20.18194389   -1.00000000    2.53999996    0.01000000
   20.18499947   -1.00000000    2.53999996    0.01000000
   20.18833160   -1.00000000    2.53999996    0.01000000
   20.19166565   -1.00000000    2.53999996    0.01000000
   20.19472122   -1.00000000    2.53999996    0.01000000
   20.19833183   -1.00000000    2.53999996    0.01000000
   20.20166779   -1.00000000    2.53999996    0.01000000
   20.20472336   -1.00000000    2.53999996    0.01000000
   20.21500015   -1.00000000    2.53999996    0.01000000
   20.21833420   -1.00000000    2.53999996    0.01000000
   20.22138977   -1.00000000    2.53999996    0.01000000
   20.22472191   -1.00000000    2.53999996    0.01000000
   20.22805595   -1.00000000    2.53999996    0.01000000
   20.23139000   -1.00000000    2.53999996    0.01000000
   20.23472214   -1.00000000    2.53999996    0.01000000
   20.23777771   -1.00000000    2.53999996    0.01000000
   20.24111176   -1.00000000    2.53999996    0.01000000
   20.24444389   -1.00000000    2.53999996    0.01000000
   20.24749947   -1.00000000    2.53999996    0.01000000
   20.25777817   -1.00000000    2.53999996    0.01000000
   20.26111031   -1.00000000    2.53999996    0.01000000
   20.26472282   -1.00000000    2.53999996    0.01000000
   20.26805496   -1.00000000    2.53999996    0.01000000
   20.27111053   -1.00000000    2.53999996    0.01000000
   20.27444458   -1.00000000    2.53999996    0.01000000
   20.27777672   -1.00000000    2.53999996    0.01000000
   20.28111076   -1.00000000    2.53999996    0.01000000
   20.28416634   -1.00000000    2.53999996    0.01000000
   20.28750038   -1.00000000    2.53999996    0.01000000
   20.29083252   -1.00000000    2.53999996    0.01000000
   20.30083275   -1.00000000    2.53999996    0.01000000
   20.30388832   -1.00000000    2.53999996    0.01000000
   20.30722237   -1.00000000    2.53999996    0.01000000
   20.31027794   -1.00000000    2.53999996    0.01000000
   20.31361008   -1.00000000    2.53999996    0.01000000
   20.31694603   -1.00000000    2.53999996    0.01000000
   20.32000160   -1.00000000    2.53999996    0.01000000
   20.32333374   -1.00000000    2.53999996    0.01000000
   20.32666779   -1.00000000    2.53999996    0.01000000
   20.33000183   -1.00000000    2.53999996    0.01000000
   20.33333397   -1.00000000    2.53999996    0.01000000
   20.34361267   -1.00000000    2.53999996    0.01000000
   20.34666824   -1.00000000    2.53999996    0.01000000
   20.35000038   -1.00000000    2.53999996    0.01000000
   20.35333443   -1.00000000    2.53999996    0.01000000
   20.35639000   -1.00000000    2.53999996    0.01000000
   20.35972214   -1.00000000    2.53999996    0.01000000
   20.36333466   -1.00000000    2.53999996    0.01000000
   20.36666679   -1.00000000    2.53999996    0.01000000
   20.36972237   -1.00000000    2.53999996    0.01000000
   20.37305641   -1.00000000    2.53999996    0.01000000
   20.37638855   -1.00000000    2.53999996    0.01000000
   20.38638878   -1.00000000    2.53999996    0.01000000
   20.38972282   -1.00000000    2.53999996    0.01000000
   20.39277840   -1.00000000    2.53999996    0.01000000
   20.39638901   -1.00000000    2.53999996    0.01000000
   20.39972115   -1.00000000    2.53999996    0.01000000
   20.40277672   -1.00000000    2.53999996    0.01000000
   20.40611076   -1.00000000    2.53999996    0.01000000
   20.40944481   -1.00000000    2.53999996    0.01000000
   20.41250038   -1.00000000    2.53999996    0.01000000
   20.41583252   -1.00000000    2.53999996    0.01000000
   20.41916656   -1.00000000    2.53999996    0.01000000
   20.42916679   -1.00000000    2.53999996    0.01000000
   20.43249893   -1.00000000    2.53999996    0.01000000
   20.43583298   -1.00000000    2.53999996    0.01000000
   20.43888855   -1.00000000    2.53999996    0.01000000
   20.44222069   -1.00000000    2.53999996    0.01000000
   20.44527626   -1.00000000    2.53999996    0.01000000
   20.44861031   -1.00000000    2.53999996    0.01000000
   20.45194435   -1.00000000    2.53999996    0.01000000
   20.45499992   -1.00000000    2.53999996    0.01000000
   20.45833397   -1.00000000    2.53999996    0.01000000
   20.46166801   -1.00000000    2.53999996    0.01000000
   20.47222328   -1.00000000    2.53999996    0.01000000
   20.47527885   -1.00000000    2.53999996    0.01000000
   20.47861099   -1.00000000    2.53999996    0.01000000
   20.49833298   -1.00000000    2.53999996    0.01000000
   20.50166702   -1.00000000    2.53999996    0.01000000
   20.50472260   -1.00000000    2.53999996    0.01000000
   20.51499939   -1.00000000    2.53999996    0.01000000
   20.51833344   -1.00000000    2.53999996    0.01000000
   20.52138901   -1.00000000    2.53999996    0.01000000
   20.52472115   -1.00000000    2.53999996    0.01000000
   20.52805519   -1.00000000    2.53999996    0.01000000
   20.53166580   -1.00000000    2.53999996    0.01000000
   20.53499985   -1.00000000    2.53999996    0.01000000
   20.53805542   -1.00000000    2.53999996    0.01000000
   20.54138756   -1.00000000    2.53999996    0.01000000
   20.54444313   -1.00000000    2.53999996    0.01000000
   20.54777718   -1.00000000    2.53999996    0.01000000
   20.55777740   -1.00000000    2.53999996    0.01000000
   20.56110954   -1.00000000    2.53999996    0.01000000
   20.56472206   -1.00000000    2.53999996    0.01000000
   20.56805611   -1.00000000    2.53999996    0.01000000
   20.57111168   -1.00000000    2.53999996    0.01000000
   20.57444572   -1.00000000    2.53999996    0.01000000
   20.57750130   -1.00000000    2.53999996    0.01000000
   20.58083344   -1.00000000    2.53999996    0.01000000
   20.58416748   -1.00000000    2.53999996    0.01000000
   20.58722305  123.74099731    2.53999996    0.01000000
   20.59055710  176.99600220    2.53999996    0.01000000
   20.59666824  176.99600220    2.53999996    0.01000000
   20.60083389  189.86999512    2.53999996    0.01000000
   20.60416794  166.94200134    2.53999996    0.01000000
   20.60722351  163.31500244    2.53999996    0.01000000
   20.61055565  149.16000366    2.53999996    0.01000000
   20.61361122  192.91499329    2.53999996    0.01000000
   20.61694527  161.19900513    2.53999996    0.01000000
   20.62027740  208.56399536    2.53999996    0.01000000
   20.62333298  190.72599792    2.53999996    0.01000000
   20.62666702   -1.00000000    2.53999996    0.01000000
   20.63027763   -1.00000000    2.53999996    0.01000000
   20.63361168   -1.00000000    2.53999996    0.01000000
   20.64361191   -1.00000000    2.53999996    0.01000000
   20.64694405   -1.00000000    2.53999996    0.01000000
   20.64999962   -1.00000000    2.53999996    0.01000000
   20.65333366   -1.00000000    2.53999996    0.01000000
   20.65638924   -1.00000000    2.53999996    0.01000000
   20.65972137   -1.00000000    2.53999996    0.01000000
   20.66333389   -1.00000000    2.53999996    0.01000000
   20.66666603   -1.00000000    2.53999996    0.01000000
   20.66972160   -1.00000000    2.53999996    0.01000000
   20.67305565   -1.00000000    2.53999996    0.01000000
   20.67611122   -1.00000000    2.53999996    0.01000000
   20.68638802   -1.00000000    2.53999996    0.01000000
   20.68972206   -1.00000000    2.53999996    0.01000000
   20.69277763   -1.00000000    2.53999996    0.01000000
   20.69638824   -1.00000000    2.53999996    0.01000000
   20.69972038   -1.00000000    2.53999996    0.01000000
   20.70277786   -1.00000000    2.53999996    0.01000000
   20.70611191   -1.00000000    2.53999996    0.01000000
   20.70916748   -1.00000000    2.53999996    0.01000000
   20.71250153   -1.00000000    2.53999996    0.01000000
   20.71583366   -1.00000000    2.53999996    0.01000000
   20.71888924   -1.00000000    2.53999996    0.01000000
   20.72972298   -1.00000000    2.53999996    0.01000000
   20.73305511   -1.00000000    2.53999996    0.01000000
   20.73611069   -1.00000000    2.53999996    0.01000000
   20.73944473   -1.00000000    2.53999996    0.01000000
   20.74250031   -1.00000000    2.53999996    0.01000000
   20.74583435   -1.00000000    2.53999996    0.01000000
   20.74916649   -1.00000000    2.53999996    0.01000000
   20.75222206   -1.00000000    2.53999996    0.01000000
   20.75555611   -1.00000000    2.53999996    0.01000000
   20.75888824   -1.00000000    2.53999996    0.01000000
   20.76194382   -1.00000000    2.53999996    0.01000000
   20.77222252   -1.00000000    2.53999996    0.01000000
   20.77527809   -1.00000000    2.53999996    0.01000000
   20.77861023   -1.00000000    2.53999996    0.01000000
   20.78194427   -1.00000000    2.53999996    0.01000000
   20.78499985   -1.00000000    2.53999996    0.01000000
   20.78833199   -1.00000000    2.53999996    0.01000000
