    HOUR (UT)   FLARE FACTOR    SKY TESTER    SUN TESTER
   11.46944427   -1.00000000   -1.00000000   -1.00000000
   11.49833393  111.54499817    4.86999989    1.51999998
   11.50138855  214.49000549    4.84999990    1.51999998
   11.50472260  200.96899414    4.84999990    1.53999996
   11.50805569  193.44799805    4.82999992    1.51999998
   11.51111126  214.53399658    4.82999992    1.53999996
   11.51444435  221.14700317    4.82999992    1.53999996
   11.51861095  221.14700317    4.80999994    1.53999996
   11.52277756  232.80999756    4.80000019    1.53999996
   11.52583313  270.90701294    4.78000021    1.55999994
   11.52916622  262.49099731    4.78000021    1.55999994
   11.53166676  201.29699707    4.76000023    1.55999994
   11.53277779  242.10099792    4.76000023    1.58000004
   11.53611183  279.85101318    4.76000023    1.58000004
   11.53916740  279.89199829    4.73999977    1.58000004
   11.54250050  255.66299438    4.73999977    1.58000004
   11.54583359  310.05099487    4.71999979    1.58000004
   11.54888916  269.63400269    4.71999979    1.58000004
   11.55222225  349.86999512    4.69999981    1.60000002
   11.55555534  315.58599854    4.67999983    1.60000002
   11.56138897  315.58599854    4.67999983    1.61000001
   11.56555557  316.50698853    4.65999985    1.61000001
   11.56888866  372.37100220    4.63999987    1.63000000
   11.57083321  326.94198608    4.63999987    1.61000001
   11.57222176  369.46398926    4.63999987    1.63000000
   11.57305527  279.85101318    4.76000023    1.58000004
   11.57305527  279.89199829    4.73999977    1.58000004
   11.57333374  255.66299438    4.73999977    1.58000004
   11.57333374  310.05099487    4.71999979    1.58000004
   11.57333374  269.63400269    4.71999979    1.58000004
   11.57361126  349.86999512    4.69999981    1.60000002
   11.57361126  315.58599854    4.67999983    1.60000002
   11.57361126  316.50698853    4.65999985    1.61000001
   11.57388878  372.37100220    4.63999987    1.63000000
   11.57833290  411.70999146    4.59999990    1.61000001
   11.58166695  425.69100952    4.59999990    1.61000001
   11.58500004  463.76300049    4.57999992    1.63000000
   11.58694458  495.11300659    4.57999992    1.63000000
   11.58833313  418.22100830    4.57999992    1.63000000
   11.58972168  455.29800415    4.57999992    1.63000000
   11.59111118  472.75601196    4.55999994    1.63000000
   11.59249973  457.95800781    4.55999994    1.63000000
   11.59388828  408.81698608    4.55999994    1.63000000
   11.59527779  405.42700195    4.55999994    1.64999998
   11.59666634  463.96701050    4.53999996    1.64999998
   11.59805489  419.80801392    4.53999996    1.64999998
   11.59944439  467.16101074    4.53999996    1.64999998
   11.60083389  516.20202637    4.53000021    1.66999996
   11.60222244  495.28799438    4.53000021    1.64999998
   11.60361195  516.08898926    4.53000021    1.66999996
   11.60500050  567.06097412    4.53000021    1.64999998
   11.60638905  540.70697021    4.53000021    1.64999998
   11.60777855  428.47698975    4.51000023    1.66999996
   11.60916710  541.78997803    4.53000021    1.66999996
   11.61055565  477.78698730    4.51000023    1.66999996
   11.61194515  528.44799805    4.51000023    1.66999996
   11.61333370  574.05999756    4.48999977    1.66999996
   11.61472225  493.96899414    4.48999977    1.66999996
   11.61611176  529.69500732    4.48999977    1.66999996
   11.61750031  579.58001709    4.46999979    1.66999996
   11.61888885  533.61700439    4.46999979    1.66999996
   11.62027836  550.93402100    4.46999979    1.66999996
   11.62166691  512.01599121    4.44999981    1.69000006
   11.62305546  564.38500977    4.44999981    1.69000006
   11.62444496  456.78500366    4.44999981    1.69000006
   11.62583351  429.68701172    4.44999981    1.69000006
   11.62722206  571.44702148    4.44999981    1.69000006
   11.62861156  546.64801025    4.42999983    1.69000006
   11.63000011  414.91198730    4.42999983    1.69000006
   11.63138866  422.91799927    4.42999983    1.71000004
   11.63277817  490.24200439    4.40999985    1.69000006
   11.63416672  528.42700195    4.40999985    1.71000004
   11.63555527  503.43099976    4.40999985    1.71000004
   11.63694477  496.11801147    4.38999987    1.69000006
   11.63833332  537.46801758    4.38999987    1.71000004
   11.63972187  543.70898438    4.38999987    1.71000004
   11.64111137  433.47601318    4.38999987    1.71000004
   11.64249992  502.09100342    4.38999987    1.71000004
   11.64388847  527.76898193    4.36999989    1.71000004
   11.64527798  546.79602051    4.36999989    1.71000004
   11.64666653  473.24200439    4.38999987    1.71000004
   11.64805508  469.98199463    4.36999989    1.71000004
   11.64944458  460.41101074    4.36999989    1.71000004
   11.65083313  482.62298584    4.36999989    1.71000004
   11.65222168  503.89700317    4.34999990    1.71000004
   11.65361118  449.89498901    4.36999989    1.73000002
   11.65499973  444.07901001    4.34999990    1.71000004
   11.65638828  497.61401367    4.34999990    1.73000002
   11.65777779  564.51702881    4.34999990    1.71000004
   11.65916634  495.01901245    4.34999990    1.73000002
   11.66055489  469.77301025    4.34999990    1.73000002
   11.66194439  484.85101318    4.32999992    1.73000002
   11.66333294  367.58099365    4.32999992    1.73000002
   11.66472149  456.73901367    4.32999992    1.73000002
   11.66611099  436.93099976    4.32999992    1.73000002
   11.66750050  549.62701416    4.32999992    1.73000002
   11.66888905  523.43298340    4.30999994    1.75000000
   11.67027855  513.79400635    4.32999992    1.75000000
   11.67166710  486.29199219    4.30999994    1.75000000
   11.67305565  421.50900269    4.30999994    1.75000000
   11.67444515  482.68301392    4.28999996    1.75000000
   11.67583370  452.59698486    4.30999994    1.75000000
   11.67722225  451.37200928    4.28999996    1.75000000
   11.67861176  528.06402588    4.26999998    1.75000000
   11.68000031  392.51400757    4.26999998    1.75000000
   11.68138885  493.60198975    4.26999998    1.75000000
   11.68277836  442.42098999    4.26000023    1.75000000
   11.68416691  463.39199829    4.26000023    1.75000000
   11.68555546  451.19500732    4.26000023    1.76999998
   11.68694496  425.61801147    4.23999977    1.76999998
   11.68833351  424.37701416    4.23999977    1.76999998
   11.68972206  459.96600342    4.21999979    1.76999998
   11.69111156  461.88101196    4.21999979    1.76999998
   11.69250011  480.03799438    4.21999979    1.76999998
   11.69388866  491.90899658    4.21999979    1.76999998
   11.69527817  428.48199463    4.19999981    1.76999998
   11.69666672  379.56100464    4.19999981    1.76999998
   11.69805527  389.60800171    4.19999981    1.78999996
   11.69944477  367.10400391    4.19999981    1.78999996
   11.70083332  357.21600342    4.17999983    1.76999998
   11.70222187  388.90301514    4.17999983    1.76999998
   11.70361137  402.48300171    4.17999983    1.76999998
   11.70499992  382.80801392    4.17999983    1.78999996
   11.70638847  459.25299072    4.15999985    1.78999996
   11.70777798  463.96798706    4.15999985    1.78999996
   11.70916653  420.87799072    4.15999985    1.78999996
   11.71055508  476.98400879    4.15999985    1.78999996
   11.71194458  434.46600342    4.15999985    1.78999996
   11.71333313  382.99600220    4.13999987    1.78999996
   11.71472168  405.97000122    4.13999987    1.78999996
   11.71611118  396.14099121    4.13999987    1.78999996
   11.71749973  439.61199951    4.13999987    1.78999996
   11.71888828  447.37298584    4.13999987    1.78999996
   11.72027779  433.94198608    4.11999989    1.78999996
   11.72166634  411.47799683    4.11999989    1.78999996
   11.72305489  388.69799805    4.11999989    1.80999994
   11.72444439  444.00900269    4.11999989    1.80999994
   11.72583294  396.62298584    4.09999990    1.78999996
   11.72722149  357.04000854    4.09999990    1.80999994
   11.72861099  394.81100464    4.09999990    1.80999994
   11.72999954  381.30200195    4.09999990    1.80999994
   11.73138809  375.52600098    4.07999992    1.80999994
   11.73277760  408.50399780    4.07999992    1.80999994
   11.73416710  430.43701172    4.07999992    1.80999994
   11.73555565  393.17599487    4.05999994    1.80999994
   11.73694515  373.57000732    4.07999992    1.80999994
   11.73833370  419.82699585    4.05999994    1.83000004
   11.73972225  416.90200806    4.05999994    1.83000004
   11.74111176  377.23400879    4.03999996    1.83000004
   11.74250031  416.21798706    4.03999996    1.83000004
   11.74388885  371.33401489    4.03999996    1.83000004
   11.74527836  334.75900269    4.03999996    1.83000004
   11.74666691  367.39498901    4.03999996    1.83000004
   11.74805546  377.42098999    4.01999998    1.83000004
   11.74944496  357.06600952    4.01999998    1.83000004
   11.75083351  361.54501343    4.01999998    1.83000004
   11.75222206  375.36599731    4.01999998    1.83000004
   11.75361156  322.80999756    4.00000000    1.85000002
   11.75500011  349.61300659    4.00000000    1.83000004
   11.75638866  336.73300171    4.00000000    1.85000002
   11.75777817  360.62399292    3.99000001    1.85000002
   11.75916672  317.04901123    3.99000001    1.85000002
   11.76055527  341.41500854    3.99000001    1.85000002
   11.76194477  310.50698853    3.99000001    1.85000002
   11.76333332  312.65200806    3.97000003    1.85000002
   11.76472187  359.84298706    3.99000001    1.85000002
   11.76611137  326.66500854    3.97000003    1.85000002
   11.76749992  309.83499146    3.97000003    1.85000002
   11.76888847  339.21600342    3.97000003    1.85000002
   11.77027798  330.56100464    3.95000005    1.85000002
   11.77166653  351.48400879    3.95000005    1.85000002
   11.77305508  350.10000610    3.95000005    1.86000001
   11.77444458  335.08499146    3.95000005    1.85000002
   11.77583313  338.45999146    3.93000007    1.85000002
   11.77722168  320.49099731    3.93000007    1.86000001
   11.77861118  365.05099487    3.93000007    1.86000001
   11.77999973  315.61999512    3.93000007    1.86000001
   11.78138828  331.68200684    3.93000007    1.86000001
   11.78277779  327.80700684    3.91000009    1.85000002
   11.78416729  365.16400146    3.91000009    1.86000001
   11.78555584  302.58700562    3.91000009    1.86000001
   11.78694534  303.61700439    3.91000009    1.86000001
   11.78833389  340.29199219    3.89000010    1.86000001
   11.78972244  291.48300171    3.91000009    1.86000001
   11.78972244  425.69100952    4.59999990    1.61000001
   11.78972244  463.76300049    4.57999992    1.63000000
   11.79027843  275.73199463    3.89000010    1.86000001
   11.79361153  336.64199829    3.89000010    1.86000001
   11.79694462  316.11700439    3.86999989    1.86000001
   11.80000019  311.35501099    3.86999989    1.86000001
   11.80333328  298.01098633    3.86999989    1.88000000
   11.80638885  296.55999756    3.84999990    1.88000000
   11.81055546  296.55999756    3.82999992    1.88000000
   11.81472206  287.17800903    3.82999992    1.89999998
   11.81805515  298.02899170    3.82999992    1.88000000
   11.82111073  289.30099487    3.80999994    1.89999998
   11.82361126  339.79998779    3.78999996    1.88000000
   11.82472229  286.89199829    3.78999996    1.89999998
   11.82805538  345.10198975    3.76999998    1.89999998
   11.83111095  281.95199585    3.76999998    1.89999998
   11.83444405  283.22601318    3.76999998    1.89999998
   11.83777714  295.29501343    3.75000000    1.89999998
   11.84083271  296.52099609    3.75000000    1.89999998
   11.84416676  293.68399048    3.73000002    1.89999998
   11.84749985  280.42098999    3.73000002    1.91999996
   11.85361195  280.42098999    3.72000003    1.91999996
   11.85750008  270.35699463    3.70000005    1.91999996
   11.86083412  285.79098511    3.70000005    1.91999996
   11.86416721  286.11898804    3.70000005    1.91999996
   11.86722279  291.47500610    3.68000007    1.91999996
   11.87055588  289.78298950    3.66000009    1.94000006
   11.87388897  281.78399658    3.66000009    1.94000006
   11.87694454  290.19000244    3.66000009    1.94000006
   11.88027763  296.08999634    3.64000010    1.94000006
   11.88361073  310.67599487    3.64000010    1.94000006
   11.88666630  284.21600342    3.61999989    1.94000006
   11.89000034  284.32299805    3.61999989    1.94000006
   11.89055538  291.88500977    3.61999989    1.94000006
   11.89638901  291.88500977    3.59999990    1.94000006
   11.90055561  271.19100952    3.59999990    1.94000006
   11.90361118  309.26800537    3.59999990    1.96000004
   11.90694427  309.19198608    3.59999990    1.96000004
   11.91027737  245.64500427    3.57999992    1.96000004
   11.91333294  270.44198608    3.57999992    1.96000004
   11.91666698  258.52398682    3.55999994    1.96000004
   11.91972256  258.62500000    3.55999994    1.98000002
   11.92305565  244.98500061    3.55999994    1.98000002
   11.92388916  257.52499390    3.55999994    1.98000002
   11.92666721  277.39999390    3.53999996    1.98000002
   11.93000031  260.35501099    3.51999998    1.98000002
   11.93333340  256.19100952    3.51999998    1.98000002
   11.93916702  256.19100952    3.50000000    1.98000002
   11.94333363  244.72999573    3.48000002    1.98000002
   11.94666672  239.53599548    3.46000004    1.98000002
   11.94972229  246.81500244    3.45000005    2.00000000
   11.95305538  240.61399841    3.45000005    2.00000000
   11.95611095  247.00199890    3.45000005    2.00000000
   11.95722198  255.22999573    3.43000007    2.00000000
   11.95972157  240.65400696    3.43000007    2.00000000
   11.96305561  235.49400330    3.41000009    2.00000000
   11.96638870  229.83599854    3.41000009    2.00000000
   11.96944427  237.01800537    3.39000010    2.01999998
   11.97277737  225.38800049    3.39000010    2.01999998
   11.97611046  234.25799561    3.39000010    2.01999998
   11.98194408  234.25799561    3.36999989    2.01999998
   11.98611164  227.77900696    3.34999990    2.01999998
   11.98944473  214.63000488    3.34999990    2.01999998
   11.99055576  224.60200500    3.34999990    2.03999996
   11.99277782  219.12699890    3.32999992    2.01999998
   11.99611092  214.66600037    3.32999992    2.03999996
   11.99944496  223.36900330    3.32999992    2.03999996
   12.00249958  235.23100281    3.32999992    2.03999996
   12.00583363  248.61000061    3.32999992    2.03999996
   12.00916672  225.92999268    3.30999994    2.03999996
   12.01222229  227.89900208    3.30999994    2.03999996
   12.01555538  229.55700684    3.30999994    2.03999996
   12.01861095  233.45899963    3.28999996    2.03999996
   12.02499962  233.45899963    3.28999996    2.05999994
   12.02888870  239.25900269    3.26999998    2.05999994
   12.03222179  244.88600159    3.26999998    2.05999994
   12.03555584  239.15100098    3.26999998    2.05999994
   12.03861141  221.70399475    3.25000000    2.05999994
   12.04194450  226.43400574    3.25000000    2.05999994
   12.04527855  228.09700012    3.23000002    2.05999994
   12.04833412  225.07899475    3.23000002    2.05999994
   12.05166721  222.88200378    3.21000004    2.07999992
   12.05500031  220.68299866    3.21000004    2.07999992
   12.05722237  224.14399719    3.20000005    2.07999992
   12.05833340  220.01499939    3.21000004    2.07999992
   12.06166649  224.20399475    3.20000005    2.07999992
   12.06777763  224.20399475    3.18000007    2.07999992
   12.07194424  217.80599976    3.18000007    2.07999992
   12.07499981  212.83099365    3.16000009    2.07999992
   12.07833290  215.72599792    3.16000009    2.07999992
   12.08166695  225.00799561    3.14000010    2.09999990
   12.08472157  210.25999451    3.14000010    2.09999990
   12.08805561  214.95199585    3.14000010    2.09999990
   12.09055519  209.04200745    3.11999989    2.09999990
   12.09138870  226.90600586    3.11999989    2.09999990
   12.09472179  214.16900635    3.11999989    2.09999990
   12.09805489  219.72599792    3.09999990    2.09999990
   12.10111141  213.23199463    3.09999990    2.09999990
   12.10444450  219.83999634    3.07999992    2.11999989
   12.11055565  219.83999634    3.07999992    2.09999990
   12.11472225  216.29600525    3.07999992    2.11999989
   12.11805534  222.69299316    3.07999992    2.11999989
   12.12111092  220.14100647    3.07999992    2.11999989
   12.12388897  226.73800659    3.07999992    2.11999989
   12.12472248  226.24400330    3.05999994    2.11999989
   12.12805557  217.55200195    3.07999992    2.13000011
   12.13138866  228.35899353    3.05999994    2.13000011
   12.13444424  229.17700195    3.05999994    2.13000011
   12.13777733  220.00799561    3.05999994    2.11999989
   12.14111137  209.80999756    3.03999996    2.13000011
   12.14416695  215.16200256    3.03999996    2.11999989
   12.14750004  205.88600159    3.03999996    2.13000011
   12.15333271  205.88600159    3.01999998    2.13000011
   12.15749931  212.92500305    3.00000000    2.13000011
   12.16083336  214.88200378    3.00000000    2.13000011
   12.16388893  218.62899780    2.98000002    2.13000011
   12.16722298  211.17500305    2.98000002    2.13000011
   12.17055607  205.23399353    2.98000002    2.13000011
   12.17361164  214.19500732    2.98000002    2.13000011
   12.17694473  209.86199951    2.96000004    2.15000010
   12.18027782  201.77299500    2.94000006    2.15000010
   12.18333340  204.66799927    2.94000006    2.15000010
   12.18666649  217.45300293    2.94000006    2.15000010
   12.18972206  198.60499573    2.94000006    2.15000010
   12.19055557  209.73199463    2.93000007    2.15000010
   12.19638920  209.73199463    2.93000007    2.15000010
   12.20027733  209.91400146    2.93000007    2.17000008
   12.20361137  203.96299744    2.93000007    2.17000008
   12.20694447  186.00700378    2.93000007    2.17000008
   12.21000004  197.10000610    2.93000007    2.17000008
   12.21333313  196.48199463    2.91000009    2.17000008
   12.21666622  192.83999634    2.89000010    2.17000008
   12.21972179  191.89599609    2.91000009    2.17000008
   12.22305489  191.14300537    2.89000010    2.17000008
   12.22388840  183.41700745    2.89000010    2.17000008
   12.22666645  187.91900635    2.89000010    2.17000008
   12.22972202  187.86599731    2.86999989    2.17000008
   12.23305511  194.51100159    2.86999989    2.19000006
   12.23916721  194.51100159    2.86999989    2.19000006
   12.24333382  184.27200317    2.84999990    2.17000008
   12.24638939  181.74899292    2.84999990    2.19000006
   12.24972248  189.46600342    2.82999992    2.19000006
   12.25305557  181.96899414    2.82999992    2.19000006
   12.25611115  182.66099548    2.84999990    2.19000006
   12.25722218  195.74499512    2.82999992    2.19000006
   12.26000023  185.01499939    2.82999992    2.21000004
   12.26305580  180.54800415    2.80999994    2.19000006
   12.26638889  186.25799561    2.80999994    2.19000006
   12.26944447  195.22700500    2.80999994    2.21000004
   12.27277756  188.82000732    2.78999996    2.19000006
   12.27611065  180.90699768    2.78999996    2.21000004
   12.28194427  180.90699768    2.78999996    2.21000004
   12.28611183  176.71099854    2.76999998    2.21000004
   12.28944492  182.01600647    2.76999998    2.21000004
   12.29055595  165.42799377    2.76999998    2.21000004
   12.29305553  178.79800415    2.75000000    2.21000004
   12.29611111  171.93800354    2.75000000    2.23000002
   12.29944515  177.20100403    2.75000000    2.23000002
   12.30249977  180.39199829    2.75000000    2.23000002
   12.30583382  183.75700378    2.73000002    2.23000002
   12.30916691  177.17300415    2.73000002    2.23000002
   12.31222248  171.04299927    2.73000002    2.23000002
   12.31555557  173.37199402    2.73000002    2.21000004
   12.31888866  176.63299561    2.71000004    2.23000002
   12.32472229  176.63299561    2.71000004    2.23000002
   12.32888889  178.88800049    2.71000004    2.23000002
   12.33222198  179.23699951    2.69000006    2.23000002
   12.33527756  164.98199463    2.69000006    2.23000002
   12.33861065  166.52799988    2.69000006    2.23000002
   12.34194374  176.72900391    2.67000008    2.25000000
   12.34499931  177.50000000    2.67000008    2.25000000
   12.34833336  165.99400330    2.67000008    2.25000000
   12.35166740  178.39300537    2.67000008    2.25000000
   12.35472298  177.64900208    2.66000009    2.25000000
   12.35722256  166.61799622    2.66000009    2.25000000
   12.35861111  175.57400513    2.66000009    2.25000000
   12.36166668  170.25100708    2.66000009    2.25000000
   12.36777782  170.25100708    2.64000010    2.25000000
   12.37166691  173.21499634    2.64000010    2.25000000
   12.37500000  177.31900024    2.64000010    2.26999998
   12.37833309  168.25799561    2.61999989    2.26999998
   12.38138866  188.53300476    2.61999989    2.26999998
   12.38472176  169.50000000    2.61999989    2.25000000
   12.38805580  169.16799927    2.61999989    2.26999998
   12.39055538  183.12800598    2.59999990    2.26999998
   12.39166641  183.77699280    2.59999990    2.25000000
   12.39472198  172.29499817    2.59999990    2.26999998
   12.39805508  177.17700195    2.59999990    2.26999998
   12.40111065  161.32000732    2.59999990    2.26999998
   12.40444374  171.41499329    2.57999992    2.26999998
   12.41055489  171.41499329    2.55999994    2.26999998
   12.41472149  160.89500427    2.55999994    2.28999996
   12.41777802  167.87600708    2.55999994    2.28999996
   12.42111111  162.50100708    2.55999994    2.28999996
   12.42388916  159.55499268    2.53999996    2.26999998
   12.42472267  158.04299927    2.53999996    2.26999998
   12.42777824  163.56300354    2.53999996    2.28999996
   12.43111134  169.56799316    2.51999998    2.28999996
   12.43416691  171.13900757    2.53999996    2.26999998
   12.43750000  164.76499939    2.51999998    2.28999996
   12.44083309  163.29400635    2.51999998    2.28999996
   12.44388866  168.30599976    2.50000000    2.28999996
   12.44722271  166.35000610    2.50000000    2.28999996
   12.45333290  166.35000610    2.50000000    2.28999996
   12.45749950  161.77999878    2.50000000    2.30999994
   12.46083355  161.74800110    2.48000002    2.30999994
   12.46388912  168.62500000    2.48000002    2.28999996
   12.46722221  165.62899780    2.48000002    2.30999994
   12.47027779  170.27699280    2.48000002    2.30999994
   12.47361088  167.92799377    2.48000002    2.30999994
   12.47694397  169.06799316    2.48000002    2.30999994
   12.47999954  177.72900391    2.48000002    2.30999994
   12.48333359  181.02699280    2.48000002    2.30999994
   12.48666668  166.48599243    2.48000002    2.32999992
   12.48972225  174.29200745    2.46000004    2.30999994
   12.49055576  170.53900146    2.46000004    2.30999994
   12.49611092  170.53900146    2.46000004    2.30999994
   12.50027752  172.85600281    2.46000004    2.30999994
   12.50361156  172.53900146    2.46000004    2.30999994
   12.50666714  182.19900513    2.46000004    2.30999994
   12.51000023  182.52299500    2.46000004    2.30999994
   12.51333332  174.09800720    2.46000004    2.32999992
   12.51638889  189.36399841    2.44000006    2.32999992
   12.51972198  165.59300232    2.44000006    2.32999992
   12.52305508  180.00500488    2.44000006    2.32999992
   12.52388859  167.53900146    2.44000006    2.30999994
   12.52666664  162.51600647    2.44000006    2.32999992
   12.52972221  176.30900574    2.44000006    2.30999994
   12.53305531  170.75300598    2.42000008    2.32999992
   12.53916740  170.75300598    2.42000008    2.32999992
   12.54305553  157.37399292    2.42000008    2.32999992
   12.54638958  178.94000244    2.40000010    2.32999992
   12.54972267  170.66400146    2.40000010    2.32999992
   12.55277824  173.75199890    2.40000010    2.34999990
   12.55611134  169.02600098    2.39000010    2.34999990
   12.55722237  161.25999451    2.39000010    2.32999992
   12.55972195  175.26499939    2.39000010    2.32999992
   12.56277752  179.17700195    2.39000010    2.32999992
   12.56611156  165.97599792    2.39000010    2.34999990
   12.56944466  187.97500610    2.36999989    2.34999990
   12.57250023  184.69700623    2.36999989    2.32999992
   12.57583332  163.90400696    2.36999989    2.32999992
   12.59611034   82.32440186    2.34999990    2.34999990
   12.59666634   89.20249939    2.34999990    2.34999990
   12.59972191  177.98199463    2.34999990    2.34999990
   12.60305595  170.93299866    2.34999990    2.34999990
   12.60611153  181.43200684    2.34999990    2.34999990
   12.60944462  175.47700500    2.34999990    2.34999990
   12.61277771  191.71099854    2.34999990    2.34999990
   12.61583328  178.57800293    2.34999990    2.34999990
   12.61916637  194.77000427    2.32999992    2.34999990
   12.62472248  194.77000427    2.34999990    2.36999989
   12.62888908  180.96200562    2.34999990    2.36999989
   12.62944412  187.82800293    2.34999990    2.36999989
   12.63277817  166.07699585    2.36999989    2.36999989
   12.63583279  168.52400208    2.34999990    2.36999989
   12.63916683  178.93800354    2.34999990    2.36999989
   12.64249992  176.38200378    2.32999992    2.36999989
   12.64555550  169.72500610    2.34999990    2.36999989
   12.64888859  178.07000732    2.36999989    2.36999989
   12.65194416  175.69700623    2.34999990    2.36999989
   12.65527725  176.65800476    2.32999992    2.36999989
   12.65861034  177.84599304    2.32999992    2.36999989
   12.66166592  159.93899536    2.32999992    2.36999989
   12.66277695  170.28199768    2.32999992    2.36999989
   12.66750050  170.28199768    2.32999992    2.36999989
   12.67166710  170.42500305    2.32999992    2.36999989
   12.67500019  177.02000427    2.32999992    2.36999989
   12.67805576  167.76899719    2.32999992    2.39000010
   12.68138885  174.72399902    2.32999992    2.39000010
   12.68472195  159.92500305    2.32999992    2.39000010
   12.68777752  169.97000122    2.32999992    2.39000010
   12.69111156  175.14599609    2.32999992    2.39000010
   12.69444466  170.29699707    2.32999992    2.39000010
   12.69611073  173.72900391    2.30999994    2.39000010
   12.69805527  177.80299377    2.30999994    2.39000010
   12.70111084  163.54699707    2.30999994    2.39000010
   12.70444393  171.70700073    2.30999994    2.39000010
   12.71055508  171.70700073    2.30999994    2.39000010
   12.71444416  175.44500732    2.30999994    2.39000010
   12.71777725  165.95799255    2.32999992    2.39000010
   12.72111034  171.73100281    2.32999992    2.39000010
   12.72416592  173.05599976    2.34999990    2.39000010
   12.72749996  169.96000671    2.32999992    2.39000010
   12.72944355  159.05999756    2.30999994    2.40000010
   12.73111057  175.08500671    2.30999994    2.40000010
   12.73416710  155.65100098    2.30999994    2.40000010
   12.73750019  168.54100037    2.30999994    2.40000010
   12.74083328  160.07299805    2.32999992    2.40000010
   12.74388885  187.33099365    2.32999992    2.40000010
   12.74722290  155.14300537    2.30999994    2.40000010
   12.75333309  155.14300537    2.30999994    2.39000010
   12.75749969  175.56799316    2.28999996    2.39000010
   12.76055527  170.83599854    2.28999996    2.40000010
   12.76277733  171.13800049    2.26999998    2.40000010
   12.76444435  157.70599365    2.26999998    2.40000010
   12.76749992  150.54100037    2.26999998    2.40000010
   12.77083302  175.46299744    2.25000000    2.40000010
   12.77416611  183.17300415    2.25000000    2.40000010
   12.77722168  166.46899414    2.25000000    2.40000010
   12.78055573  171.20300293    2.23000002    2.40000010
   12.78388977  190.29800415    2.23000002    2.40000010
   12.78694534  171.36099243    2.23000002    2.40000010
   12.79027843  179.05599976    2.23000002    2.40000010
   12.79611111  179.05599976    2.23000002    2.40000010
   12.80027771  168.03300476    2.21000004    2.40000010
   12.80361176  167.55900574    2.23000002    2.40000010
   12.80666733  171.02799988    2.23000002    2.40000010
   12.81000042  175.91799927    2.21000004    2.40000010
   12.81305599  176.14199829    2.23000002    2.40000010
   12.81638908  168.35299683    2.21000004    2.40000010
   12.81972218  157.80099487    2.21000004    2.42000008
   12.82277775  183.43699646    2.21000004    2.42000008
   12.82611084  174.73899841    2.19000006    2.42000008
   12.82944393  170.02999878    2.19000006    2.40000010
   12.83111095  172.75100708    2.17000008    2.42000008
   12.83305550  168.03199768    2.17000008    2.42000008
   12.83888817  168.03199768    2.17000008    2.42000008
   12.84305477  163.78100586    2.17000008    2.42000008
   12.84638882  157.85899353    2.17000008    2.42000008
   12.84944439  175.97799683    2.17000008    2.42000008
   12.85277843  172.11000061    2.17000008    2.42000008
   12.85611153  152.87800598    2.15000010    2.42000008
   12.85916710  161.71800232    2.15000010    2.42000008
   12.86250019  172.70500183    2.15000010    2.42000008
   12.86444473  159.36300659    2.15000010    2.42000008
   12.86611176  170.35400391    2.15000010    2.42000008
   12.86944485  161.61599731    2.15000010    2.44000006
   12.87250042  166.03399658    2.13000011    2.44000006
   12.87583351  163.62500000    2.13000011    2.44000006
   12.88194466  163.62500000    2.13000011    2.44000006
   12.88583279  161.34399414    2.13000011    2.42000008
   12.88916683  158.78199768    2.13000011    2.44000006
   12.89249992  167.44500732    2.13000011    2.44000006
   12.89555550  168.68699646    2.13000011    2.42000008
   12.89805508  162.81799316    2.11999989    2.46000004
   12.89944458  154.60000610    2.11999989    2.44000006
   12.90249920  156.67599487    2.11999989    2.44000006
   12.90583324  170.69999695    2.11999989    2.44000006
   12.90888882  169.63699341    2.11999989    2.44000006
   12.91222191  168.44700623    2.11999989    2.44000006
   12.91555500  162.21899414    2.11999989    2.44000006
   12.91861153  164.71499634    2.11999989    2.46000004
   12.92472267  164.71499634    2.11999989    2.46000004
   12.92888927  159.29400635    2.11999989    2.46000004
   12.93138885  159.93200684    2.11999989    2.44000006
   12.93249989  157.27699280    2.11999989    2.46000004
   12.93555546  151.53700256    2.11999989    2.46000004
   12.93888855  153.72700500    2.11999989    2.46000004
   12.94194412  158.92199707    2.11999989    2.46000004
   12.94527817  151.42399597    2.11999989    2.44000006
   12.94861126  146.40400696    2.15000010    2.46000004
   12.95166683  142.42900085    2.15000010    2.46000004
   12.95499992  157.25500488    2.15000010    2.46000004
   12.95833302  143.57499695    2.13000011    2.46000004
   12.96138859  140.82499695    2.13000011    2.46000004
   12.96749973  140.82499695    2.13000011    2.46000004
   12.97166634  140.80099487    2.11999989    2.46000004
   12.97499943  145.50999451    2.11999989    2.46000004
   12.97805500  145.41400146    2.11999989    2.46000004
   12.98138809  149.07400513    2.09999990    2.46000004
   12.98472214  137.27299500    2.07999992    2.46000004
   12.98777771  147.18800354    2.07999992    2.46000004
   12.99111176  152.19700623    2.09999990    2.46000004
   12.99444485  150.34399414    2.07999992    2.46000004
   12.99750042  145.38200378    2.07999992    2.46000004
   12.99833393  154.34500122    2.07999992    2.46000004
   13.00111103  142.82200623    2.07999992    2.46000004
   13.00444412  146.51199341    2.05999994    2.48000002
   13.01027775  146.51199341    2.07999992    2.46000004
   13.01444435  141.91999817    2.05999994    2.48000002
   13.01777744  142.76800537    2.03999996    2.48000002
   13.02083302  136.98800659    2.05999994    2.46000004
   13.02416611  149.40600586    2.03999996    2.46000004
   13.02750015  160.16900635    2.03999996    2.48000002
   13.03055573  142.35099792    2.03999996    2.48000002
   13.03166676  149.74899292    2.03999996    2.46000004
   13.03416729  144.87399292    2.03999996    2.48000002
   13.03750038  139.67700195    2.01999998    2.48000002
   13.04055595  146.68400574    2.01999998    2.48000002
   13.04388905  151.34399414    2.00000000    2.48000002
   13.04694462  141.61599731    2.00000000    2.48000002
   13.05333328  141.61599731    2.00000000    2.46000004
   13.05722237  144.89399719    1.98000002    2.48000002
   13.06055546  138.63000488    2.00000000    2.48000002
   13.06388950  139.38499451    2.00000000    2.48000002
   13.06527805  143.30799866    2.00000000    2.48000002
   13.06750011  136.27699280    2.01999998    2.48000002
   13.07083321  143.32800293    2.00000000    2.48000002
   13.07388878  133.00399780    2.01999998    2.48000002
   13.07722187  142.37800598    2.01999998    2.50000000
   13.08027744  146.53399658    2.00000000    2.48000002
   13.08361053  148.64300537    2.01999998    2.48000002
   13.08694458  141.85899353    2.00000000    2.50000000
   13.09000015  144.74099731    2.00000000    2.50000000
   13.09611034  144.74099731    2.00000000    2.48000002
   13.10027790  141.85699463    2.00000000    2.50000000
   13.10333347  137.90299988    2.00000000    2.48000002
   13.10666752  142.91600037    1.98000002    2.50000000
   13.11000061  147.41400146    1.98000002    2.50000000
   13.11305618  137.09399414    1.98000002    2.50000000
   13.11638927  141.33099365    1.98000002    2.50000000
   13.11972237  137.61900330    1.98000002    2.48000002
   13.12277794  141.20500183    1.98000002    2.50000000
   13.12611103  134.11799622    1.96000004    2.50000000
   13.12916660  127.76599884    1.96000004    2.50000000
   13.13194466  137.07400513    1.96000004    2.50000000
   13.13305569  141.12399292    1.96000004    2.50000000
   13.13888836  141.12399292    1.96000004    2.50000000
   13.14305496  142.03599548    1.94000006    2.50000000
   13.14638901  141.54899597    1.94000006    2.50000000
   13.14944458  140.01600647    1.94000006    2.50000000
   13.15277767  132.26100159    1.94000006    2.50000000
   13.15583324  136.75999451    1.94000006    2.50000000
   13.15916634  141.18499756    1.94000006    2.50000000
   13.16249943  138.74699402    1.91999996    2.50000000
   13.16527748  139.31399536    1.91999996    2.50000000
   13.16611099  133.24299622    1.91999996    2.50000000
   13.16916656  130.39399719    1.94000006    2.50000000
   13.17250061  136.88499451    1.94000006    2.50000000
   13.17583370  143.33299255    1.94000006    2.51999998
   13.18166733  143.33299255    1.91999996    2.50000000
   13.18583298  134.17399597    1.94000006    2.51999998
   13.18916702  140.01699829    1.91999996    2.51999998
   13.19222260  127.91400146    1.94000006    2.51999998
   13.19555569  130.60600281    1.91999996    2.50000000
   13.19861126  132.59899902    1.91999996    2.51999998
   13.19916630  146.19700623    1.91999996    2.51999998
   13.20222187  143.15199280    1.89999998    2.51999998
   13.20555496  146.49699402    1.89999998    2.51999998
   13.20888901  145.57800293    1.89999998    2.51999998
   13.21194458  143.29699707    1.88000000    2.51999998
   13.21527767  126.12400055    1.86000001    2.51999998
   13.21861076  131.16900635    1.86000001    2.51999998
   13.22472191  131.16900635    1.89999998    2.51999998
   13.22861099  132.66299438    1.91999996    2.53999996
   13.23194408  144.65499878    1.88000000    2.51999998
   13.23249912  138.31300354    1.88000000    2.51999998
   13.23555565  132.22000122    1.88000000    2.51999998
   13.23888874  134.82800293    1.88000000    2.51999998
   13.24222279  134.65100098    1.86000001    2.51999998
   13.24527836  133.10000610    1.85000002    2.51999998
   13.24861145  125.73600006    1.85000002    2.53999996
   13.25194454  140.71200562    1.85000002    2.51999998
   13.25500011  126.60500336    1.85000002    2.51999998
   13.25833321  123.10600281    1.83000004    2.53999996
   13.26138878  128.19299316    1.83000004    2.53999996
   13.26749992  128.19299316    1.83000004    2.53999996
   13.27166653  130.87199402    1.83000004    2.53999996
   13.27472210  126.79499817    1.83000004    2.53999996
   13.27805519  131.46600342    1.83000004    2.53999996
   13.28138828  125.97499847    1.83000004    2.53999996
   13.28444481  128.75900269    1.83000004    2.53999996
   13.28777790  125.80899811    1.83000004    2.53999996
   13.29083347  134.05499268    1.83000004    2.53999996
   13.29416752  130.72599792    1.83000004    2.53999996
   13.29750061  131.39700317    1.83000004    2.53999996
   13.29861164  127.35500336    1.80999994    2.53999996
   13.30111122  132.64100647    1.80999994    2.53999996
   13.30416679  125.78600311    1.80999994    2.53999996
   13.31027794  125.78600311    1.80999994    2.53999996
   13.31444454  134.47999573    1.80999994    2.53999996
   13.31777763  133.55599976    1.80999994    2.53999996
   13.32083321  127.95600128    1.80999994    2.53999996
   13.32416630  136.55700684    1.80999994    2.53999996
   13.32750034  137.60699463    1.80999994    2.53999996
   13.33083344  133.20700073    1.80999994    2.55999994
   13.33194447  131.30099487    1.80999994    2.55999994
   13.33444405  137.03900146    1.80999994    2.55999994
   13.33777714  134.36500549    1.80999994    2.55999994
   13.34083271  143.21099854    1.83000004    2.53999996
   13.34416676  137.85899353    1.80999994    2.55999994
   13.34722233  129.57600403    1.80999994    2.55999994
   13.35305595  129.57600403    1.80999994    2.53999996
   13.35722256  137.75300598    1.80999994    2.53999996
   13.36055565  135.12899780    1.80999994    2.53999996
   13.36361122  141.24699402    1.80999994    2.55999994
   13.36555576  131.91200256    1.80999994    2.55999994
   13.36750031  132.62300110    1.78999996    2.55999994
   13.37055588  130.86500549    1.78999996    2.55999994
   13.37388897  136.62699890    1.78999996    2.53999996
   13.37722206  138.83700562    1.78999996    2.55999994
   13.38027763  138.73599243    1.78999996    2.55999994
   13.38361073  132.26300049    1.78999996    2.53999996
   13.38666630  133.56100464    1.76999998    2.53999996
   13.39000034  143.22300720    1.78999996    2.53999996
   13.39611053  143.22300720    1.78999996    2.55999994
   13.39999962  126.47399902    1.76999998    2.55999994
   13.40333271  132.64199829    1.76999998    2.55999994
   13.40666676  138.35299683    1.75000000    2.53999996
   13.40972137  130.14199829    1.76999998    2.55999994
   13.41305542  133.54200745    1.76999998    2.55999994
   13.41638851  142.63699341    1.76999998    2.55999994
   13.41944504  133.38900757    1.75000000    2.55999994
   13.42277813  138.84700012    1.75000000    2.55999994
   13.42583370  133.95100403    1.75000000    2.55999994
   13.42916679  139.86099243    1.75000000    2.55999994
   13.43222237  133.60200500    1.75000000    2.55999994
   13.43277836  130.82299805    1.75000000    2.55999994
   13.43888855  130.82299805    1.75000000    2.55999994
   13.44305515  144.24400330    1.76999998    2.55999994
   13.44611073  137.91200256    1.75000000    2.55999994
   13.44944477  146.44700623    1.76999998    2.55999994
   13.45277786  135.40899658    1.75000000    2.55999994
   13.45583344  135.17700195    1.75000000    2.55999994
   13.45916653  140.36700439    1.75000000    2.55999994
   13.46222210  131.27099609    1.75000000    2.55999994
   13.46555519  130.47200012    1.75000000    2.55999994
   13.46611118  136.85800171    1.75000000    2.55999994
   13.46916580  138.95100403    1.75000000    2.55999994
   13.47249985  136.14999390    1.73000002    2.55999994
   13.47583294  137.34300232    1.75000000    2.55999994
   13.48166656  137.34300232    1.73000002    2.55999994
   13.48583317  134.89100647    1.73000002    2.55999994
   13.48916721  132.15699768    1.73000002    2.55999994
   13.49222279  135.40899658    1.73000002    2.55999994
   13.49555588  131.56100464    1.73000002    2.55999994
   13.49888897  136.69099426    1.76999998    2.55999994
   13.49916649  136.96200562    1.76999998    2.55999994
   13.50249958  134.04899597    1.76999998    2.55999994
   13.50583363  145.98399353    1.76999998    2.57999992
   13.50888920  133.82000732    1.76999998    2.57999992
   13.51222229  127.12200165    1.75000000    2.55999994
   13.51555538  133.55299377    1.75000000    2.59999990
   13.51861095  136.96699524    1.73000002    2.57999992
   13.52444458  136.96699524    1.73000002    2.57999992
   13.52861118  133.86700439    1.73000002    2.57999992
   13.53194427  131.59899902    1.75000000    2.57999992
   13.53249931  132.22099304    1.75000000    2.57999992
   13.53555584  137.06500244    1.75000000    2.57999992
   13.53888893  130.14799500    1.75000000    2.57999992
   13.54194450  138.67900085    1.75000000    2.57999992
   13.54527855  133.24899292    1.75000000    2.57999992
   13.54861164  131.20199585    1.75000000    2.57999992
   13.55166721  146.50900269    1.75000000    2.57999992
   13.55500031  132.96499634    1.75000000    2.57999992
   13.55833340  128.10600281    1.75000000    2.57999992
   13.56138897  133.67399597    1.73000002    2.57999992
   13.56750011  133.67399597    1.71000004    2.57999992
   13.57138920  130.45199585    1.71000004    2.57999992
   13.57472229  132.36399841    1.71000004    2.59999990
   13.57805538  131.75000000    1.69000006    2.59999990
   13.58111095  134.51800537    1.71000004    2.59999990
   13.58444405  134.16099548    1.71000004    2.59999990
   13.58777714  130.28399658    1.69000006    2.59999990
   13.59083271  132.84800720    1.69000006    2.57999992
   13.59416676  128.03399658    1.69000006    2.57999992
   13.61305618  130.87100220    1.66999996    2.57999992
   13.61722279  130.87100220    1.64999998    2.57999992
   13.62111092  132.26400757    1.64999998    2.59999990
   13.62444496  135.60400391    1.64999998    2.59999990
   13.62777805  133.73100281    1.63000000    2.57999992
   13.63083363  139.38400269    1.63000000    2.59999990
   13.63444424  143.18400574    1.63000000    2.57999992
   13.63749981  133.07600403    1.63000000    2.57999992
   13.64083290  138.21200562    1.63000000    2.59999990
   13.64388847  126.69100189    1.63000000    2.57999992
   13.64611053  134.62199402    1.63000000    2.59999990
   13.64777756  127.86399841    1.63000000    2.59999990
   13.65111065  138.64799500    1.63000000    2.57999992
   13.65416622  130.56300354    1.63000000    2.59999990
   13.65999985  130.56300354    1.61000001    2.59999990
   13.66416645  126.31500244    1.61000001    2.59999990
   13.66722298  132.96099854    1.61000001    2.59999990
   13.67055607  129.41000366    1.63000000    2.57999992
   13.67388916  133.86799622    1.61000001    2.59999990
   13.67694473  133.16600037    1.61000001    2.59999990
   13.67944431  138.38000488    1.61000001    2.59999990
   13.68055630  135.04600525    1.61000001    2.59999990
   13.68388939  138.87199402    1.61000001    2.59999990
   13.68694496  132.61099243    1.61000001    2.59999990
   13.69027805  131.84199524    1.61000001    2.59999990
   13.69333363  141.05400085    1.61000001    2.59999990
   13.69666672  132.22300720    1.63000000    2.59999990
   13.70277786  132.22300720    1.64999998    2.59999990
   13.70694447  138.88999939    1.64999998    2.59999990
   13.71027756  140.16600037    1.64999998    2.59999990
   13.71277714  134.62800598    1.64999998    2.59999990
   13.71388912  138.77600098    1.64999998    2.59999990
   13.71722221  139.70399475    1.66999996    2.59999990
   13.72027779  138.44000244    1.66999996    2.59999990
   13.72361088  132.27200317    1.64999998    2.61999989
   13.72666645  143.13800049    1.64999998    2.59999990
   13.72999954  135.95100403    1.64999998    2.61999989
   13.73333359  130.48300171    1.63000000    2.61999989
   13.73638916  128.75399780    1.63000000    2.59999990
   13.73972225  130.36799622    1.61000001    2.61999989
   13.74555588  130.36799622    1.58000004    2.59999990
   13.74972248  139.09599304    1.58000004    2.61999989
   13.75305557  131.34199524    1.58000004    2.61999989
   13.75638866  139.26699829    1.58000004    2.59999990
   13.75944424  137.04499817    1.58000004    2.61999989
   13.76277733  134.71800232    1.58000004    2.61999989
   13.76583290  135.52999878    1.58000004    2.61999989
   13.76916599  130.25199890    1.58000004    2.61999989
   13.77250004  136.93800354    1.58000004    2.61999989
   13.77555561  142.15100098    1.58000004    2.61999989
   13.77888870  137.78599548    1.55999994    2.61999989
   13.78083324  128.74800110    1.55999994    2.61999989
   13.78249931  130.10200500    1.53999996    2.61999989
   13.78861141  130.10200500    1.53999996    2.61999989
   13.79277802  136.87800598    1.53999996    2.61999989
   13.79583359  146.11199951    1.53999996    2.64000010
   13.79916668  135.21099854    1.53999996    2.64000010
   13.80222225  144.06100464    1.53999996    2.61999989
   13.80555534  142.02000427    1.55999994    2.61999989
   13.80888939  140.28999329    1.53999996    2.61999989
   13.81194496  141.51899719    1.53999996    2.61999989
   13.81416702  136.95300293    1.53999996    2.61999989
   13.81555557  142.72799683    1.55999994    2.61999989
   13.81888866  120.14499664    1.55999994    2.64000010
   13.82222176  141.25900269    1.53999996    2.61999989
   13.82527733  131.32699585    1.55999994    2.64000010
   13.83138847  131.32699585    1.53999996    2.61999989
   13.83555508  148.97900391    1.53999996    2.61999989
   13.83861065  136.65400696    1.53999996    2.61999989
   13.84194374  142.22599792    1.55999994    2.61999989
   13.84527779  141.08799744    1.55999994    2.61999989
   13.84749985  147.45300293    1.55999994    2.61999989
   13.84888840  142.90699768    1.55999994    2.61999989
   13.85222244  141.34899902    1.55999994    2.61999989
   13.85527802  144.87600708    1.55999994    2.61999989
   13.85861111  138.39100647    1.58000004    2.61999989
   13.86194515  142.90299988    1.58000004    2.61999989
   13.86500072  128.12600708    1.58000004    2.64000010
   13.86833382  123.58399963    1.58000004    2.64000010
   13.87416649  123.58399963    1.58000004    2.61999989
   13.87833309  151.30099487    1.55999994    2.61999989
   13.88083363  135.97000122    1.55999994    2.61999989
   13.88194466  128.92700195    1.55999994    2.61999989
   13.88527775  135.99000549    1.55999994    2.61999989
   13.88833332  144.75399780    1.55999994    2.61999989
   13.89166641  128.47599792    1.55999994    2.64000010
   13.89499950  149.08000183    1.55999994    2.64000010
   13.89805508  150.17799377    1.55999994    2.64000010
   13.90138817  141.63900757    1.53999996    2.64000010
   13.90444374  135.94900513    1.55999994    2.61999989
   13.90777779  148.44599915    1.53999996    2.61999989
   13.91111088  136.02000427    1.53999996    2.61999989
   13.91694450  136.02000427    1.51999998    2.64000010
   13.92111111  144.17700195    1.50000000    2.61999989
   13.92444515  130.96299744    1.51999998    2.64000010
   13.92777824  145.90800476    1.50000000    2.64000010
   13.93083382  153.28900146    1.50000000    2.64000010
   13.93416691  144.95199585    1.50000000    2.64000010
   13.93750000  134.76899719    1.50000000    2.64000010
   13.94055557  139.70399475    1.50000000    2.64000010
   13.94388866  139.86099243    1.50000000    2.64000010
   13.94722271  133.81500244    1.50000000    2.64000010
   13.94805527  137.46299744    1.50000000    2.64000010
   13.95055580  151.94299316    1.51999998    2.64000010
   13.95388889  133.98500061    1.50000000    2.64000010
   13.96000004  133.98500061    1.51999998    2.64000010
   13.96416664  135.87199402    1.51999998    2.64000010
   13.96722221  139.82699585    1.50000000    2.64000010
   13.97055531  133.62600708    1.50000000    2.64000010
   13.97361088  138.05299377    1.48000002    2.64000010
   13.97694397  131.43099976    1.46000004    2.64000010
   13.98027706  132.46200562    1.46000004    2.64000010
   13.98138809  122.75499725    1.44000006    2.64000010
   13.98361111  137.55000305    1.44000006    2.64000010
   13.98694515  132.29699707    1.44000006    2.66000009
   13.99027824  134.54100037    1.44000006    2.66000009
   13.99333382  132.77000427    1.48000002    2.66000009
   13.99666691  132.33599854    1.48000002    2.64000010
   14.00277805  132.33599854    1.48000002    2.64000010
   14.00694466  128.75700378    1.48000002    2.66000009
   14.01027775  133.58500671    1.48000002    2.66000009
   14.01333332  134.55000305    1.50000000    2.66000009
   14.01472187  130.31700134    1.50000000    2.66000009
   14.01694393  128.09899902    1.50000000    2.66000009
   14.02027798  131.97799683    1.51999998    2.64000010
   14.02361107  128.95599365    1.51999998    2.64000010
   14.02666664  132.34199524    1.53999996    2.64000010
   14.02999973  129.77400208    1.50000000    2.64000010
   14.03305531  137.91700745    1.50000000    2.64000010
   14.03638935  130.63400269    1.50000000    2.64000010
   14.03972244  137.10000610    1.48000002    2.64000010
   14.04555607  137.10000610    1.48000002    2.66000009
   14.04972267  144.55400085    1.48000002    2.66000009
   14.05305576  137.16499329    1.48000002    2.64000010
   14.05611134  125.94799805    1.48000002    2.66000009
   14.05944443  133.29600525    1.46000004    2.64000010
   14.06277752  139.97900391    1.46000004    2.64000010
   14.06583309  134.56900024    1.48000002    2.66000009
   14.06916618  136.41799927    1.46000004    2.64000010
   14.07222176  132.10699463    1.46000004    2.66000009
   14.07555580  128.65499878    1.46000004    2.66000009
   14.07888889  136.08200073    1.46000004    2.66000009
   14.08166695  127.28900146    1.44000006    2.66000009
   14.08249950  128.71800232    1.44000006    2.66000009
   14.08833313  128.71800232    1.44000006    2.66000009
   14.09249973  132.96299744    1.41999996    2.66000009
   14.09583282  124.52400208    1.44000006    2.66000009
   14.09916592  127.33300018    1.44000006    2.66000009
   14.10222244  132.01300049    1.44000006    2.66000009
   14.10555553  123.51000214    1.46000004    2.66000009
   14.10861111  127.25900269    1.46000004    2.66000009
   14.11194515  128.99299622    1.46000004    2.66000009
   14.11500072  133.06399536    1.44000006    2.66000009
   14.11555576  130.09899902    1.46000004    2.66000009
   14.11888885  137.15800476    1.44000006    2.66000009
   14.12194443  124.36299896    1.44000006    2.66000009
   14.12527752  135.47399902    1.44000006    2.66000009
   14.13138866  135.47399902    1.41999996    2.66000009
   14.13555527  124.97799683    1.41999996    2.66000009
   14.13861084  132.84599304    1.41999996    2.67000008
   14.14194393  127.04499817    1.41999996    2.66000009
   14.14499950  127.35299683    1.41999996    2.67000008
   14.14833355  121.79399872    1.41999996    2.66000009
   14.14861107  127.25700378    1.41999996    2.66000009
   14.15194416  124.92199707    1.39999998    2.66000009
   14.15527725  136.27299500    1.41999996    2.66000009
   14.15833282  125.95400238    1.44000006    2.66000009
   14.16166592  132.19299316    1.44000006    2.66000009
   14.16472149  132.88699341    1.46000004    2.66000009
   14.16805553  134.84800720    1.44000006    2.66000009
   14.17416668  134.84800720    1.46000004    2.66000009
   14.17833328  126.43399811    1.46000004    2.66000009
   14.18166733  139.65600586    1.48000002    2.66000009
   14.18194485  139.74600220    1.46000004    2.66000009
   14.18527794  133.67399597    1.46000004    2.66000009
   14.18833351  134.38099670    1.46000004    2.66000009
   14.19166660  136.49400330    1.46000004    2.66000009
   14.19499969  129.56700134    1.44000006    2.67000008
   14.19805527  133.28300476    1.44000006    2.67000008
   14.20138836  127.25399780    1.46000004    2.66000009
   14.20472240  139.27000427    1.48000002    2.66000009
   14.20777798  129.39999390    1.48000002    2.66000009
   14.21111107  136.81700134    1.48000002    2.66000009
   14.21694374  136.81700134    1.46000004    2.66000009
   14.22111034  137.49000549    1.44000006    2.67000008
   14.22444439  133.72999573    1.44000006    2.67000008
   14.22749996  133.18899536    1.44000006    2.66000009
   14.23083305  127.24099731    1.44000006    2.66000009
   14.23416710  135.53199768    1.44000006    2.67000008
   14.23722267  133.17100525    1.41999996    2.66000009
   14.24055576  133.91200256    1.41999996    2.66000009
   14.24361134  136.96299744    1.44000006    2.67000008
   14.24694443  123.90499878    1.46000004    2.67000008
   14.24833393  123.06999969    1.44000006    2.67000008
   14.25055599  133.80099487    1.44000006    2.67000008
   14.25388908  125.69599915    1.44000006    2.67000008
   14.25972176  125.69599915    1.46000004    2.67000008
   14.26388931  130.83700562    1.44000006    2.67000008
   14.26722240  138.36900330    1.41999996    2.66000009
   14.27055550  131.32299805    1.39999998    2.67000008
   14.27361107  124.77500153    1.39999998    2.67000008
   14.27694416  133.38999939    1.39999998    2.66000009
   14.27999973  134.79400635    1.41999996    2.66000009
   14.28166676  131.20799255    1.41999996    2.66000009
   14.28361130  134.90899658    1.39999998    2.67000008
   14.28694534  139.66200256    1.39999998    2.67000008
   14.29027843  136.83599854    1.39999998    2.67000008
   14.29361153  135.68299866    1.39999998    2.67000008
   14.29666710  133.55700684    1.41999996    2.66000009
   14.30277824  133.55700684    1.41999996    2.67000008
   14.30694485  142.94400024    1.41999996    2.67000008
   14.31000042  138.09500122    1.41999996    2.67000008
   14.31333351  132.98199463    1.41999996    2.67000008
   14.31500053  134.43699646    1.41999996    2.67000008
   14.31694412  137.35200500    1.41999996    2.67000008
   14.32027817  130.76300049    1.41999996    2.67000008
   14.32333374  124.47699738    1.39999998    2.67000008
   14.32666683  128.39199829    1.39999998    2.67000008
   14.32972240  127.92700195    1.41999996    2.67000008
   14.33305550  132.88299561    1.41999996    2.67000008
   14.33638859  137.70700073    1.44000006    2.67000008
   14.33944416  130.31199646    1.44000006    2.67000008
   14.34555531  130.31199646    1.44000006    2.67000008
   14.34972191  127.95400238    1.44000006    2.67000008
   14.35277843  134.49800110    1.44000006    2.67000008
   14.35611153  131.79200745    1.44000006    2.67000008
   14.35944462  143.43400574    1.41999996    2.67000008
   14.36250019  129.41700745    1.41999996    2.67000008
   14.36583328  139.54299927    1.46000004    2.67000008
   14.36888885  138.65800476    1.44000006    2.67000008
   14.37222195  129.88499451    1.48000002    2.67000008
   14.37555599  132.11399841    1.48000002    2.69000006
   14.37861156  127.74600220    1.61000001    2.67000008
   14.38166714  134.27799988    1.61000001    2.69000006
   14.38222218  135.65600586    1.61000001    2.69000006
   14.38833332  135.65600586    1.53999996    2.69000006
   14.39249992  134.31799316    1.50000000    2.67000008
   14.39583302  132.24800110    1.50000000    2.69000006
   14.39888859  126.08599854    1.53999996    2.69000006
   14.40222168  136.41000366    1.55999994    2.67000008
   14.40555477  126.23600006    1.58000004    2.67000008
   14.40861034  127.58399963    1.58000004    2.69000006
   14.41194439  133.28900146    1.55999994    2.67000008
   14.41499996  133.52900696    1.51999998    2.67000008
   14.41555500  131.13499451    1.51999998    2.67000008
   14.41888905  131.82200623    1.48000002    2.69000006
   14.42194462  135.88200378    1.48000002    2.69000006
   14.42527771  133.82000732    1.48000002    2.69000006
   14.43111134  133.82000732    1.50000000    2.67000008
   14.43527794  129.02000427    1.53999996    2.69000006
   14.43861103  131.47300720    1.53999996    2.69000006
   14.44194412  135.23800659    1.50000000    2.69000006
   14.44499969  126.81300354    1.48000002    2.67000008
   14.44833374  132.47599792    1.44000006    2.69000006
   14.44888878  135.79299927    1.44000006    2.69000006
   14.45194435  125.92299652    1.44000006    2.69000006
   14.45527744  126.26100159    1.44000006    2.67000008
   14.45861053  135.02400208    1.41999996    2.69000006
   14.46166611  130.09199524    1.36000001    2.69000006
   14.46500015  126.06800079    1.36000001    2.69000006
   14.46833324  127.21099854    1.36000001    2.69000006
   14.47416592  127.21099854    1.33000004    2.69000006
   14.47833252  121.04599762    1.33000004    2.69000006
   14.48138809  132.22300720    1.30999994    2.69000006
   14.48222160  127.80200195    1.30999994    2.71000004
   14.48500061  138.26300049    1.30999994    2.69000006
   14.48833370  130.83099365    1.30999994    2.69000006
   14.49166679  136.15699768    1.30999994    2.69000006
   14.49472237  133.25000000    1.30999994    2.71000004
   14.49805546  133.68400574    1.30999994    2.69000006
   14.50138855  131.18699646    1.33000004    2.69000006
   14.50444412  132.38999939    1.34000003    2.69000006
   14.50777817  132.37899780    1.34000003    2.69000006
   14.51111126  130.20199585    1.34000003    2.69000006
   14.51694393  130.20199585    1.34000003    2.69000006
   14.52111053  146.36199951    1.34000003    2.69000006
   14.52416611  132.60099792    1.36000001    2.71000004
   14.52750015  133.64399719    1.36000001    2.69000006
   14.53083324  136.85400391    1.36000001    2.71000004
   14.53388977  133.69400024    1.36000001    2.69000006
   14.53722286  121.47499847    1.36000001    2.69000006
   14.54055595  129.20899963    1.34000003    2.69000006
   14.54361153  131.82499695    1.36000001    2.69000006
   14.54694462  179.13499451    1.34000003    2.69000006
   14.54888916  137.60600281    1.34000003    2.69000006
   14.55055618  133.67300415    1.34000003    2.69000006
   14.55388927  157.05700684    1.34000003    2.69000006
   14.55972195  157.05700684    1.36000001    2.69000006
   14.56388950  137.11099243    1.34000003    2.71000004
   14.56722260  124.84400177    1.34000003    2.69000006
   14.57027817  124.32199860    1.34000003    2.71000004
   14.57361126  127.40200043    1.34000003    2.71000004
   14.57666683  133.07699585    1.34000003    2.69000006
   14.57999992  129.66299438    1.36000001    2.69000006
   14.58222198  129.54200745    1.36000001    2.69000006
   14.58388901  132.63600159    1.36000001    2.69000006
   14.58694458  125.94499969    1.38000000    2.69000006
   14.59027767  128.13099670    1.39999998    2.69000006
   14.59361076  123.39600372    1.39999998    2.71000004
   14.59666634  128.90699768    1.41999996    2.71000004
   14.60249996  128.90699768    1.41999996    2.69000006
   14.60666752  134.97200012    1.38000000    2.69000006
   14.61000061  131.94299316    1.38000000    2.71000004
   14.61305618  136.10800171    1.38000000    2.71000004
   14.63027763  133.80400085    1.36000001    2.71000004
   14.63333321  131.53700256    1.36000001    2.69000006
   14.63638878  130.15800476    1.36000001    2.71000004
   14.63972187  129.60200500    1.36000001    2.71000004
   14.64555550  129.60200500    1.34000003    2.71000004
   14.64972210  133.18800354    1.36000001    2.71000004
   14.65305519  131.74200439    1.34000003    2.71000004
   14.65638828  131.84300232    1.34000003    2.71000004
   14.65944386  137.25399780    1.34000003    2.71000004
   14.66277695  136.94200134    1.33000004    2.69000006
   14.66361046  133.15899658    1.33000004    2.71000004
   14.66611099  135.31799316    1.28999996    2.71000004
   14.66944504  129.16099548    1.26999998    2.71000004
   14.67277813  129.71600342    1.25000000    2.71000004
   14.67583370  128.03700256    1.25000000    2.71000004
   14.67916679  135.36900330    1.25000000    2.71000004
   14.68222237  136.95899963    1.25000000    2.71000004
   14.68861103  136.95899963    1.21000004    2.71000004
   14.69277763  143.21400452    1.21000004    2.71000004
   14.69583321  135.03300476    1.21000004    2.69000006
   14.69694424  132.85000610    1.21000004    2.71000004
   14.69944477  134.02699280    1.21000004    2.73000002
   14.70277786  134.12300110    1.21000004    2.71000004
   14.70611095  136.59899902    1.21000004    2.71000004
   14.70916653  135.66700745    1.21000004    2.71000004
   14.71249962  139.41700745    1.21000004    2.71000004
   14.71583271  133.89999390    1.21000004    2.71000004
   14.71888828  132.70599365    1.21000004    2.71000004
   14.72222137  131.38200378    1.21000004    2.71000004
   14.72527695  128.33000183    1.21000004    2.71000004
   14.73138809  128.33000183    1.23000002    2.71000004
   14.73555565  128.82499695    1.21000004    2.71000004
   14.73861122  131.11999512    1.21000004    2.71000004
   14.74194431  132.12800598    1.23000002    2.73000002
   14.74527836  133.58900452    1.23000002    2.71000004
   14.74861145  129.88499451    1.21000004    2.71000004
   14.75166702  134.12600708    1.21000004    2.71000004
   14.75500011  131.69200134    1.21000004    2.71000004
   14.75833321  147.85499573    1.23000002    2.71000004
   14.76138878  141.97999573    1.23000002    2.71000004
   14.76361084  142.97000122    1.23000002    2.71000004
   14.76500034  135.16600037    1.23000002    2.71000004
   14.76833344  136.05700684    1.23000002    2.71000004
   14.77416611  136.05700684    1.23000002    2.71000004
   14.77833271  146.05999756    1.25000000    2.71000004
   14.78166676  135.07000732    1.25000000    2.71000004
   14.78472233  145.59300232    1.25000000    2.71000004
   14.78805637  135.61399841    1.28999996    2.71000004
   14.79111195  134.79600525    1.30999994    2.71000004
   14.79444504  138.42700195    1.30999994    2.71000004
   14.79694462  136.33900452    1.30999994    2.71000004
   14.79805565  137.80299377    1.30999994    2.71000004
   14.80138874  125.38600159    1.33000004    2.71000004
   14.80472279  140.41499329    1.34000003    2.71000004
   14.80777836  140.00900269    1.33000004    2.73000002
   14.81111145  150.00399780    1.33000004    2.71000004
   14.81694412  150.00399780    1.26999998    2.71000004
   14.82111073  128.12600708    1.25000000    2.71000004
   14.82444477  136.18200684    1.25000000    2.71000004
   14.82750034  138.93400574    1.25000000    2.71000004
   14.83027744  136.14900208    1.25000000    2.69000006
   14.83111095  130.57899475    1.25000000    2.69000006
   14.83444405  150.38499451    1.28999996    2.69000006
   14.83777714  131.54299927    1.28999996    2.71000004
   14.84083271  166.92100525    1.28999996    2.71000004
   14.84416676  164.91000366    1.28999996    2.71000004
   14.84722233  171.66299438    1.28999996    2.71000004
   14.85055637  153.19500732    1.28999996    2.71000004
   14.85388947  143.10400391    1.28999996    2.71000004
   14.86000061  143.10400391    1.28999996    2.71000004
   14.86416721  171.34599304    1.26999998    2.71000004
   14.86722279  140.93400574    1.26999998    2.71000004
   14.87055588  142.14599609    1.26999998    2.71000004
   14.87361145  166.17300415    1.26999998    2.71000004
   14.87694454  170.37699890    1.26999998    2.71000004
   14.88027763  157.36199951    1.25000000    2.73000002
   14.88361073  156.05700684    1.25000000    2.71000004
   14.88666630  160.80200195    1.25000000    2.71000004
   14.89000034  147.22500610    1.25000000    2.71000004
   14.89305496  145.37399292    1.26999998    2.71000004
   14.89638901  149.86399841    1.26999998    2.73000002
   14.89694405  149.65699768    1.28999996    2.71000004
   14.90277767  149.65699768    1.28999996    2.71000004
   14.90694427  160.63099670    1.30999994    2.73000002
   14.90999985  143.13600159    1.28999996    2.71000004
   14.91333294  142.27000427    1.28999996    2.73000002
   14.91666698  142.18600464    1.28999996    2.73000002
   14.91972256  127.99299622    1.26999998    2.73000002
   14.92305565  152.16600037    1.26999998    2.73000002
   14.92611122  162.64199829    1.25000000    2.73000002
   14.92944431  159.47099304    1.23000002    2.73000002
   14.93027782  159.00999451    1.23000002    2.73000002
   14.93305588  190.82000732    1.21000004    2.73000002
   14.93611145  182.45700073    1.21000004    2.73000002
   15.03888893   -1.00000000   -1.00000000   -1.00000000
   15.13694477   -1.00000000   -1.00000000   -1.00000000
   15.23527813   -1.00000000   -1.00000000   -1.00000000
   15.26500034  290.76000977    1.16999996    2.75000000
   15.26805496  285.80499268    1.14999998    2.75000000
   15.27138901  227.45599365    1.14999998    2.75000000
   15.27472210  104.51399994    1.14999998    2.75000000
   15.27777767  120.33999634    1.13000000    2.75000000
   15.28111076  124.64800262    1.13000000    2.75000000
   15.28527832  124.64800262    1.13000000    2.73000002
   15.28944492  126.46600342    1.13000000    2.75000000
   15.29250050  129.01400757    1.13000000    2.75000000
   15.29583359  120.49400330    1.09000003    2.75000000
   15.29805565  122.46499634    1.09000003    2.75000000
   15.29944515  124.66999817    1.09000003    2.75000000
   15.30277824  128.50300598    1.09000003    2.73000002
   15.30583382  127.26699829    1.11000001    2.75000000
   15.30916691  130.19999695    1.11000001    2.75000000
   15.31222248  134.68099976    1.11000001    2.75000000
   15.31555557  123.35800171    1.11000001    2.73000002
   15.31888866  132.20199585    1.11000001    2.75000000
   15.32194424  127.46099854    1.11000001    2.75000000
   15.32805538  127.46099854    1.11000001    2.73000002
   15.33222198  148.14199829    1.11000001    2.75000000
   15.33527756  126.29799652    1.11000001    2.73000002
   15.33861065  135.09800720    1.11000001    2.75000000
   15.34194374  125.67900085    1.11000001    2.75000000
   15.34499931  130.35699463    1.11000001    2.75000000
   15.34833336  123.99099731    1.11000001    2.75000000
   15.35166740  125.36299896    1.11000001    2.73000002
   15.35472298  127.14099884    1.11000001    2.75000000
   15.35805607  132.43899536    1.11000001    2.75000000
   15.36111164  127.28299713    1.13000000    2.73000002
   15.36444473  132.46400452    1.13000000    2.75000000
   15.36500072  125.34300232    1.14999998    2.75000000
   15.37083340  125.34300232    1.13000000    2.73000002
   15.37500000  132.81500244    1.14999998    2.73000002
   15.37833309  129.79200745    1.13000000    2.75000000
   15.38138866  125.80200195    1.13000000    2.75000000
   15.38472176  131.12800598    1.13000000    2.73000002
   15.38805580  135.92599487    1.13000000    2.75000000
   15.39111137  132.10899353    1.13000000    2.75000000
   15.39444447  129.14900208    1.13000000    2.73000002
   15.39750004  127.35600281    1.11000001    2.75000000
   15.39833355  130.64300537    1.13000000    2.75000000
   15.40138817  137.19599915    1.13000000    2.75000000
   15.40444374  135.09899902    1.11000001    2.75000000
   15.40777779  131.92399597    1.13000000    2.75000000
   15.41361046  131.92399597    1.51999998    2.75000000
   15.41777802  127.20899963    1.21000004    2.75000000
   15.42111111  132.16600037    1.38000000    2.75000000
   15.42444515  131.79100037    1.30999994    2.73000002
   15.42750072  134.11500549    1.21000004    2.73000002
   15.43083382  128.43400574    1.23000002    2.73000002
   15.43166733  125.04199982    1.23000002    2.73000002
   15.43444443  125.87999725    1.19000006    2.73000002
   15.43750000  127.87899780    1.19000006    2.75000000
   15.44111156  128.78100586    1.19000006    2.73000002
   15.44416714  136.21299744    1.16999996    2.75000000
   15.44750023  125.24199677    1.16999996    2.75000000
   15.45083332  125.86499786    1.14999998    2.75000000
   15.45666695  125.86499786    1.14999998    2.75000000
   15.46083355  126.09999847    1.16999996    2.75000000
   15.46388912  136.39999390    1.16999996    2.73000002
   15.46500015  133.12600708    1.16999996    2.73000002
   15.46777725  126.97100067    1.14999998    2.73000002
   15.47083282  126.36599731    1.11000001    2.75000000
   15.47416592  132.86700439    1.13000000    2.73000002
   15.47749996  156.94299316    1.13000000    2.73000002
   15.48055553  140.13400269    1.11000001    2.75000000
   15.48388958  162.07200623    1.14999998    2.73000002
   15.48694515  142.21400452    1.14999998    2.75000000
   15.49027824  170.95199585    1.13000000    2.75000000
   15.49361134  131.13800049    1.14999998    2.75000000
   15.49944496  131.13800049    1.13000000    2.75000000
   15.50361156  147.06399536    1.11000001    2.75000000
   15.50666714  120.93399811    1.11000001    2.75000000
   15.51000023  121.88300323    1.13000000    2.75000000
   15.51333332  125.90100098    1.13000000    2.75000000
   15.51638889  127.79399872    1.13000000    2.75000000
   15.51972198  130.15699768    1.11000001    2.75000000
   15.52305508  124.77500153    1.11000001    2.75000000
   15.52611065  137.89199829    1.11000001    2.75000000
   15.52944374  126.28700256    1.13000000    2.75000000
   15.53166676  122.01499939    1.13000000    2.75000000
   15.53305531  128.34599304    1.11000001    2.75000000
   15.53611183  135.48699951    1.11000001    2.75000000
   15.54222298  135.48699951    1.11000001    2.75000000
   15.54638958  128.84599304    1.09000003    2.75000000
   15.54972267  131.20300293    1.07000005    2.75000000
   15.55277824  119.99199677    1.05999994    2.75000000
   15.55611134  133.20199585    1.07000005    2.75000000
   15.55944443  119.72000122    1.07000005    2.75000000
   15.56250000  120.79799652    1.07000005    2.75000000
   15.56500053  126.68299866    1.07000005    2.75000000
   15.56638908  126.21600342    1.07000005    2.75000000
   15.56944466  123.69300079    1.07000005    2.75000000
   15.57277775  148.96400452    1.07000005    2.75000000
   15.57611084  148.92700195    1.07000005    2.75000000
   15.57916641  142.73399353    1.07000005    2.76999998
   15.58500004  142.73399353    1.07000005    2.75000000
   15.58916664  128.41400146    1.07000005    2.75000000
   15.59249973  130.49000549    1.09000003    2.75000000
   15.59583282  125.15799713    1.07000005    2.76999998
   15.59833336  131.92199707    1.07000005    2.75000000
   15.59944439  134.36399841    1.07000005    2.76999998
   15.60249996  125.55899811    1.07000005    2.76999998
   15.60583401  148.12899780    1.07000005    2.75000000
   15.60916710  144.21800232    1.13000000    2.75000000
   15.61222267  143.02699280    1.14999998    2.76999998
   15.61555576  137.15800476    1.13000000    2.76999998
   15.61861134  130.26300049    1.13000000    2.75000000
   15.62194443  133.85000610    1.11000001    2.75000000
   15.62805557  133.85000610    1.07000005    2.76999998
   15.63222218  134.33500671    1.07000005    2.76999998
   15.63527775  123.68199921    1.07000005    2.75000000
   15.63861084  126.10099792    1.07000005    2.75000000
   15.64166641  123.83599854    1.09000003    2.75000000
   15.64499950  125.36000061    1.07000005    2.75000000
   15.64833355  135.65199280    1.07000005    2.75000000
   15.65138817  133.24800110    1.07000005    2.76999998
   15.65472221  125.51599884    1.07000005    2.76999998
   15.65805531  123.68699646    1.07000005    2.75000000
   15.66138840  122.66000366    1.09000003    2.75000000
   15.66444397  132.78100586    1.09000003    2.75000000
   15.66499996  124.34100342    1.09000003    2.75000000
   15.67083359  124.34100342    1.09000003    2.76999998
   15.67500019  127.29799652    1.07000005    2.75000000
   15.67805576  126.55999756    1.07000005    2.76999998
   15.68138885  133.57200623    1.09000003    2.75000000
   15.68472195  126.53099823    1.09000003    2.75000000
   15.68777752  136.33200073    1.07000005    2.75000000
   15.69111156  127.51200104    1.09000003    2.76999998
   15.69444466  128.20899963    1.09000003    2.75000000
   15.69750023  133.12399292    1.09000003    2.75000000
   15.69833374  132.43600464    1.09000003    2.76999998
   15.70111084  128.21200562    1.09000003    2.76999998
   15.70444393  125.41799927    1.13000000    2.75000000
   15.70749950  129.22099304    1.21000004    2.75000000
   15.71361065  129.22099304    1.16999996    2.75000000
   15.71777725  124.44400024    1.16999996    2.75000000
   15.72111034  128.46000671    1.14999998    2.75000000
   15.72472191  122.77200317    1.14999998    2.76999998
   15.72777748  122.88700104    1.14999998    2.76999998
   15.73111057  123.85700226    1.19000006    2.76999998
   15.73166656  128.35499573    1.13000000    2.76999998
   15.73472214  128.01600647    1.09000003    2.76999998
   15.73805618  124.75299835    1.09000003    2.76999998
   15.74111176  126.67600250    1.07000005    2.76999998
   15.74444485  126.69300079    1.05999994    2.76999998
   15.74750042  125.08200073    1.03999996    2.76999998
   15.75083351  129.16299438    1.03999996    2.76999998
   15.75638866  129.16299438    1.05999994    2.76999998
   15.76055527  121.87699890    1.03999996    2.76999998
   15.76388931  128.06300354    1.03999996    2.76999998
   15.76500034  126.18599701    1.03999996    2.76999998
   15.76749992  128.32800293    1.03999996    2.76999998
   15.77083302  122.84300232    1.03999996    2.76999998
   15.77388859  128.01199341    1.03999996    2.76999998
   15.77722168  121.67099762    1.03999996    2.76999998
   15.78027725  123.93800354    1.03999996    2.76999998
   15.78361130  127.56900024    1.05999994    2.76999998
   15.78694534  118.41899872    1.05999994    2.76999998
   15.79000092  119.83399963    1.05999994    2.75000000
   15.79333401  122.31800079    1.05999994    2.76999998
   15.79944515  122.31800079    1.05999994    2.75000000
   15.80333328  118.72899628    1.07000005    2.76999998
   15.80666733  123.53800201    1.05999994    2.76999998
   15.81000042  126.42299652    1.05999994    2.75000000
   15.81305599  132.36999512    1.05999994    2.75000000
   15.81638908  119.99900055    1.05999994    2.76999998
   15.81972218  132.63999939    1.05999994    2.75000000
   15.82277775  126.85399628    1.05999994    2.75000000
   15.82611084  123.40000153    1.05999994    2.75000000
   15.82916641  127.66999817    1.05999994    2.75000000
   15.83166695  125.81099701    1.05999994    2.76999998
   15.83305550  121.38899994    1.05999994    2.76999998
   15.83638859  126.16000366    1.05999994    2.78999996
   15.84222221  126.16000366    1.05999994    2.75000000
   15.84638882  154.63999939    1.07000005    2.75000000
   15.84944439  148.67399597    1.09000003    2.75000000
   15.85277843  141.83200073    1.09000003    2.75000000
   15.85611153  136.37399292    1.07000005    2.76999998
   15.85916710  131.13000488    1.05999994    2.75000000
   15.86250019  130.43600464    1.03999996    2.75000000
   15.86500072  125.94400024    1.03999996    2.76999998
   15.86611176  123.32199860    1.03999996    2.78999996
   15.86944485  125.42400360    1.03999996    2.78999996
   15.87250042  129.38999939    1.03999996    2.78999996
   15.87583351  133.90499878    1.03999996    2.78999996
   15.87888908  118.05599976    1.03999996    2.76999998
   15.88500023  118.05599976    1.01999998    2.76999998
   15.88916683  120.17299652    1.03999996    2.76999998
   15.89249992  128.91200256    1.03999996    2.76999998
   15.89555550  123.83899689    1.03999996    2.76999998
   15.89833355  125.78700256    1.03999996    2.76999998
   15.89916611  128.73899841    1.03999996    2.76999998
   15.90249920  127.74600220    1.03999996    2.76999998
   15.90555477  127.09600067    1.03999996    2.76999998
   15.90888882  125.99900055    1.03999996    2.76999998
   15.91194439  124.07700348    1.03999996    2.76999998
   15.91527748  135.78300476    1.03999996    2.76999998
   15.91861153  132.14500427    1.03999996    2.78999996
   15.92166710  129.64500427    1.01999998    2.76999998
   15.92777824  129.64500427    1.01999998    2.76999998
   15.93194485  137.10200500    1.01999998    2.76999998
   15.93527794  129.94099426    1.00000000    2.76999998
   15.93861103  135.81599426    1.01999998    2.76999998
   15.94166660  126.51699829    1.00000000    2.78999996
   15.94499969  125.98000336    1.00000000    2.78999996
   15.94833374  142.32699585    0.98000002    2.78999996
   15.95138836  140.76199341    0.98000002    2.76999998
   15.95472240  139.80299377    0.98000002    2.78999996
   15.95805550  144.77099609    0.98000002    2.78999996
   15.96111107  123.04299927    1.00000000    2.76999998
   15.96444416  124.98500061    1.00000000    2.76999998
   15.96500015  127.99199677    1.00000000    2.76999998
   15.97083282  127.99199677    1.01999998    2.75000000
   15.97499943  131.44799805    1.03999996    2.76999998
   15.97805500  118.70999908    1.05999994    2.76999998
   15.98138809  134.57600403    1.05999994    2.76999998
   15.98444462  131.63099670    1.05999994    2.76999998
   15.98777771  129.53399658    1.05999994    2.76999998
   15.99111176  130.82000732    1.05999994    2.76999998
   15.99416733  158.43400574    1.05999994    2.76999998
   15.99750042  131.52499390    1.05999994    2.76999998
   15.99833393  151.39599609    1.05999994    2.76999998
   16.00111198  132.17100525    1.05999994    2.76999998
   16.00444412  135.16900635    1.05999994    2.76999998
   16.00749969  134.65899658    1.05999994    2.76999998
   16.01361084  134.65899658    1.03999996    2.76999998
   16.01777840  133.61900330    1.03999996    2.76999998
   16.02083397  125.02100372    1.03999996    2.76999998
   16.02416611  124.85700226    1.03999996    2.76999998
   16.02750015  133.54499817    1.03999996    2.76999998
   16.03055573  137.63299561    1.03999996    2.76999998
   16.03166580  129.19999695    1.03999996    2.76999998
   16.03416634  130.74400330    1.05999994    2.76999998
   16.03750038  119.83599854    1.05999994    2.76999998
   16.04055595  123.63099670    1.05999994    2.76999998
   16.04388809  129.82499695    1.05999994    2.76999998
   16.04722214  125.41100311    1.05999994    2.78999996
   16.05027771  128.41400146    1.05999994    2.76999998
   16.05638885  128.41400146    1.05999994    2.76999998
   16.06055450  125.82299805    1.05999994    2.76999998
   16.06388855  126.19899750    1.05999994    2.76999998
   16.06499863  131.67900085    1.05999994    2.76999998
   16.06750107  128.05400085    1.05999994    2.76999998
   16.07083511  145.83299255    1.05999994    2.76999998
   16.07389069  151.37899780    1.07000005    2.76999998
   16.07722282  122.77300262    1.09000003    2.78999996
   16.08055687  119.81400299    1.11000001    2.76999998
   16.08361244  122.73899841    1.09000003    2.76999998
   16.08694458  127.90499878    1.09000003    2.76999998
   16.09000015  117.76899719    1.09000003    2.76999998
   16.09333420  112.71199799    1.07000005    2.76999998
   16.09916687  112.71199799    1.05999994    2.78999996
   16.10333443  122.01499939    1.05999994    2.76999998
   16.10666656  126.45999908    1.07000005    2.78999996
   16.10972214  122.66699982    1.09000003    2.76999998
   16.11305618  124.32599640    1.07000005    2.76999998
   16.11638832  133.56500244    1.07000005    2.76999998
   16.11944389  132.05999756    1.07000005    2.78999996
   16.12277794  122.15000153    1.07000005    2.78999996
   16.12611198  133.08500671    1.09000003    2.78999996
   16.12916756  115.63800049    1.07000005    2.76999998
   16.13166618  126.39099884    1.07000005    2.76999998
   16.13277817  135.12199402    1.07000005    2.76999998
   16.13611031  124.43599701    1.07000005    2.78999996
   16.14222145  124.43599701    1.07000005    2.78999996
   16.14611053  118.22399902    1.07000005    2.76999998
   16.14944458  116.56700134    1.05999994    2.76999998
   16.15277672  129.55200195    1.05999994    2.76999998
   16.15583229  118.21900177    1.05999994    2.78999996
   16.15916634  153.10499573    1.07000005    2.78999996
   16.16250038  123.11399841    1.09000003    2.76999998
   16.16499901  119.97000122    1.09000003    2.76999998
   16.16611099  125.97200012    1.16999996    2.76999998
   16.16944313  142.22900391    1.16999996    2.76999998
   16.17249870  129.62699890    1.21000004    2.78999996
   16.17583275  116.55799866    1.21000004    2.78999996
   16.17916679  124.96399689    1.21000004    2.78999996
   16.18499947  124.96399689    1.19000006    2.76999998
   16.18916512  120.32099915    1.16999996    2.78999996
   16.19222069  121.75299835    1.11000001    2.78999996
   16.19555473  121.84300232    1.11000001    2.76999998
   16.19861031  125.46900177    1.11000001    2.78999996
   16.19916534  135.00000000    1.11000001    2.78999996
   16.20250130  126.36699677    1.11000001    2.76999998
   16.20555687  131.75300598    1.09000003    2.76999998
   16.20888901  128.75500488    1.09000003    2.76999998
   16.21222305  127.51200104    1.09000003    2.78999996
   16.21527863  114.44499969    1.09000003    2.78999996
   16.21861076  122.74500275    1.13000000    2.76999998
   16.22166634  136.15100098    1.14999998    2.78999996
   16.22777748  136.15100098    1.11000001    2.76999998
   16.23194504  163.79899597    1.14999998    2.76999998
   16.23527718  115.14199829    1.16999996    2.76999998
   16.23833275  130.21600342    1.13000000    2.78999996
   16.24166679  124.58399963    1.11000001    2.76999998
   16.24472237  119.96900177    1.09000003    2.76999998
   16.24805641  123.50099945    1.07000005    2.76999998
   16.25138855  123.93599701    1.07000005    2.78999996
   16.25444412  125.95899963    1.07000005    2.76999998
   16.25777817  132.43600464    1.07000005    2.76999998
   16.26111031  163.45300293    1.07000005    2.78999996
   16.26416588  139.09100342    1.05999994    2.76999998
   16.26527786  114.43099976    1.05999994    2.76999998
   16.28583336  114.43099976    1.03999996    2.76999998
   16.28999901  129.39999390    1.05999994    2.78999996
   16.29333305  154.71499634    1.05999994    2.76999998
   16.29638863  133.13800049    1.05999994    2.76999998
   16.29861069  125.30500031    1.05999994    2.76999998
   16.29999924  123.54100037    1.05999994    2.76999998
   16.30333328  127.44499969    1.05999994    2.78999996
   16.30638885  121.38500214    1.05999994    2.76999998
   16.30972099  126.21900177    1.03999996    2.76999998
   16.31305504  134.50199890    1.03999996    2.78999996
   16.31611061  121.91400146    1.03999996    2.78999996
   16.31944466  125.80699921    1.03999996    2.76999998
   16.32277870  158.73699951    1.03999996    2.76999998
   16.32861137  158.73699951    1.03999996    2.78999996
   16.33277893  133.71600342    1.03999996    2.78999996
   16.33583450  131.78500366    1.03999996    2.78999996
   16.33916664  123.31500244    1.03999996    2.78999996
   16.34250069  131.96299744    1.03999996    2.76999998
   16.34555626  151.08200073    1.03999996    2.78999996
   16.34889030  149.22399902    1.05999994    2.78999996
   16.35222244  137.03599548    1.05999994    2.76999998
   16.35527802  132.27000427    1.05999994    2.76999998
   16.35861206  139.85000610    1.05999994    2.76999998
   16.36166763  132.05200195    1.05999994    2.76999998
   16.36499977  136.33700562    1.05999994    2.78999996
   16.36555672  137.81300354    1.05999994    2.78999996
   16.37138939  137.81300354    1.05999994    2.78999996
   16.37555504  134.29499817    1.05999994    2.76999998
   16.37888908  132.35299683    1.05999994    2.78999996
   16.38194466  128.68099976    1.05999994    2.78999996
   16.38527679  119.49199677    1.03999996    2.76999998
   16.38861084  126.90699768    1.03999996    2.78999996
   16.39166641  128.41200256    1.03999996    2.78999996
   16.39500046  139.83299255    1.03999996    2.76999998
   16.39805603  137.27299500    1.03999996    2.76999998
   16.39888954  133.45700073    1.03999996    2.76999998
   16.40194321  138.12100220    1.03999996    2.78999996
   16.40499878  124.96199799    1.03999996    2.76999998
   16.40833282  133.30099487    1.03999996    2.76999998
   16.41416550  133.30099487    1.03999996    2.76999998
   16.41833305  126.15100098    1.03999996    2.78999996
   16.42166519  127.26300049    1.03999996    2.78999996
   16.42499924  143.21699524    1.03999996    2.76999998
   16.42805481  132.73800659    1.03999996    2.76999998
   16.43138885  131.75999451    1.05999994    2.76999998
   16.43222237  127.77200317    1.05999994    2.76999998
   16.43499947  136.55599976    1.05999994    2.78999996
   16.43805504  128.80999756    1.05999994    2.76999998
   16.44138718  127.95400238    1.05999994    2.76999998
   16.44472122  128.70300293    1.09000003    2.78999996
   16.44777679  132.21800232    1.09000003    2.76999998
   16.45111275  130.29600525    1.09000003    2.76999998
   16.45722389  130.29600525    1.09000003    2.76999998
   16.46138954  126.15599823    1.09000003    2.78999996
   16.46444511  133.63800049    1.09000003    2.76999998
   16.46555710  130.21299744    1.09000003    2.76999998
   16.46833420  126.08599854    1.09000003    2.78999996
   16.47138977  130.93600464    1.07000005    2.78999996
   16.47472191  126.48200226    1.07000005    2.78999996
   16.47805595  139.96299744    1.07000005    2.78999996
   16.48111153  134.50100708    1.07000005    2.78999996
   16.48444557  129.89999390    1.07000005    2.76999998
   16.48750114  134.09100342    1.07000005    2.76999998
   16.49083328  140.25700378    1.05999994    2.76999998
   16.49416733  129.16499329    1.05999994    2.76999998
   16.50000000  129.16499329    1.05999994    2.78999996
   16.50416756  135.42799377    1.03999996    2.78999996
   16.50722313  130.10699463    1.03999996    2.78999996
   16.51055527  131.02000427    1.01999998    2.78999996
   16.51388931  134.24400330    1.03999996    2.76999998
   16.51694489  140.25399780    1.03999996    2.76999998
   16.52027702  133.42300415    1.03999996    2.76999998
   16.52361107  135.43099976    1.03999996    2.76999998
   16.52666664  127.01000214    1.01999998    2.78999996
   16.53000069  130.54600525    1.03999996    2.78999996
   16.53222275  125.03399658    1.03999996    2.78999996
   16.53361130  124.69999695    1.03999996    2.78999996
   16.53666687  127.64199829    1.05999994    2.78999996
   16.54277802  127.64199829    1.09000003    2.78999996
   16.54694366  125.51100159    1.09000003    2.78999996
   16.55027771  132.61799622    1.09000003    2.78999996
   16.55333328  122.39900208    1.09000003    2.78999996
   16.55666542  132.36199951    1.09000003    2.76999998
   16.55999947  126.47499847    1.09000003    2.76999998
   16.56305504  136.60600281    1.09000003    2.76999998
   16.56555557  135.82600403    1.07000005    2.78999996
   16.56694603  132.78199768    1.07000005    2.78999996
   16.57000160  133.38400269    1.05999994    2.78999996
   16.57333374  139.62600708    1.05999994    2.78999996
   16.57666779  145.17900085    1.05999994    2.76999998
   16.57972336  150.74699402    1.05999994    2.78999996
   16.58555603  150.74699402    1.01999998    2.76999998
   16.58972359  135.86099243    1.01999998    2.78999996
   16.59305573  138.78199768    1.03999996    2.78999996
   16.59638977  136.96499634    1.01999998    2.76999998
   16.59889030  136.85499573    1.03999996    2.78999996
   16.60000038  132.92799377    1.05999994    2.78999996
   16.60305595  138.78300476    1.03999996    2.78999996
   16.60639000  145.47200012    1.03999996    2.78999996
   16.60972214  123.16899872    1.03999996    2.78999996
   16.61277771  128.72799683    1.03999996    2.78999996
   16.61611176  131.36999512    1.03999996    2.78999996
   16.61944389  130.69000244    1.03999996    2.78999996
   16.62249947  137.82299805    1.03999996    2.78999996
   16.62861061  137.82299805    1.03999996    2.78999996
   16.63277817  132.29499817    1.05999994    2.78999996
   16.63583374  123.63800049    1.05999994    2.78999996
   16.63916588  138.82499695    1.05999994    2.78999996
   16.64222145  132.74400330    1.03999996    2.78999996
   16.64555550  136.04200745    1.03999996    2.76999998
   16.64888954  140.36099243    1.03999996    2.78999996
   16.65194321  137.35400391    1.03999996    2.78999996
   16.65527725  134.31399536    1.01999998    2.78999996
   16.65861130  139.35099792    1.01999998    2.78999996
   16.66166687  140.38900757    1.01999998    2.78999996
   16.66499901  133.42399597    1.01999998    2.78999996
   16.66555595  144.72200012    1.01999998    2.78999996
   16.67138863  144.72200012    1.01999998    2.78999996
   16.67555428  143.40699768    1.01999998    2.78999996
   16.67860985  133.58799744    1.00000000    2.76999998
   16.68194389  133.05900574    1.00000000    2.78999996
   16.68527603  127.52100372    1.00000000    2.78999996
   16.68833160  140.33900452    0.98000002    2.78999996
   16.69166565  135.08500671    0.98000002    2.78999996
   16.69499969  130.23899841    0.98000002    2.76999998
   16.69805527  134.21899414    0.98000002    2.78999996
   16.69888878  134.35000610    0.98000002    2.78999996
   16.70166779  128.17500305    1.00000000    2.78999996
   16.70499992  132.46600342    0.98000002    2.78999996
   16.70833397  139.39900208    0.98000002    2.78999996
   16.71416664  139.39900208    0.95999998    2.78999996
   16.71833420  143.19900513    0.95999998    2.78999996
   16.72166634  137.66499329    0.95999998    2.76999998
   16.72472191  151.78599548    0.95999998    2.78999996
   16.72805595  130.35600281    0.98000002    2.78999996
   16.73139000  148.00599670    0.98000002    2.76999998
   16.73222351  150.49899292    0.98000002    2.76999998
   16.73500061  137.99400330    0.98000002    2.76999998
   16.73805618  151.94400024    0.98000002    2.78999996
   16.74138832  139.07099915    0.98000002    2.76999998
   16.74472237  135.60299683    0.98000002    2.78999996
   16.74777794  143.29800415    0.98000002    2.78999996
   16.75111198  144.10699463    0.98000002    2.78999996
   16.75694466  144.10699463    0.98000002    2.78999996
   16.76111031  139.25100708    0.98000002    2.78999996
   16.76444435  138.15199280    1.00000000    2.78999996
   16.76555634  134.96699524    1.00000000    2.78999996
   16.76805496  132.62500000    0.98000002    2.76999998
   16.77111053  138.98899841    0.98000002    2.78999996
   16.77444458  141.50599670    0.98000002    2.78999996
   16.77777672  137.49899292    0.98000002    2.76999998
   16.78083229  137.10699463    0.98000002    2.78999996
   16.78416634  139.41999817    0.98000002    2.78999996
   16.78750038  146.42700195    1.07000005    2.78999996
   16.79055595  132.46000671    1.05999994    2.78999996
   16.79388809  124.86000061    1.03999996    2.78999996
   16.79999924  124.86000061    1.01999998    2.78999996
   16.80416679  136.93600464    1.03999996    2.76999998
   16.80722237  138.04499817    1.00000000    2.78999996
   16.81055450  137.15400696    0.98000002    2.76999998
   16.81361008  129.18800354    0.95999998    2.78999996
   16.81694603  137.10499573    0.95999998    2.78999996
   16.82027817  133.89900208    0.95999998    2.78999996
   16.82333374  129.72200012    0.95999998    2.78999996
   16.82666779  137.29600525    0.95999998    2.78999996
   16.82972336  140.40600586    0.95999998    2.78999996
   16.83250046  128.18400574    0.95999998    2.78999996
   16.83361244  135.80999756    0.95999998    2.78999996
   16.83694458  131.56599426    0.95999998    2.78999996
   16.84277916  131.56599426    0.95999998    2.78999996
   16.84694481  137.83999634    0.98000002    2.78999996
   16.85000038  136.79899597    0.95999998    2.78999996
   16.85333443  142.06199646    0.95999998    2.78999996
   16.85666656  141.68200684    1.05999994    2.78999996
   16.85972214  133.75500488    1.03999996    2.76999998
   16.86305618  137.32499695    1.01999998    2.78999996
   16.86555672  132.06399536    1.03999996    2.78999996
   16.86666679  133.41600037    1.03999996    2.78999996
   16.87000084  128.62100220    1.00000000    2.78999996
   16.87305641  132.91200256    1.01999998    2.78999996
   16.87638855  125.12699890    1.01999998    2.78999996
   16.87972260  132.09899902    1.01999998    2.78999996
   16.88555527  132.09899902    1.01999998    2.78999996
   16.88972282  134.34899902    1.01999998    2.78999996
   16.89305496  133.75599670    1.01999998    2.78999996
   16.89611053  138.64300537    1.01999998    2.78999996
   16.89888954  134.42999268    1.00000000    2.78999996
   16.89972115  129.52200317    1.00000000    2.78999996
   16.90277672  143.07200623    1.01999998    2.78999996
   16.90611076  139.35600281    1.00000000    2.78999996
   16.90944481  129.55700684    1.01999998    2.78999996
   16.91250038  134.71200562    1.01999998    2.76999998
   16.91583252  132.63999939    1.01999998    2.78999996
   16.91916656  133.05799866    1.01999998    2.78999996
   16.92222214  119.93000031    1.01999998    2.78999996
   16.92833328  119.93000031    1.01999998    2.78999996
   16.93249893  128.69400024    1.01999998    2.78999996
   16.93583298  131.01400757    0.98000002    2.78999996
   16.93916512  125.11100006    0.98000002    2.80999994
   16.94222069  131.73699951    1.00000000    2.78999996
   16.94555473  127.50499725    1.00000000    2.78999996
   16.94861031  131.50500488    1.00000000    2.78999996
   16.95194435  122.35600281    0.98000002    2.78999996
   16.95527840  122.40000153    1.00000000    2.80999994
   16.95833397  124.81800079    0.98000002    2.78999996
   16.96166801  127.23100281    0.98000002    2.78999996
   16.96500015  126.00900269    0.98000002    2.78999996
   16.96555710  129.90100098    0.98000002    2.78999996
   16.97138977  129.90100098    0.95999998    2.78999996
   16.97527885  128.57299805    0.95999998    2.78999996
   16.97861099  125.88700104    0.95999998    2.78999996
   16.98194504  128.28199768    0.95999998    2.78999996
   16.98500061  131.62100220    0.95999998    2.78999996
   16.98833275  133.99200439    0.95999998    2.78999996
   16.99166679  142.22799683    0.95999998    2.78999996
   16.99472237  134.14300537    0.95999998    2.78999996
   16.99805641  137.35299683    0.98000002    2.80999994
   16.99888992  126.77400208    0.98000002    2.78999996
   17.00166702  127.44200134    0.98000002    2.78999996
   17.00499916  134.10499573    0.98000002    2.78999996
   17.00805473  130.96299744    0.98000002    2.78999996
   17.01416588  130.96299744    0.98000002    2.78999996
   17.01833344  128.99000549    0.98000002    2.78999996
   17.02138901  125.56800079    0.98000002    2.78999996
   17.02472115  133.88400269    0.95999998    2.78999996
   17.02805519  131.73500061    0.95999998    2.78999996
   17.03111076  123.88099670    0.95999998    2.78999996
   17.03222275  132.57800293    0.95999998    2.78999996
   17.03472137  134.90299988    0.95999998    2.78999996
   17.03805542  133.90299988    0.94000000    2.78999996
   17.04111099  137.78399658    0.94000000    2.78999996
   17.04444313  132.22900391    0.92000002    2.78999996
   17.04749870  128.04400635    0.92000002    2.78999996
   17.05083275  135.53799438    0.94000000    2.78999996
   17.05694389  135.53799438    0.92000002    2.78999996
   17.06110954  126.94300079    0.94000000    2.78999996
   17.06444359  129.29899597    0.94000000    2.78999996
   17.06555557  126.84100342    0.94000000    2.78999996
   17.06805611  126.68800354    0.94000000    2.78999996
   17.07139015  114.59799957    0.94000000    2.78999996
   17.07444572  134.02999878    0.94000000    2.78999996
   17.07777786  122.85299683    0.94000000    2.78999996
   17.08111191  135.51699829    0.94000000    2.78999996
   17.08416748  135.97900391    0.94000000    2.78999996
   17.08750153  141.89300537    0.94000000    2.78999996
   17.09055710  140.07899475    0.94000000    2.78999996
   17.09388924  135.31900024    0.94000000    2.78999996
   17.09972191  135.31900024    0.94000000    2.78999996
   17.10388947  142.47200012    0.94000000    2.78999996
   17.10722351  126.66000366    0.94000000    2.78999996
   17.11027908  133.60800171    0.92000002    2.80999994
   17.11361122  142.27999878    0.92000002    2.78999996
   17.11694527  138.69099426    0.94000000    2.78999996
   17.12000084  133.61700439    0.92000002    2.78999996
   17.12333298  137.14999390    0.92000002    2.78999996
   17.12666702  141.71699524    0.94000000    2.78999996
   17.12972260  137.65499878    0.92000002    2.78999996
   17.13222313  141.19000244    0.94000000    2.78999996
   17.13333321  130.08000183    0.94000000    2.78999996
   17.13666725  125.70999908    0.92000002    2.78999996
   17.14277840  125.70999908    0.94000000    2.78999996
   17.14666748  138.29499817    0.92000002    2.78999996
   17.14999962  133.99600220    0.92000002    2.78999996
   17.15333366  135.19799805    0.94000000    2.78999996
   17.15638924  141.22300720    0.94000000    2.78999996
   17.15972137  128.62199402    0.92000002    2.80999994
   17.16305542  139.47799683    0.92000002    2.78999996
   17.16555595  133.19099426    0.92000002    2.78999996
   17.16666603  134.58700562    0.94000000    2.78999996
   17.17000008  134.73899841    0.92000002    2.78999996
   17.17305565  133.81399536    0.92000002    2.78999996
   17.17638779  131.26400757    0.94000000    2.80999994
   17.17972183  139.23500061    0.94000000    2.78999996
   17.18555450  139.23500061    0.94000000    2.78999996
   17.18972206  131.35000610    0.94000000    2.80999994
   17.19277763  134.68099976    0.94000000    2.78999996
   17.19610977  130.41700745    0.94000000    2.80999994
   17.19916534  128.26899719    0.94000000    2.80999994
   17.19972038  128.59899902    0.94000000    2.80999994
   17.20305634  129.62600708    0.94000000    2.78999996
   17.20611191  129.49200439    0.94000000    2.78999996
   17.20944595  129.94000244    0.94000000    2.78999996
   17.21277809  137.24600220    0.94000000    2.78999996
   17.21583366  121.58599854    0.94000000    2.80999994
   17.21916771  130.19500732    0.94000000    2.78999996
   17.22249985  123.35700226    0.95999998    2.80999994
   17.22833443  123.35700226    0.95999998    2.78999996
   17.23250008  127.39499664    0.95999998    2.78999996
   17.23583412  116.93199921    0.95999998    2.78999996
   17.23888969  126.46800232    0.95999998    2.78999996
   17.24222183  129.08200073    0.95999998    2.78999996
   17.24527740  123.88500214    0.95999998    2.78999996
   17.24861145  131.11500549    0.95999998    2.76999998
   17.25194359  126.69400024    0.95999998    2.78999996
   17.25499916  126.68399811    0.94000000    2.78999996
   17.25833321  127.19599915    0.94000000    2.78999996
   17.26166725  131.33999634    0.95999998    2.78999996
   17.26472282  133.76199341    0.95999998    2.78999996
   17.26583290  133.71099854    0.94000000    2.78999996
   17.27111053  133.71099854    0.94000000    2.78999996
   17.27527809  126.07700348    0.94000000    2.78999996
   17.27861023  128.10499573    0.94000000    2.78999996
   17.28166580  122.49700165    0.92000002    2.78999996
   17.29944420  131.53599548    0.92000002    2.78999996
   17.30166626  131.63900757    0.92000002    2.78999996
   17.30499840  135.56399536    0.92000002    2.78999996
   17.30833244  130.06100464    0.92000002    2.78999996
   17.31416512  130.06100464    0.92000002    2.78999996
   17.31833458  128.93200684    0.94000000    2.78999996
   17.32166672  135.94599915    0.92000002    2.78999996
   17.32472229  134.32499695    0.92000002    2.78999996
   17.32805634  130.98899841    0.92000002    2.78999996
   17.33139038  128.42300415    0.92000002    2.78999996
   17.33250046  132.72799683    0.92000002    2.78999996
   17.33500099  137.05799866    0.94000000    2.78999996
   17.33833313  123.17700195    0.94000000    2.78999996
   17.34138870  129.82299805    0.92000002    2.78999996
   17.34472275  137.58999634    0.94000000    2.78999996
   17.34805679  145.28100586    0.92000002    2.78999996
   17.35111237  126.87899780    0.92000002    2.78999996
   17.35694504  126.87899780    0.94000000    2.78999996
   17.36111069  130.32299805    0.92000002    2.78999996
   17.36444473  131.07899475    0.92000002    2.80999994
   17.36583328  131.51899719    0.92000002    2.78999996
   17.36805534  131.95700073    0.92000002    2.78999996
   17.37138939  122.74099731    0.92000002    2.78999996
   17.37444496  129.94700623    0.94000000    2.78999996
   17.37777710  126.80100250    0.92000002    2.80999994
   17.38111115  131.34500122    0.92000002    2.80999994
   17.38416672  124.80400085    0.92000002    2.78999996
   17.38750076  123.98300171    0.92000002    2.78999996
   17.39083290  129.60800171    0.92000002    2.78999996
   17.39388847  131.41799927    0.92000002    2.80999994
   17.39999962  131.41799927    0.92000002    2.78999996
   17.40416718  132.53999329    0.92000002    2.78999996
   17.40722275  130.06199646    0.92000002    2.78999996
   17.41055489  137.19299316    0.92000002    2.78999996
   17.41388893  133.30799866    0.92000002    2.78999996
   17.41694450  134.20399475    0.92000002    2.78999996
   17.42027664  126.82900238    0.92000002    2.80999994
   17.42361069  129.45899963    0.92000002    2.78999996
   17.42666626  127.00800323    0.92000002    2.76999998
   17.43000031  132.02600098    0.92000002    2.78999996
   17.43277740  130.59300232    0.92000002    2.78999996
   17.43361092  129.47799683    0.92000002    2.78999996
   17.43694305  132.88800049    0.92000002    2.78999996
   17.44277763  132.88800049    0.94000000    2.78999996
   17.44694328  129.34399414    0.94000000    2.76999998
   17.45027924  142.81700134    0.94000000    2.78999996
   17.45333481  131.11399841    0.94000000    2.76999998
   17.45666695  134.87300110    0.94000000    2.76999998
   17.45972252  129.70799255    0.94000000    2.76999998
   17.46305656  124.84200287    0.94000000    2.76999998
   17.46611214  126.94799805    0.94000000    2.78999996
   17.46666718  133.72000122    0.94000000    2.78999996
   17.47000122  131.76400757    0.94000000    2.78999996
   17.47333336  129.54499817    0.94000000    2.78999996
   17.47638893  128.62300110    0.94000000    2.78999996
   17.47972298  128.61399841    0.94000000    2.76999998
   17.48555565  128.61399841    0.94000000    2.78999996
   17.48972321  127.75299835    0.94000000    2.76999998
   17.49305534  121.92800140    0.95999998    2.78999996
   17.49611092  120.95999908    0.95999998    2.78999996
   17.49944496  128.12699890    0.95999998    2.78999996
   17.49972153  133.96699524    0.94000000    2.78999996
   17.50305557  125.26499939    0.95999998    2.78999996
   17.50611115  130.19200134    0.95999998    2.78999996
   17.50944519  124.60700226    0.95999998    2.78999996
   17.51277733  133.04600525    0.95999998    2.78999996
   17.51583290  127.05100250    0.95999998    2.78999996
   17.51916695  125.82499695    0.95999998    2.76999998
   17.52249908  133.38099670    0.95999998    2.78999996
   17.52833366  133.38099670    0.95999998    2.76999998
   17.53277779  132.01499939    0.95999998    2.76999998
   17.53305435  134.30799866    0.98000002    2.78999996
   17.53638840  131.27299500    0.95999998    2.78999996
   17.53944397  136.97099304    0.98000002    2.78999996
   17.54277802  130.42799377    0.98000002    2.76999998
   17.54611015  131.23100281    0.98000002    2.78999996
   17.54916573  132.99699402    0.98000002    2.76999998
   17.55249977  127.60600281    0.98000002    2.76999998
   17.55583191  134.61199951    0.98000002    2.76999998
   17.55888748  124.44000244    0.98000002    2.76999998
   17.56222153  128.16499329    0.98000002    2.78999996
   17.56555557  134.49400330    0.98000002    2.78999996
   17.56611061  131.62399292    0.98000002    2.78999996
   17.57139015  131.62399292    0.98000002    2.78999996
   17.57555580  127.58000183    0.95999998    2.78999996
   17.57861137  124.31600189    0.95999998    2.76999998
   17.58194542  123.98100281    0.95999998    2.78999996
   17.58500099  122.73899841    0.95999998    2.76999998
   17.58833313  120.36000061    0.95999998    2.76999998
   17.59166718  125.08000183    0.95999998    2.76999998
   17.59472275  121.51499939    0.95999998    2.78999996
   17.59805679  126.32900238    0.95999998    2.78999996
   17.59944534  123.40499878    0.95999998    2.78999996
   17.60166740  129.22099304    0.95999998    2.76999998
   17.60499954  128.40699768    0.95999998    2.76999998
   17.60833359  130.77099609    0.95999998    2.78999996
   17.61416626  130.77099609    0.98000002    2.76999998
   17.61833382  135.76699829    0.95999998    2.78999996
   17.62138939  130.69500732    0.95999998    2.78999996
   17.62472153  124.39199829    0.98000002    2.78999996
   17.62805557  126.37500000    0.98000002    2.76999998
   17.63111115  128.98100281    0.98000002    2.78999996
   17.63277817  135.52499390    0.98000002    2.78999996
   17.63472176  140.80200195    0.98000002    2.78999996
   17.63805580  128.43299866    0.98000002    2.76999998
   17.64138794  123.83300018    0.98000002    2.76999998
   17.64444351  123.76399994    0.98000002    2.76999998
   17.64777756  120.98799896    0.95999998    2.76999998
   17.65083313  128.40699768    0.95999998    2.78999996
   17.65694427  128.40699768    0.95999998    2.78999996
   17.66110992  124.46600342    0.95999998    2.78999996
   17.66444397  129.51300049    0.95999998    2.78999996
   17.66611099  130.15199280    0.95999998    2.78999996
   17.66805458  135.02000427    0.95999998    2.76999998
   17.67138863  130.35400391    0.94000000    2.76999998
   17.67472076  126.28500366    0.94000000    2.78999996
   17.67777634  126.32900238    0.94000000    2.78999996
   17.68111038  127.42800140    0.94000000    2.78999996
   17.68416595  127.62200165    0.94000000    2.78999996
   17.68750000  129.33099365    0.92000002    2.78999996
   17.69083214  125.99500275    0.92000002    2.78999996
   17.69388771  126.37000275    0.92000002    2.78999996
   17.69972038  126.37000275    0.92000002    2.76999998
   17.70388985  133.35099792    0.92000002    2.78999996
   17.70722389  134.14799500    0.92000002    2.76999998
   17.71055603  130.07699585    0.92000002    2.78999996
   17.71361160  138.44400024    0.92000002    2.78999996
   17.71694565  124.37000275    0.92000002    2.78999996
   17.72027779  124.63500214    0.92000002    2.78999996
   17.72333336  125.86900330    0.92000002    2.78999996
   17.72666740  126.60800171    0.92000002    2.76999998
   17.72972298  127.66300201    0.89999998    2.78999996
   17.73277855  125.37400055    0.89999998    2.76999998
   17.73333359  118.60800171    0.89999998    2.76999998
   17.73666763  121.18800354    0.92000002    2.78999996
   17.74277878  121.18800354    0.89999998    2.78999996
   17.74694443  120.06400299    0.89999998    2.78999996
   17.75000000  119.71099854    0.92000002    2.78999996
   17.75333405  124.40699768    0.92000002    2.78999996
   17.75638962  118.57199860    0.94000000    2.78999996
   17.75972176  116.57900238    0.94000000    2.78999996
   17.76305580  126.17700195    0.94000000    2.78999996
   17.76611137  128.22200012    0.94000000    2.78999996
   17.76638794  128.96000671    0.94000000    2.78999996
   17.76972198  122.41999817    0.94000000    2.76999998
   17.77305603  123.33799744    0.94000000    2.78999996
   17.77611160  117.04900360    0.94000000    2.78999996
   17.77944374  115.08599854    0.94000000    2.78999996
   17.78555489  115.08599854    0.94000000    2.78999996
   17.78972244  130.96099854    0.95999998    2.78999996
   17.79305458  122.45999908    0.98000002    2.78999996
   17.79611015  124.50900269    0.98000002    2.76999998
   17.79944420  125.28800201    0.98000002    2.78999996
   17.79972076  121.32700348    1.00000000    2.78999996
   17.80305481  126.92500305    1.01999998    2.78999996
   17.80638885  125.59600067    1.01999998    2.78999996
   17.80944443  121.71700287    1.03999996    2.78999996
   17.81277657  125.17099762    1.03999996    2.76999998
   17.81583214  129.53599548    1.01999998    2.76999998
   17.81916809  129.12300110    1.01999998    2.76999998
   17.82250023  126.99900055    1.11000001    2.76999998
   17.82833481  126.99900055    1.03999996    2.78999996
   17.83250046  126.50000000    1.00000000    2.78999996
   17.83305550  129.98100281    1.00000000    2.78999996
   17.83638954  127.68199921    1.00000000    2.76999998
   17.83944511  120.99600220    1.00000000    2.76999998
   17.84277916  123.97899628    0.98000002    2.76999998
   17.84611130  119.94300079    0.95999998    2.76999998
   17.84916687  125.41200256    0.95999998    2.76999998
   17.85250092  131.36900330    0.95999998    2.76999998
   17.85555649  128.29100037    0.98000002    2.78999996
   17.85888863  122.52100372    0.98000002    2.76999998
   17.86222267  123.06099701    0.98000002    2.76999998
   17.86527824  133.29600525    0.98000002    2.76999998
   17.86638832  124.10099792    0.98000002    2.76999998
   17.87111092  124.10099792    0.98000002    2.76999998
   17.87527847  125.18399811    0.98000002    2.76999998
   17.87861061  121.93900299    0.98000002    2.78999996
   17.88194466  121.91600037    0.98000002    2.76999998
   17.88500023  116.43699646    0.95999998    2.76999998
   17.88833237  124.13099670    0.95999998    2.76999998
   17.89166641  130.07699585    0.95999998    2.78999996
   17.89472198  116.83499908    0.95999998    2.76999998
   17.89805603  126.40499878    0.95999998    2.76999998
   17.89972115  126.59899902    0.95999998    2.76999998
   17.90166664  127.58200073    0.95999998    2.76999998
   17.90472221  121.15699768    0.94000000    2.76999998
   17.90805435  128.03599548    0.95999998    2.78999996
   17.91416550  128.03599548    0.95999998    2.76999998
   17.91833305  132.51699829    0.94000000    2.76999998
   17.92138863  131.02799988    0.94000000    2.76999998
   17.92472076  127.83499908    0.94000000    2.76999998
   17.92777634  136.87699890    0.95999998    2.76999998
   17.93111038  124.77600098    0.95999998    2.76999998
   17.93305397  126.61799622    0.95999998    2.76999998
   17.93472099  129.24000549    0.95999998    2.78999996
   17.93777657  140.16600037    0.95999998    2.76999998
   17.94111061  136.21299744    0.94000000    2.78999996
   17.94444275  129.64399719    0.94000000    2.78999996
   17.94749832  135.96499634    0.94000000    2.78999996
   17.95083427  128.27499390    0.94000000    2.76999998
   17.95694542  128.27499390    0.95999998    2.76999998
   17.96111107  117.38899994    0.95999998    2.78999996
   17.96416664  124.34899902    0.95999998    2.78999996
   17.96638870  137.39999390    0.95999998    2.76999998
   17.96805573  126.03399658    0.95999998    2.76999998
   17.97111130  123.54499817    0.95999998    2.78999996
   17.97444534  137.70799255    0.94000000    2.76999998
   17.97777748  131.22500610    0.95999998    2.76999998
   17.98083305  129.17500305    0.95999998    2.76999998
   17.98416710  125.02600098    0.94000000    2.76999998
   17.98750114  124.04499817    0.94000000    2.76999998
   17.99055672  124.77500153    0.94000000    2.76999998
   17.99388885  126.36199951    0.94000000    2.78999996
   17.99972153  126.36199951    0.95999998    2.78999996
   18.00388908  129.29800415    0.95999998    2.78999996
   18.00722313  131.82200623    0.95999998    2.78999996
   18.01027870  129.93099976    0.95999998    2.78999996
   18.01361084  125.63300323    0.95999998    2.78999996
   18.01694489  131.43600464    0.95999998    2.78999996
   18.02000046  138.11000061    0.95999998    2.78999996
   18.02333260  134.27000427    0.95999998    2.78999996
   18.02638817  122.48400116    0.95999998    2.76999998
   18.02972221  126.20400238    0.98000002    2.76999998
   18.03305435  134.93699646    0.95999998    2.78999996
   18.03472137  126.68099976    0.95999998    2.78999996
   18.03666687  123.84100342    0.95999998    2.78999996
   18.04249954  123.84100342    0.95999998    2.78999996
   18.04666710  127.86599731    0.95999998    2.76999998
   18.04999924  129.74299622    0.95999998    2.78999996
   18.05333328  123.59899902    0.95999998    2.78999996
   18.05638885  139.69099426    0.95999998    2.78999996
   18.05972099  138.49400330    0.95999998    2.78999996
   18.06277657  128.64700317    0.95999998    2.76999998
   18.06611061  144.22799683    0.98000002    2.78999996
   18.06805611  131.17300415    0.95999998    2.76999998
   18.06972313  134.77699280    0.95999998    2.76999998
   18.07305717  130.39500427    0.95999998    2.78999996
   18.07611275  131.58000183    0.98000002    2.76999998
   18.07944489  123.04799652    0.98000002    2.76999998
   18.08555603  123.04799652    0.98000002    2.76999998
   18.08972359  120.47100067    0.98000002    2.76999998
   18.09277916  121.34300232    0.98000002    2.76999998
   18.09611130  131.23599243    0.98000002    2.76999998
   18.09916687  134.14700317    0.98000002    2.76999998
   18.10166740  129.68200684    0.98000002    2.76999998
   18.10305595  134.65499878    0.98000002    2.76999998
   18.10611153  135.97200012    0.98000002    2.76999998
   18.10944557  126.49900055    0.98000002    2.76999998
   18.11277771  130.09399414    0.95999998    2.76999998
   18.11583328  130.05200195    0.95999998    2.78999996
   18.11916733  129.44999695    0.95999998    2.76999998
   18.12249947  123.57599640    0.94000000    2.76999998
   18.12833405  123.57599640    0.94000000    2.76999998
   18.13249969  126.20999908    0.94000000    2.76999998
   18.13500023  127.05599976    0.94000000    2.76999998
   18.13611031  120.75599670    0.94000000    2.76999998
   18.13944435  124.77799988    0.94000000    2.78999996
   18.14249992  117.01100159    0.94000000    2.78999996
   18.14583397  125.14499664    0.98000002    2.76999998
   18.14888954  120.30100250    0.98000002    2.78999996
   18.15222168  121.61900330    1.07000005    2.76999998
   18.15555573  116.64299774    1.05999994    2.76999998
   18.15861130  128.63099670    1.03999996    2.76999998
   18.16194344  125.94999695    1.00000000    2.76999998
   18.16527748  119.87999725    0.98000002    2.76999998
   18.17111015  119.87999725    0.98000002    2.76999998
   18.17527771  121.48300171    0.98000002    2.78999996
   18.17860985  116.61599731    0.98000002    2.76999998
   18.18166542  115.26200104    0.98000002    2.76999998
   18.18499947  126.75700378    0.98000002    2.76999998
   18.18833160  120.31800079    0.98000002    2.75000000
   18.19138718  116.99700165    0.98000002    2.76999998
   18.19472122  117.91999817    0.98000002    2.76999998
   18.19777679  115.48500061    0.98000002    2.76999998
   18.20111275  121.62799835    0.98000002    2.76999998
   18.20194435  119.99299622    0.95999998    2.76999998
   18.20472336  124.81700134    0.95999998    2.76999998
   18.20805550  123.83300018    0.95999998    2.76999998
   18.21389008  123.83300018    0.95999998    2.76999998
   18.21805573  128.69099426    0.98000002    2.76999998
   18.22138977  124.46700287    0.98000002    2.75000000
   18.22472191  132.76300049    0.98000002    2.76999998
   18.22777748  129.91799927    0.98000002    2.75000000
   18.23111153  117.35800171    0.98000002    2.76999998
   18.23444557  121.71800232    0.98000002    2.76999998
   18.23527718  122.35800171    0.98000002    2.76999998
   18.23805618  130.44999695    0.98000002    2.76999998
   18.24138832  123.21900177    0.98000002    2.76999998
   18.24444389  123.75399780    1.00000000    2.76999998
   18.24777794  120.33799744    0.98000002    2.76999998
   18.25111198  115.36799622    0.98000002    2.76999998
   18.25694466  115.36799622    0.98000002    2.75000000
   18.26111031  123.04299927    0.98000002    2.76999998
   18.26416588  127.09899902    1.00000000    2.76999998
   18.26749992  116.82199860    1.00000000    2.76999998
   18.26888847  124.51599884    1.00000000    2.76999998
   18.27111053  127.40200043    1.00000000    2.76999998
   18.27416611  117.36100006    1.00000000    2.76999998
   18.27750015  127.65499878    1.00000000    2.75000000
   18.28083229  125.12799835    1.00000000    2.76999998
   18.28388786  124.91899872    1.00000000    2.76999998
   18.28722191  127.47000122    1.00000000    2.76999998
   18.29055595  128.38000488    1.00000000    2.76999998
   18.29361153  123.09400177    1.00000000    2.76999998
   18.29972076  123.09400177    0.98000002    2.76999998
   18.31805611  136.89599609    0.98000002    2.76999998
   18.32139015  129.20399475    0.95999998    2.76999998
   18.32444572  142.89799500    0.98000002    2.76999998
   18.32777786  140.54299927    0.98000002    2.76999998
   18.33111191  132.63200378    0.98000002    2.75000000
   18.33416748  123.22200012    1.00000000    2.75000000
   18.33750153  131.11700439    1.00000000    2.75000000
   18.34277916  131.11700439    1.01999998    2.75000000
   18.34694481  115.80799866    1.01999998    2.76999998
   18.35027885  120.44200134    1.03999996    2.76999998
   18.35111237  128.66900635    1.03999996    2.75000000
   18.35388947  132.91999817    1.03999996    2.76999998
   18.35694504  130.87300110    1.05999994    2.75000000
   18.36027908  124.59500122    1.03999996    2.75000000
   18.36361122  114.49199677    1.03999996    2.76999998
   18.36666679  122.18699646    1.00000000    2.76999998
   18.37000084  122.12999725    1.00000000    2.75000000
   18.37333298  130.13499451    1.00000000    2.75000000
   18.37638855  114.85700226    1.00000000    2.75000000
   18.37972260  123.76399994    0.98000002    2.76999998
   18.38555527  123.76399994    0.98000002    2.76999998
   18.38972282  134.72200012    0.98000002    2.75000000
   18.39305496  126.15200043    1.00000000    2.76999998
   18.39611053  128.45100403    1.00000000    2.76999998
   18.39944458  124.42800140    1.00000000    2.75000000
   18.40277672  129.47300720    1.00000000    2.75000000
   18.40583229  126.91699982    1.00000000    2.75000000
   18.40916634  124.16200256    1.01999998    2.75000000
   18.41250038  133.21000671    1.01999998    2.75000000
   18.41555595  124.90299988    1.01999998    2.75000000
   18.41777802  131.72200012    1.03999996    2.75000000
   18.41944313  124.29599762    1.03999996    2.75000000
   18.42277718  122.98899841    1.11000001    2.75000000
   18.42860985  122.98899841    1.09000003    2.75000000
   18.43249893  125.42099762    1.09000003    2.75000000
   18.43583298  116.29299927    1.07000005    2.75000000
   18.43916512  122.40699768    1.07000005    2.75000000
   18.44222069  130.09800720    1.05999994    2.75000000
   18.44555473  129.66700745    1.05999994    2.73000002
   18.44888878  129.12199402    1.05999994    2.73000002
   18.45111275  127.00399780    1.05999994    2.73000002
   18.45250130  122.83999634    1.05999994    2.75000000
   18.45555687  136.34599304    1.09000003    2.75000000
   18.45888901  129.46800232    1.09000003    2.75000000
   18.46222305  129.61300659    1.07000005    2.75000000
   18.46527863  116.67600250    1.07000005    2.76999998
   18.47138977  116.67600250    1.01999998    2.75000000
   18.47555542  122.87799835    1.01999998    2.75000000
   18.47861099  126.35600281    1.00000000    2.75000000
   18.48194504  124.01599884    1.01999998    2.75000000
   18.48444557  126.66699982    1.01999998    2.75000000
   18.48555565  124.65899658    1.01999998    2.75000000
   18.48888969  126.61599731    1.01999998    2.75000000
   18.49194527  126.03099823    1.01999998    2.75000000
   18.49527740  124.66000366    1.03999996    2.75000000
   18.49833298  123.58899689    1.01999998    2.75000000
   18.50166702  126.74900055    1.01999998    2.75000000
   18.50499916  126.20200348    1.01999998    2.75000000
   18.50805473  124.52100372    1.01999998    2.75000000
   18.51416588  124.52100372    1.01999998    2.75000000
   18.51833344  121.23400116    1.01999998    2.75000000
   18.52166557  128.04600525    1.01999998    2.75000000
   18.52472115  128.77900696    1.00000000    2.75000000
   18.52805519  119.54399872    1.00000000    2.75000000
   18.53111076  127.27200317    1.00000000    2.75000000
   18.53444481  132.38600159    1.00000000    2.75000000
   18.53777695  121.64499664    0.98000002    2.75000000
   18.54083252  125.02400208    1.00000000    2.75000000
   18.54416656  125.30400085    1.00000000    2.76999998
   18.54749870  116.50599670    0.98000002    2.75000000
   18.55055428  127.08699799    0.98000002    2.75000000
   18.55111122  124.74299622    0.98000002    2.76999998
   18.55694389  124.74299622    1.00000000    2.75000000
   18.56110954  124.83699799    1.00000000    2.75000000
   18.56444359  118.95400238    1.00000000    2.75000000
   18.56750107  125.40200043    1.01999998    2.75000000
   18.57083511  122.84899902    1.01999998    2.75000000
   18.57416725  130.45500183    1.00000000    2.75000000
   18.57722282  122.33499908    1.01999998    2.75000000
   18.58055687  115.06999969    1.00000000    2.75000000
   18.58388901  118.08799744    1.00000000    2.75000000
   18.58444595  120.84999847    1.01999998    2.75000000
   18.58750153  135.56100464    1.00000000    2.75000000
   18.59083366  136.74699402    1.00000000    2.75000000
   18.59388924  120.90499878    1.01999998    2.73000002
   18.59972191  120.90499878    1.01999998    2.75000000
   18.60388947  135.69000244    1.03999996    2.75000000
   18.60722351  123.27500153    1.03999996    2.75000000
   18.61055565  122.20600128    1.03999996    2.75000000
   18.61361122  132.92500305    1.03999996    2.75000000
   18.61694527  125.29100037    1.03999996    2.73000002
   18.61777878  130.63000488    1.03999996    2.73000002
   18.62055588  115.42199707    1.03999996    2.75000000
   18.62388992  124.56999969    1.03999996    2.75000000
   18.62694550  118.87400055    1.05999994    2.75000000
   18.63027763  125.32599640    1.03999996    2.75000000
   18.63333321  134.44999695    1.03999996    2.75000000
   18.63666725  129.36999512    1.03999996    2.75000000
   18.64277840  129.36999512    1.03999996    2.75000000
   18.64694405  127.06900024    1.01999998    2.75000000
   18.64999962  127.18800354    1.01999998    2.75000000
   18.65111160  132.52200317    1.01999998    2.75000000
   18.65361023  125.58999634    1.01999998    2.75000000
   18.65694427  125.60700226    1.01999998    2.75000000
   18.65999985  123.88899994    1.00000000    2.75000000
   18.66333389  126.72299957    1.00000000    2.75000000
   18.66638756  134.49299622    1.00000000    2.75000000
   18.66972160  120.20099640    1.00000000    2.75000000
   18.67305565  133.84500122    1.00000000    2.75000000
   18.67611122  133.19599915    0.98000002    2.75000000
   18.67944336  131.25199890    0.98000002    2.75000000
   18.68555450  131.25199890    0.98000002    2.75000000
   18.68972206  130.61300659    0.98000002    2.75000000
   18.69305420  120.70400238    0.98000002    2.75000000
   18.69610977  122.67099762    0.98000002    2.75000000
   18.69944382  123.71600342    0.98000002    2.75000000
   18.70250130  122.77300262    0.95999998    2.75000000
   18.70583344  127.19699860    0.98000002    2.75000000
   18.70916748  123.49099731    0.95999998    2.75000000
   18.71222305  119.77500153    0.98000002    2.75000000
   18.71555710  132.03999329    0.95999998    2.75000000
   18.71777916  133.28399658    0.98000002    2.73000002
   18.71916771  125.86100006    0.98000002    2.75000000
   18.72249985  121.97299957    0.95999998    2.75000000
   18.72833443  121.97299957    0.95999998    2.75000000
   18.73250008  122.76200104    0.98000002    2.75000000
   18.73583412  129.66099548    0.95999998    2.75000000
   18.73888969  124.40799713    0.95999998    2.75000000
   18.74222183  130.00700378    0.95999998    2.75000000
   18.74555588  127.63099670    1.00000000    2.73000002
   18.74861145  120.59200287    0.98000002    2.75000000
   18.75111198  124.99299622    0.98000002    2.75000000
   18.75222206  127.85600281    0.98000002    2.75000000
   18.75555611  118.87699890    0.98000002    2.75000000
   18.75861168  117.20800018    0.98000002    2.75000000
   18.76194382  118.18900299    0.98000002    2.75000000
   18.76527786  123.87000275    0.98000002    2.75000000
   18.77138901  123.87000275    0.98000002    2.75000000
   18.77527809  128.15600586    0.98000002    2.73000002
   18.77861023  127.15499878    0.98000002    2.73000002
   18.78194427  129.62300110    1.00000000    2.75000000
   18.78444481  123.35500336    1.00000000    2.73000002
   18.78555489  120.02700043    1.00000000    2.75000000
   18.78888893  119.61199951    1.00000000    2.75000000
   18.79194450  127.03900146    1.01999998    2.73000002
   18.79527664  121.12300110    1.01999998    2.73000002
   18.79833221  123.92600250    1.01999998    2.73000002
   18.80166626  124.11799622    1.01999998    2.73000002
   18.80499840  123.58200073    1.03999996    2.73000002
   18.80805397  122.34100342    1.01999998    2.73000002
   18.81416512  122.34100342    1.01999998    2.73000002
   18.81833458  126.23799896    1.03999996    2.73000002
   18.82139015  134.24499512    1.01999998    2.73000002
   18.82472229  117.51000214    1.01999998    2.73000002
   18.82805634  127.58000183    1.01999998    2.75000000
   18.83111191  125.20899963    1.01999998    2.73000002
   18.83444595  129.05499268    1.01999998    2.73000002
   18.83777809  134.02699280    1.01999998    2.73000002
   18.84083366  125.35500336    1.01999998    2.75000000
   18.84416771  124.79000092    1.01999998    2.75000000
   18.84722328  126.52100372    1.01999998    2.75000000
   18.85055542  129.66799927    1.01999998    2.73000002
   18.85111237  120.25800323    1.01999998    2.73000002
   18.85694504  120.25800323    1.01999998    2.73000002
   18.86111069  131.70899963    1.01999998    2.75000000
   18.86416626  119.53500366    1.01999998    2.75000000
   18.86750031  134.22900391    1.01999998    2.73000002
   18.87083435  122.60500336    1.01999998    2.73000002
   18.87388992  138.80700684    1.01999998    2.73000002
   18.87722206  137.36199951    1.01999998    2.73000002
   18.88055611  130.27900696    1.01999998    2.73000002
   18.88361168  128.35699463    1.01999998    2.73000002
   18.88472176  124.04299927    1.01999998    2.73000002
   18.88750076  141.91600037    1.01999998    2.73000002
   18.89055634  136.10600281    1.01999998    2.73000002
   18.89388847  125.95400238    1.01999998    2.73000002
   18.89972115  125.95400238    1.00000000    2.75000000
   18.90388870  136.87199402    0.98000002    2.73000002
   18.90722275  136.90600586    1.00000000    2.73000002
   18.91027832  138.35099792    1.00000000    2.73000002
   18.91361046  139.32200623    0.98000002    2.73000002
   18.91694450  140.99699402    1.00000000    2.75000000
   18.91777802  140.33599854    0.98000002    2.73000002
   18.92055511  136.93400574    0.98000002    2.73000002
   18.92388916  129.97999573    0.98000002    2.73000002
   18.92694473  132.91099548    1.00000000    2.75000000
   18.93027687  142.74400330    1.00000000    2.75000000
   18.93361092  127.98699951    0.98000002    2.75000000
   18.93666649  131.46200562    0.98000002    2.73000002
   18.94277763  131.46200562    0.98000002    2.73000002
   18.94666672  132.68600464    1.00000000    2.73000002
   18.95000076  130.37699890    1.00000000    2.73000002
   18.95111275  124.59200287    1.00000000    2.73000002
   18.95361137  128.12199402    1.00000000    2.73000002
   18.95694542  133.76699829    1.00000000    2.73000002
   18.96000099  126.19999695    1.00000000    2.73000002
   18.96333504  140.07899475    1.00000000    2.73000002
   18.96666718  133.57600403    1.00000000    2.73000002
   18.96972275  131.71699524    1.01999998    2.73000002
   18.97305679  126.26499939    1.01999998    2.73000002
   18.97611237  138.52499390    1.00000000    2.73000002
   18.97944450  131.11999512    1.00000000    2.73000002
   18.98555565  131.11999512    0.98000002    2.73000002
   18.98972321  135.67799377    1.00000000    2.73000002
   18.99277878  121.68299866    1.01999998    2.73000002
   18.99611092  118.40100098    1.03999996    2.73000002
   18.99944496  131.86999512    1.03999996    2.71000004
   19.00250053  140.96099854    1.03999996    2.73000002
   19.00583267  113.91600037    1.03999996    2.71000004
   19.00888824  133.77799988    1.03999996    2.71000004
   19.01222229  136.31799316    1.03999996    2.71000004
   19.01555634  137.76899719    1.05999994    2.71000004
   19.01777840  131.35499573    1.05999994    2.71000004
   19.01916695  132.46800232    1.05999994    2.71000004
   19.02249908  131.36500549    1.05999994    2.71000004
   19.02833366  131.36500549    1.05999994    2.71000004
   19.03249931  135.68600464    1.05999994    2.71000004
   19.03583336  129.07800293    1.05999994    2.71000004
   19.03888893  130.46800232    1.07000005    2.71000004
   19.04222107  129.51499939    1.05999994    2.71000004
   19.04527664  140.77999878    1.05999994    2.71000004
   19.04861069  138.18899536    1.07000005    2.71000004
   19.05111122  136.74400330    1.07000005    2.71000004
   19.05222130  124.24400330    1.07000005    2.71000004
   19.05555534  122.83000183    1.07000005    2.71000004
   19.05861092  131.35099792    1.07000005    2.71000004
   19.06194305  134.89300537    1.07000005    2.71000004
   19.06527710  138.54100037    1.09000003    2.71000004
   19.07111168  138.54100037    1.07000005    2.71000004
   19.07527924  129.75999451    1.09000003    2.71000004
   19.07861137  134.23599243    1.09000003    2.71000004
   19.08166695  131.96099854    1.09000003    2.71000004
   19.08444595  119.72200012    1.09000003    2.71000004
   19.08527756  129.71600342    1.09000003    2.71000004
   19.08861160  131.23399353    1.09000003    2.71000004
   19.09166718  142.81799316    1.16999996    2.69000006
   19.09500122  129.52299500    1.25000000    2.71000004
   19.09805679  136.33900452    1.21000004    2.69000006
   19.10138893  150.60200500    1.21000004    2.71000004
   19.10472298  124.16999817    1.19000006    2.71000004
   19.10777855  153.55499268    1.16999996    2.71000004
   19.11416626  153.55499268    1.16999996    2.71000004
   19.11833382  170.01699829    1.13000000    2.69000006
   19.12166595  144.93400574    1.09000003    2.69000006
   19.12472153  109.48999786    1.09000003    2.69000006
   19.12805557  156.33000183    1.09000003    2.71000004
   19.13138962  159.52099609    1.09000003    2.71000004
   19.13444519  163.09100342    1.05999994    2.71000004
   19.13777733  180.10899353    1.05999994    2.71000004
   19.14083290  229.69999695    1.03999996    2.71000004
   19.14416695  196.61099243    1.09000003    2.71000004
   19.14749908  234.25900269    1.09000003    2.71000004
   19.15055466  245.01499939    1.05999994    2.71000004
   19.15111160  241.66900635    1.03999996    2.71000004
   19.15694427  241.66900635    1.05999994    2.71000004
   19.16110992  245.90400696    1.05999994    2.71000004
   19.16416550  241.87600708    1.05999994    2.71000004
   19.16749954  244.61099243    1.05999994    2.71000004
   19.17083359  247.19700623    1.05999994    2.71000004
   19.17388916  250.03199768    1.07000005    2.71000004
   19.17722130  249.02600098    1.07000005    2.71000004
   19.18055534  210.64599609    1.07000005    2.71000004
   19.18361092  253.91799927    1.09000003    2.69000006
   19.18472099  229.36700439    1.09000003    2.69000006
   19.18722153  231.82600403    1.09000003    2.69000006
   19.19055557  243.82600403    1.09000003    2.69000006
   19.19361115  229.21499634    1.09000003    2.69000006
   19.19972038  229.21499634    1.11000001    2.69000006
   19.20388985  230.31199646    1.11000001    2.69000006
   19.20722389  214.82200623    1.11000001    2.69000006
   19.21027946  203.13600159    1.13000000    2.71000004
   19.21361160  215.01600647    1.13000000    2.71000004
   19.21666718  180.10299683    1.13000000    2.69000006
   19.21805573  194.92500305    1.13000000    2.69000006
   19.22027779  203.61700439    1.13000000    2.69000006
   19.22361183  195.28700256    1.14999998    2.69000006
   19.22666740  205.26800537    1.14999998    2.71000004
   19.23000145  199.20199585    1.14999998    2.69000006
   19.23333359  173.29800415    1.14999998    2.69000006
   19.23638916  193.72900391    1.14999998    2.69000006
   19.24250031  193.72900391    1.19000006    2.69000006
   19.24666786  175.70599365    1.19000006    2.69000006
   19.25000000  143.22799683    1.21000004    2.69000006
   19.25138855  162.33099365    1.19000006    2.69000006
   19.25361061  179.36099243    1.19000006    2.69000006
   19.25694466  167.98699951    1.19000006    2.69000006
   19.26000023  151.42199707    1.21000004    2.69000006
   19.26333427  165.88900757    1.21000004    2.67000008
   19.26666641  168.85400391    1.21000004    2.69000006
   19.26972198  159.44599915    1.16999996    2.69000006
   19.27305603  162.28199768    1.16999996    2.69000006
   19.27611160  155.83500671    1.16999996    2.69000006
   19.27944374  165.54400635    1.16999996    2.69000006
   19.28555489  165.54400635    1.16999996    2.69000006
   19.28944397  153.18600464    1.16999996    2.69000006
   19.29277802  151.81900024    1.16999996    2.69000006
   19.29611015  134.91900635    1.16999996    2.69000006
   19.29916573  144.55099487    1.16999996    2.67000008
   19.30249977  148.11099243    1.19000006    2.69000006
   19.30583191  147.34700012    1.21000004    2.67000008
   19.30888748  167.63499451    1.21000004    2.69000006
   19.31222153  156.15699768    1.19000006    2.67000008
   19.31555557  153.19400024    1.19000006    2.67000008
   19.31805611  143.02000427    1.16999996    2.69000006
   19.33861160  143.02000427    1.19000006    2.69000006
   19.34277916  146.74699402    1.16999996    2.69000006
   19.34583473  126.28099823    1.16999996    2.69000006
   19.34916687  148.51199341    1.19000006    2.69000006
   19.35138893  125.16000366    1.16999996    2.69000006
   19.35277748  135.21099854    1.19000006    2.69000006
   19.35611153  131.84300232    1.19000006    2.69000006
   19.35944557  124.41100311    1.16999996    2.69000006
   19.36250114  120.06600189    1.19000006    2.69000006
   19.36583328  128.65299988    1.16999996    2.67000008
   19.36916733  125.30500031    1.16999996    2.69000006
   19.37222290  129.96299744    1.16999996    2.69000006
   19.37555504  130.64599609    1.16999996    2.69000006
   19.38138962  130.64599609    1.16999996    2.69000006
   19.38555527  143.97599792    1.14999998    2.67000008
   19.38861084  146.92999268    1.16999996    2.69000006
   19.39194489  145.15800476    1.16999996    2.69000006
   19.39527702  139.44900513    1.14999998    2.67000008
   19.39833260  130.81799316    1.14999998    2.67000008
   19.40166664  138.54200745    1.14999998    2.67000008
   19.40499878  120.30400085    1.14999998    2.69000006
   19.40833282  144.30400085    1.16999996    2.67000008
   19.41166687  141.08599854    1.16999996    2.67000008
   19.41472244  127.92400360    1.14999998    2.67000008
   19.41805458  139.12699890    1.16999996    2.67000008
   19.41833305  136.61999512    1.16999996    2.67000008
   19.42416573  136.61999512    1.19000006    2.69000006
   19.42833328  148.06799316    1.19000006    2.67000008
   19.43138885  136.46699524    1.19000006    2.67000008
   19.43472099  140.11300659    1.21000004    2.67000008
   19.43805504  144.11799622    1.19000006    2.67000008
   19.44111061  146.67900085    1.19000006    2.67000008
   19.44444275  133.14100647    1.19000006    2.67000008
   19.44777679  128.36999512    1.16999996    2.67000008
   19.45083427  133.42799377    1.19000006    2.67000008
   19.45138931  141.71800232    1.19000006    2.67000008
   19.45444489  157.37399292    1.19000006    2.67000008
   19.45777893  138.97000122    1.19000006    2.67000008
   19.46083450  128.30299377    1.19000006    2.67000008
   19.46694565  128.30299377    1.19000006    2.67000008
   19.47111130  146.05900574    1.19000006    2.67000008
   19.47444534  121.19400024    1.19000006    2.67000008
   19.47750092  152.92300415    1.21000004    2.67000008
   19.48083305  134.80200195    1.21000004    2.67000008
   19.48416710  131.51899719    1.23000002    2.67000008
   19.48472214  156.54600525    1.21000004    2.67000008
   19.48777771  133.59199524    1.23000002    2.67000008
   19.49083328  130.54899597    1.23000002    2.67000008
   19.49416733  140.90699768    1.21000004    2.67000008
   19.49749947  137.97999573    1.21000004    2.66000009
   19.50055504  142.12899780    1.21000004    2.67000008
   19.50388908  131.95399475    1.21000004    2.66000009
   19.50972176  131.95399475    1.23000002    2.67000008
   19.51388931  152.33299255    1.23000002    2.66000009
   19.51722145  146.44500732    1.21000004    2.66000009
   19.51805496  142.10099792    1.23000002    2.67000008
   19.52083397  135.38600159    1.23000002    2.67000008
   19.52388954  141.92199707    1.23000002    2.67000008
   19.52722168  134.79899597    1.23000002    2.66000009
   19.53055573  136.56100464    1.23000002    2.67000008
   19.53361130  133.78100586    1.25000000    2.67000008
   19.53694344  137.98599243    1.23000002    2.67000008
   19.54027748  123.90200043    1.23000002    2.67000008
   19.54333305  138.71800232    1.25000000    2.67000008
   19.54666710  141.58700562    1.25000000    2.67000008
   19.55277634  141.58700562    1.25000000    2.66000009
   19.55694389  143.95599365    1.26999998    2.66000009
   19.55999947  131.57600403    1.26999998    2.66000009
   19.56333351  131.47599792    1.26999998    2.66000009
   19.56638718  133.98300171    1.26999998    2.66000009
   19.56972313  150.26100159    1.28999996    2.66000009
   19.57305717  140.44799805    1.28999996    2.66000009
   19.57611275  142.08399963    1.30999994    2.66000009
   19.57944489  139.58700562    1.30999994    2.66000009
   19.58277893  143.42500305    1.30999994    2.66000009
   19.58472252  145.31700134    1.33000004    2.66000009
   19.58638954  145.52400208    1.33000004    2.64000010
   19.58944511  141.33599854    1.33000004    2.66000009
   19.59555626  141.33599854    1.33000004    2.66000009
   19.59972191  139.60400391    1.33000004    2.66000009
   19.60305595  132.58200073    1.33000004    2.66000009
   19.60611153  135.18299866    1.33000004    2.66000009
   19.60944557  144.03199768    1.33000004    2.64000010
   19.61250114  131.30299377    1.30999994    2.66000009
   19.61583328  137.84500122    1.30999994    2.66000009
   19.61805534  131.37399292    1.30999994    2.66000009
   19.61944389  143.78399658    1.30999994    2.64000010
   19.62249947  136.75900269    1.30999994    2.66000009
   19.62583351  137.41099548    1.28999996    2.66000009
   19.62916756  133.12100220    1.28999996    2.66000009
   19.63222313  131.41000366    1.30999994    2.64000010
   19.63833237  131.41000366    1.30999994    2.66000009
   19.64249992  126.19200134    1.30999994    2.64000010
   19.64583397  134.57200623    1.28999996    2.66000009
   19.64888954  130.30700684    1.28999996    2.64000010
   19.65138817  129.92999268    1.28999996    2.66000009
   19.65277672  132.95799255    1.28999996    2.66000009
   19.65583229  127.44400024    1.28999996    2.66000009
   19.65916634  131.37399292    1.28999996    2.66000009
   19.66250038  147.13900757    1.28999996    2.64000010
   19.66555595  137.12699890    1.28999996    2.64000010
   19.66888809  135.38299561    1.28999996    2.66000009
   19.67222214  134.40600586    1.28999996    2.66000009
   19.67527771  136.39700317    1.28999996    2.66000009
   19.68111038  136.39700317    1.28999996    2.66000009
   19.68527603  145.20899963    1.28999996    2.66000009
   19.68861008  136.83099365    1.28999996    2.66000009
   19.69194412  121.91999817    1.28999996    2.66000009
   19.69499969  135.21899414    1.28999996    2.64000010
   19.69833183  137.06599426    1.28999996    2.64000010
   19.70138931  141.00199890    1.28999996    2.66000009
   19.70472336  128.86900330    1.28999996    2.64000010
   19.70805550  144.35000610    1.28999996    2.66000009
   19.71111107  134.79299927    1.28999996    2.64000010
   19.71444511  120.69100189    1.28999996    2.64000010
   19.71777916  132.82299805    1.30999994    2.64000010
   19.71833420  136.54499817    1.30999994    2.64000010
   19.72416687  136.54499817    1.33000004    2.64000010
   19.72805595  124.16000366    1.34000003    2.64000010
   19.73139000  127.26699829    1.34000003    2.64000010
   19.73472214  123.14900208    1.34000003    2.64000010
   19.73777771  127.78700256    1.34000003    2.64000010
   19.74111176  124.35099792    1.36000001    2.64000010
   19.74444389  133.31900024    1.36000001    2.64000010
   19.74749947  130.91799927    1.36000001    2.64000010
   19.75083351  131.63600159    1.36000001    2.64000010
   19.75166702  135.28900146    1.36000001    2.64000010
   19.75444412  142.63299561    1.38000000    2.64000010
   19.75777817  137.37100220    1.38000000    2.64000010
   19.76083374  127.59700012    1.39999998    2.64000010
   19.76694489  127.59700012    1.39999998    2.61999989
   19.77111053  125.86000061    1.39999998    2.61999989
   19.77416611  128.64500427    1.39999998    2.64000010
   19.77750015  129.73800659    1.41999996    2.61999989
   19.78083229  121.95500183    1.44000006    2.64000010
   19.78388786  131.35099792    1.46000004    2.64000010
   19.78499985  134.33700562    1.44000006    2.64000010
   19.78750038  128.23500061    1.44000006    2.61999989
   19.79083252  118.52999878    1.41999996    2.61999989
   19.79388809  131.59599304    1.41999996    2.61999989
   19.79722214  121.78199768    1.44000006    2.61999989
   19.80055428  129.44000244    1.44000006    2.61999989
   19.80360985  135.78500366    1.44000006    2.61999989
   19.80972099  135.78500366    1.44000006    2.61999989
   19.81388855  143.06700134    1.44000006    2.61999989
   19.81722260  127.29100037    1.44000006    2.61999989
   19.81833458  123.08999634    1.44000006    2.61999989
   19.82055664  119.86599731    1.41999996    2.61999989
   19.82389069  130.21499634    1.41999996    2.64000010
   19.82722282  125.26399994    1.41999996    2.61999989
   19.83027840  126.32099915    1.41999996    2.61999989
   19.83361244  131.92700195    1.41999996    2.61999989
   19.83666801  130.81399536    1.39999998    2.61999989
   19.84000015  130.86300659    1.39999998    2.64000010
   19.84333420  131.45899963    1.38000000    2.61999989
   19.84638977  126.14700317    1.38000000    2.59999990
   19.85250092  126.14700317    1.38000000    2.61999989
   19.85666656  156.75500488    1.38000000    2.61999989
   19.86000061  126.18900299    1.38000000    2.61999989
   19.86305618  135.24600220    1.38000000    2.61999989
   19.86638832  140.21800232    1.38000000    2.61999989
   19.86972237  124.94499969    1.39999998    2.61999989
   19.87277794  130.60499573    1.39999998    2.61999989
   19.87611198  132.73599243    1.38000000    2.61999989
   19.87944412  148.80400085    1.38000000    2.61999989
   19.88249969  126.82599640    1.38000000    2.61999989
   19.88500023  139.74400330    1.39999998    2.61999989
   19.88611031  152.35800171    1.39999998    2.61999989
   19.88944435  143.07000732    1.39999998    2.61999989
   19.89555550  143.07000732    1.39999998    2.59999990
   19.89972115  136.25599670    1.41999996    2.61999989
   19.90277672  147.41299438    1.41999996    2.61999989
   19.90611076  130.33000183    1.44000006    2.59999990
   19.90916634  125.87699890    1.44000006    2.61999989
   19.91250038  130.93099976    1.44000006    2.61999989
   19.91583252  127.67500305    1.41999996    2.59999990
   19.91833305  133.65100098    1.46000004    2.61999989
   19.91944313  130.72099304    1.46000004    2.61999989
   19.92277718  123.83200073    1.46000004    2.61999989
   19.92583275  121.89199829    1.44000006    2.59999990
   19.92916679  120.57499695    1.44000006    2.61999989
   19.93249893  144.33399963    1.44000006    2.61999989
   19.93833160  144.33399963    1.44000006    2.59999990
   19.94249916  132.31799316    1.44000006    2.61999989
   19.94555473  131.97399902    1.44000006    2.59999990
   19.94888878  138.68899536    1.46000004    2.59999990
   19.95166779  136.36000061    1.46000004    2.59999990
   19.95250130  139.02200317    1.46000004    2.59999990
   19.95583344  144.51800537    1.46000004    2.59999990
   19.95888901  139.91600037    1.46000004    2.59999990
   19.96222305  121.16100311    1.48000002    2.61999989
   19.96555710  136.40699768    1.48000002    2.57999992
   19.96861076  137.91600037    1.48000002    2.59999990
   19.97194481  135.74099731    1.50000000    2.59999990
   19.97527885  132.45700073    1.50000000    2.59999990
   19.98111153  132.45700073    1.50000000    2.57999992
   19.98527718  144.55999756    1.51999998    2.59999990
   19.98861122  139.19900513    1.53999996    2.59999990
   19.99166679  147.92900085    1.55999994    2.59999990
   19.99500084  129.67599487    1.53999996    2.57999992
   19.99805641  136.26400757    1.53999996    2.57999992
   20.00138855  138.97099304    1.53999996    2.59999990
   20.00472260  131.05799866    1.53999996    2.59999990
   20.00777817  141.58700562    1.55999994    2.59999990
   20.01111031  135.23399353    1.55999994    2.59999990
   20.01444435  134.60299683    1.55999994    2.59999990
   20.01749992  128.45100403    1.55999994    2.57999992
   20.01833344  132.13900757    1.55999994    2.57999992
   20.02388954  132.13900757    1.61000001    2.57999992
   20.02805519  129.89599609    1.61000001    2.57999992
   20.03138924  138.48899841    1.61000001    2.59999990
   20.03444481  130.33000183    1.61000001    2.57999992
   20.03777695  125.19200134    1.63000000    2.57999992
   20.04111099  126.50099945    1.61000001    2.57999992
   20.04444313  131.79499817    1.60000002    2.57999992
   20.04749870  140.52999878    1.60000002    2.57999992
   20.05083275  134.18400574    1.60000002    2.57999992
   20.05166626  127.79000092    1.60000002    2.57999992
   20.05444336  130.58700562    1.60000002    2.59999990
   20.05777740  129.12800598    1.60000002    2.57999992
   20.06110954  129.34199524    1.60000002    2.59999990
   20.06694603  129.34199524    1.63000000    2.59999990
   20.07083511  130.01499939    1.61000001    2.57999992
   20.07416725  133.77000427    1.61000001    2.57999992
   20.07750130  137.49899292    1.66999996    2.57999992
   20.08055687  125.71900177    1.69000006    2.57999992
   20.08388901  137.38200378    1.75000000    2.57999992
   20.08500099  122.58300018    1.76999998    2.57999992
   20.08750153  125.38600159    1.80999994    2.55999994
   20.09083366  137.93200684    1.80999994    2.55999994
   20.09416771  128.20899963    1.83000004    2.55999994
   20.09722328  129.94500732    1.80999994    2.55999994
   20.10055542  133.47700500    1.80999994    2.55999994
   20.10361099  135.32499695    1.76999998    2.57999992
   20.10972214  135.32499695    1.76999998    2.57999992
   20.11388969  141.64599609    1.78999996    2.57999992
   20.11694527  133.88099670    1.83000004    2.57999992
   20.11833382  138.27900696    1.83000004    2.55999994
   20.12055588  129.12699890    1.85000002    2.55999994
   20.12388992  136.24800110    1.85000002    2.55999994
   20.12722206  132.84700012    1.85000002    2.55999994
   20.13027763  133.69400024    1.85000002    2.55999994
   20.13361168  127.58699799    1.80999994    2.55999994
   20.13694382  135.76899719    1.80999994    2.55999994
   20.13999939  142.81900024    1.80999994    2.55999994
   20.14333344  129.82600403    1.76999998    2.55999994
   20.14666748  132.53100586    1.76999998    2.55999994
   20.15250015  132.53100586    1.78999996    2.55999994
   20.15666580  154.34500122    1.75000000    2.57999992
   20.15999985  172.32800293    1.73000002    2.55999994
   20.16305542  224.95599365    1.73000002    2.55999994
   20.16638756  267.27499390    1.75000000    2.55999994
   20.16944313  328.85000610    1.75000000    2.55999994
   20.17277718  370.61898804    1.75000000    2.55999994
   20.17611122  212.25300598    1.75000000    2.55999994
   20.17916679   80.48840332    1.75000000    2.55999994
   20.18249893   -1.00000000    1.73000002    2.55999994
   20.18610954   -1.00000000    1.69000006    2.55999994
   20.18944359   -1.00000000    1.71000004    2.53999996
   20.19944382   -1.00000000    1.71000004    2.55999994
   20.20250130   -1.00000000    1.69000006    2.53999996
   20.20583344   -1.00000000    1.69000006    2.55999994
   20.20916748   -1.00000000    1.69000006    2.55999994
   20.21222305   -1.00000000    1.71000004    2.55999994
   20.21555710   -1.00000000    1.69000006    2.53999996
   20.21916771   -1.00000000    1.69000006    2.53999996
   20.22249985   -1.00000000    1.69000006    2.53999996
   20.22555542   -1.00000000    1.71000004    2.53999996
   20.22888947   -1.00000000    1.71000004    2.53999996
   20.23222351   -1.00000000    1.71000004    2.51999998
   20.24222183   -1.00000000    1.73000002    2.53999996
