    HOUR (UT)   FLARE FACTOR    SKY TESTER    SUN TESTER
   11.13416672   -1.00000000   -1.00000000   -1.00000000
   11.16916656  288.14498901    4.90999985    2.11999989
   11.17361164  297.07598877    4.90999985    2.11999989
   11.17888927  303.01000977    4.90999985    2.11999989
   11.18222237  297.61099243    4.90999985    2.11999989
   11.18555546  302.91500854    4.90999985    2.11999989
   11.18861103  294.38900757    4.90999985    2.11999989
   11.19194412  298.93200684    4.90999985    2.11999989
   11.19527817  304.87298584    4.90999985    2.11999989
   11.19833374  289.97299194    4.90999985    2.11999989
   11.20166683  287.04000854    4.90999985    2.13000011
   11.20249939  297.92498779    4.90999985    2.13000011
   11.20527744  285.49798584    4.90999985    2.13000011
   11.20861053  288.04901123    4.90999985    2.13000011
   11.21166611  286.59600830    4.90999985    2.13000011
   11.21500015  278.66198730    4.90999985    2.13000011
   11.21805477  276.83801270    4.90999985    2.15000010
   11.22138882  285.10000610    4.90999985    2.13000011
   11.22472191  288.48699951    4.90999985    2.15000010
   11.22777748  289.78399658    4.90999985    2.13000011
   11.23111057  288.96499634    4.90999985    2.13000011
   11.23416710  280.89898682    4.90999985    2.15000010
   11.23583317  276.82501221    4.90999985    2.15000010
   11.23805618  286.16198730    4.90999985    2.15000010
   11.24111176  277.41198730    4.90999985    2.17000008
   11.24444485  288.72900391    4.90999985    2.15000010
   11.24777794  276.29000854    4.90999985    2.17000008
   11.25083351  276.74600220    4.90999985    2.15000010
   11.25416660  283.06698608    4.90999985    2.15000010
   11.25749969  273.54000854    4.90999985    2.15000010
   11.26055527  294.62600708    4.90999985    2.15000010
   11.26388931  286.96200562    4.90999985    2.15000010
   11.26694393  280.69900513    4.90999985    2.17000008
   11.26916599  285.80899048    4.90999985    2.15000010
   11.27083302  281.13699341    4.90999985    2.15000010
   11.27388859  270.77600098    4.90999985    2.15000010
   11.27722168  282.73901367    4.90999985    2.17000008
   11.28055573  278.35000610    4.90999985    2.17000008
   11.28361130  272.10900879    4.90999985    2.17000008
   11.28694534  277.48001099    4.90999985    2.17000008
   11.29027843  279.00601196    4.90999985    2.17000008
   11.29333401  277.10000610    4.90999985    2.15000010
   11.29666710  275.51300049    4.90999985    2.17000008
   11.29972267  295.64099121    4.90999985    2.17000008
   11.30249977  276.01599121    4.90999985    2.17000008
   11.30361176  265.92098999    4.90999985    2.15000010
   11.30694485  270.93798828    4.90999985    2.17000008
   11.31000042  264.95098877    4.90999985    2.17000008
   11.31333351  277.32400513    4.90999985    2.17000008
   11.31666660  260.60400391    4.90999985    2.17000008
   11.31972218  272.09600830    4.90999985    2.17000008
   11.32305527  275.44198608    4.90999985    2.17000008
   11.32611084  276.12200928    4.90999985    2.17000008
   11.32944393  284.43301392    4.90999985    2.19000006
   11.33277798  273.71301270    4.90999985    2.19000006
   11.33583260  285.32501221    4.90999985    2.19000006
   11.33638859  266.95700073    4.90999985    2.19000006
   11.33972168  294.32501221    4.90999985    2.19000006
   11.34277725  273.39199829    4.90999985    2.19000006
   11.34611034  280.86999512    4.90999985    2.19000006
   11.34944439  286.12701416    4.90999985    2.21000004
   11.35249996  266.08300781    4.90999985    2.21000004
   11.35583401  276.13299561    4.90999985    2.21000004
   11.35888958  265.31399536    4.90999985    2.21000004
   11.36222267  271.25601196    4.90999985    2.19000006
   11.36555576  278.73800659    4.90999985    2.21000004
   11.36861134  265.97399902    4.90999985    2.21000004
   11.36916637  273.16598511    4.90999985    2.21000004
   11.37222195  284.31698608    4.90999985    2.21000004
   11.37555599  268.96099854    4.90999985    2.21000004
   11.37861156  256.71099854    4.90999985    2.21000004
   11.38194466  266.98800659    4.90999985    2.21000004
   11.38527775  265.39999390    4.90999985    2.23000002
   11.38833332  254.73399353    4.90999985    2.23000002
   11.39166641  262.12899780    4.90999985    2.23000002
   11.39499950  261.09698486    4.90999985    2.21000004
   11.39805508  275.72399902    4.90999985    2.23000002
   11.40138817  265.83898926    4.90999985    2.23000002
   11.40249920  273.64700317    4.90999985    2.21000004
   11.40499973  268.64700317    4.90999985    2.23000002
   11.40833282  258.44100952    4.90999985    2.23000002
   11.41138840  269.36898804    4.90999985    2.23000002
   11.41472149  260.46099854    4.90999985    2.23000002
   11.41805553  267.36300659    4.90999985    2.23000002
   11.42111111  253.75599670    4.90999985    2.23000002
   11.42444515  259.17999268    4.90999985    2.23000002
   11.42777824  263.59600830    4.90999985    2.25000000
   11.43083382  260.46899414    4.90999985    2.23000002
   11.43416691  266.13699341    4.90999985    2.25000000
   11.43583298  259.75100708    4.90999985    2.23000002
   11.43777752  272.17898560    4.90999985    2.23000002
   11.44111156  257.38400269    4.90999985    2.25000000
   11.44416714  259.01098633    4.90999985    2.25000000
   11.44750023  256.80899048    4.90999985    2.25000000
   11.45083332  250.86900330    4.90999985    2.25000000
   11.45388889  249.01499939    4.90999985    2.25000000
   11.45722198  252.16499329    4.90999985    2.25000000
   11.46055508  248.26800537    4.90999985    2.26999998
   11.46361065  253.68600464    4.90999985    2.25000000
   11.46694374  251.67100525    4.90999985    2.26999998
   11.46916580  261.19799805    4.90999985    2.26999998
   11.47055531  254.38200378    4.90999985    2.26999998
   11.47388840  248.34199524    4.90999985    2.26999998
   11.47694397  255.61000061    4.90999985    2.25000000
   11.48027706  256.88699341    4.90999985    2.26999998
   11.48361111  255.19700623    4.90999985    2.26999998
   11.48666668  247.38800049    4.90999985    2.26999998
   11.49000072  263.50000000    4.90999985    2.26999998
   11.49333382  245.05400085    4.90999985    2.26999998
   11.49638939  255.81599426    4.90999985    2.26999998
   11.49972248  245.78599548    4.90999985    2.26999998
   11.50249958  260.36700439    4.90999985    2.26999998
   11.50333309  259.25000000    4.90999985    2.26999998
   11.50666714  249.16799927    4.90999985    2.26999998
   11.50972176  265.81399536    4.90999985    2.26999998
   11.51305580  252.10499573    4.90999985    2.26999998
   11.51638889  250.23500061    4.90999985    2.26999998
   11.51944447  261.28601074    4.90999985    2.26999998
   11.52277756  241.41799927    4.90999985    2.26999998
   11.52583313  250.42399597    4.90999985    2.26999998
   11.52916622  251.82400513    4.90999985    2.26999998
   11.53249931  245.91499329    4.90999985    2.26999998
   11.53555584  257.43301392    4.90999985    2.26999998
   11.53611183  247.32099915    4.90999985    2.28999996
   11.53944492  239.44999695    4.90999985    2.26999998
   11.54250050  241.35699463    4.90999985    2.28999996
   11.54583359  251.53599548    4.90999985    2.26999998
   11.54916668  251.37899780    4.90999985    2.26999998
   11.55222225  261.79098511    4.90999985    2.28999996
   11.55555534  249.86900330    4.90999985    2.28999996
   11.55861092  245.60299683    4.90999985    2.28999996
   11.56194496  249.95899963    4.90999985    2.28999996
   11.56527805  233.56300354    4.90999985    2.28999996
   11.56833363  253.13099670    4.90999985    2.28999996
   11.56944466  243.85000610    4.90999985    2.28999996
   11.57222176  241.81100464    4.90999985    2.28999996
   11.57527733  240.92700195    4.90999985    2.28999996
   11.57861137  257.41900635    4.90999985    2.28999996
   11.58194447  252.15899658    4.90999985    2.28999996
   11.58500004  243.16700745    4.90999985    2.28999996
   11.58833313  246.63499451    4.90999985    2.28999996
   11.59166622  239.68200684    4.90999985    2.26999998
   11.59472179  246.77299500    4.90999985    2.30999994
   11.59805489  255.72599792    4.90999985    2.30999994
   11.60111141  251.66400146    4.90999985    2.28999996
   11.60277843  244.43699646    4.90999985    2.28999996
   11.60500050  253.43800354    4.90999985    2.28999996
   11.60805607  244.99800110    4.90999985    2.28999996
   11.61138916  260.33499146    4.90999985    2.30999994
   11.61472225  251.93899536    4.90999985    2.30999994
   11.61777782  254.87199402    4.90999985    2.28999996
   11.62111092  252.66999817    4.90999985    2.28999996
   11.62444496  244.70899963    4.90999985    2.30999994
   11.62750053  244.11099243    4.90999985    2.30999994
   11.63083363  248.73399353    4.90999985    2.30999994
   11.63388920  251.79100037    4.90999985    2.30999994
   11.63611126  239.27900696    4.90999985    2.30999994
   11.63777733  247.75799561    4.90999985    2.30999994
   11.64138889  240.53100586    4.90999985    2.30999994
   11.64444447  232.77699280    4.90999985    2.30999994
   11.64777756  250.96800232    4.90999985    2.30999994
   11.65083313  255.71299744    4.90999985    2.30999994
   11.65416622  248.28100586    4.90999985    2.30999994
   11.65749931  241.86199951    4.90999985    2.30999994
   11.66055489  252.63900757    4.90999985    2.30999994
   11.66388893  249.51600647    4.90999985    2.30999994
   11.66722298  233.86500549    4.90999985    2.30999994
   11.66944504  242.85200500    4.90999985    2.32999992
   11.67083359  248.18299866    4.90999985    2.32999992
   11.67388916  238.20100403    4.90999985    2.32999992
   11.67722225  231.55599976    4.90999985    2.32999992
   11.68055630  256.62600708    4.90999985    2.32999992
   11.68361092  235.53399658    4.90999985    2.32999992
   11.68694496  230.21200562    4.90999985    2.32999992
   11.69027805  240.16900635    4.90999985    2.32999992
   11.69333363  239.20799255    4.90999985    2.32999992
   11.69666672  234.16499329    4.90999985    2.32999992
   11.69972229  233.60600281    4.90999985    2.34999990
   11.70277786  235.37699890    4.90999985    2.32999992
   11.70361137  232.60400391    4.90999985    2.34999990
   11.70666695  232.97999573    4.90999985    2.34999990
   11.71000004  246.31900024    4.90999985    2.32999992
   11.71333313  240.25700378    4.90999985    2.34999990
   11.71638870  240.97200012    4.90999985    2.34999990
   11.71972179  232.58999634    4.90999985    2.34999990
   11.72305489  230.26499939    4.90999985    2.34999990
   11.72611046  233.73300171    4.90999985    2.34999990
   11.72944355  230.65600586    4.90999985    2.34999990
   11.73249912  234.40199280    4.90999985    2.34999990
   11.73583317  232.31300354    4.90999985    2.34999990
   11.73638916  228.67999268    4.90999985    2.34999990
   11.73972225  235.12800598    4.90999985    2.36999989
   11.74277782  235.36599731    4.90999985    2.34999990
   11.74611092  229.95500183    4.90999985    2.34999990
   11.74916649  229.51100159    4.90999985    2.34999990
   11.75249958  233.21499634    4.90999985    2.36999989
   11.75583363  234.60899353    4.90999985    2.34999990
   11.75888920  237.91099548    4.90999985    2.36999989
   11.76222229  232.61500549    4.90999985    2.34999990
   11.76555538  223.72500610    4.90999985    2.36999989
   11.76861095  222.06900024    4.90999985    2.36999989
   11.76972198  223.43400574    4.90999985    2.34999990
   11.77250004  233.36700439    4.90999985    2.36999989
   11.77555561  225.60299683    4.90999985    2.36999989
   11.77888870  235.60000610    4.90999985    2.36999989
   11.78222179  240.47799683    4.90999985    2.36999989
   11.78527832  230.82099915    4.90999985    2.36999989
   11.78861141  228.28100586    4.90999985    2.36999989
   11.79166698  234.88400269    4.90999985    2.36999989
   11.79500008  220.19999695    4.90999985    2.39000010
   11.79833412  218.18899536    4.90999985    2.39000010
   11.80138874  230.16400146    4.90999985    2.39000010
   11.80305576  232.26899719    4.90999985    2.36999989
   11.80527782  229.97799683    4.90999985    2.39000010
   11.80833340  234.30099487    4.90999985    2.39000010
   11.81166649  218.28599548    4.90999985    2.39000010
   11.81500053  229.97399902    4.90999985    2.39000010
   11.81805515  230.34199524    4.90999985    2.39000010
   11.82138920  232.82800293    4.90999985    2.39000010
   11.82472229  227.89799500    4.90999985    2.39000010
   11.82777786  225.25599670    4.90999985    2.39000010
   11.83111095  217.85800171    4.90999985    2.39000010
   11.83444405  223.72599792    4.90999985    2.36999989
   11.83638859  237.32800293    4.90999985    2.39000010
   11.83805561  218.64500427    4.90999985    2.39000010
   11.84111118  236.79499817    4.90999985    2.39000010
   11.84444427  230.27200317    4.90999985    2.39000010
   11.84777737  240.96400452    4.90999985    2.39000010
   11.85083389  232.58299255    4.90999985    2.39000010
   11.85416698  226.38600159    4.90999985    2.39000010
   11.85750008  231.44000244    4.90999985    2.39000010
   11.86055565  233.66400146    4.90999985    2.39000010
   11.86388969  239.87199402    4.90999985    2.39000010
   11.86694431  227.96800232    4.90999985    2.39000010
   11.86972237  229.19299316    4.90999985    2.40000010
   11.87083340  233.48300171    4.90999985    2.39000010
   11.87388897  229.39700317    4.90999985    2.39000010
   11.87722206  238.38600159    4.90999985    2.39000010
   11.88055611  230.07099915    4.90999985    2.39000010
   11.88361073  227.18800354    4.90999985    2.39000010
   11.88694477  239.60299683    4.90999985    2.39000010
   11.89000034  228.83200073    4.90999985    2.39000010
   11.89333344  232.59100342    4.90999985    2.40000010
   11.89666653  241.47999573    4.90999985    2.39000010
   11.89972210  225.09599304    4.90999985    2.40000010
   11.90305519  222.08299255    4.90999985    2.39000010
   11.90361118  223.44099426    4.90999985    2.39000010
   11.90666676  231.03999329    4.90999985    2.39000010
   11.90999985  223.75900269    4.90999985    2.39000010
   11.91333294  233.35299683    4.90999985    2.39000010
   11.91638851  223.03700256    4.90999985    2.39000010
   11.91972256  224.36999512    4.90999985    2.40000010
   11.92277813  229.90100098    4.90999985    2.40000010
   11.92611122  228.19200134    4.90999985    2.40000010
   11.92944431  223.91000366    4.90999985    2.40000010
   11.93249989  210.30599976    4.90999985    2.40000010
   11.93583298  224.45500183    4.90999985    2.40000010
   11.93638897  214.95100403    4.90999985    2.40000010
   11.93944454  230.13299561    4.90999985    2.40000010
   11.94250011  221.49800110    4.90999985    2.40000010
   11.94583321  223.27400208    4.90999985    2.40000010
   11.94916630  214.50999451    4.90999985    2.40000010
   11.95222187  219.39900208    4.90999985    2.42000008
   11.95555496  231.00000000    4.90999985    2.42000008
   11.95861053  239.08000183    4.90999985    2.42000008
   11.96194458  227.71000671    4.90999985    2.42000008
   11.96527767  229.61000061    4.90999985    2.42000008
   11.96833324  218.36799622    4.90999985    2.42000008
   11.96972179  229.52799988    4.90999985    2.42000008
   11.97222137  232.54699707    4.90999985    2.42000008
   11.97527695  224.69500732    4.90999985    2.42000008
   11.97861099  228.41499329    4.90999985    2.42000008
   11.98194408  224.29400635    4.90999985    2.42000008
   11.98500061  227.02299500    4.90999985    2.42000008
   11.98833370  220.61199951    4.90999985    2.42000008
   11.99138927  225.65299988    4.90999985    2.42000008
   11.99472237  221.41600037    4.90999985    2.44000006
   11.99805546  224.81900024    4.90999985    2.42000008
   12.00111103  232.27900696    4.90999985    2.42000008
   12.00305557  220.71400452    4.90999985    2.42000008
   12.00500011  214.87199402    4.90999985    2.42000008
   12.00805569  220.43499756    4.90999985    2.42000008
   12.01138878  221.12199402    4.90999985    2.42000008
   12.01472187  220.28900146    4.90999985    2.44000006
   12.01777744  238.22999573    4.90999985    2.42000008
   12.02111053  217.02499390    4.90999985    2.42000008
   12.02416611  217.91799927    4.90999985    2.44000006
   12.02750015  224.97500610    4.90999985    2.42000008
   12.03083324  222.43800354    4.90999985    2.42000008
   12.03388977  223.58099365    4.90999985    2.42000008
   12.03638935  219.38999939    4.90999985    2.42000008
   12.03777790  215.03399658    4.90999985    2.42000008
   12.04166698  216.69299316    4.90999985    2.42000008
   12.04472256  219.73399353    4.90999985    2.44000006
   12.04805565  219.81599426    4.90999985    2.46000004
   12.05111122  226.51600647    4.90999985    2.44000006
   12.05444431  227.01800537    4.90999985    2.44000006
   12.05777836  216.81599426    4.90999985    2.44000006
   12.06083393  218.41099548    4.90999985    2.44000006
   12.06416702  221.61999512    4.90999985    2.44000006
   12.06750011  225.59599304    4.90999985    2.44000006
   12.06972218  209.16299438    4.90999985    2.44000006
   12.07111073  216.72500610    4.90999985    2.46000004
   12.07416630  215.24699402    4.90999985    2.44000006
   12.07750034  224.44500732    4.90999985    2.44000006
   12.08083344  213.04299927    4.90999985    2.46000004
   12.08388901  218.55700684    4.90999985    2.44000006
   12.08722210  219.76899719    4.90999985    2.42000008
   12.09055519  224.74899292    4.90999985    2.46000004
   12.09361076  238.61500549    4.90999985    2.44000006
   12.09694386  216.96400452    4.90999985    2.44000006
   12.10000038  218.83799744    4.90999985    2.44000006
   12.10305595  219.96699524    4.90999985    2.44000006
   12.10388947  224.17700195    4.90999985    2.44000006
   12.10694504  218.89199829    4.90999985    2.44000006
   12.11027813  221.77900696    4.90999985    2.44000006
   12.11361122  224.92100525    4.90999985    2.44000006
   12.11666679  232.77000427    4.90999985    2.46000004
   12.11999989  224.40699768    4.90999985    2.44000006
   12.12333393  219.48500061    4.90999985    2.46000004
   12.12638855  223.45599365    4.90999985    2.44000006
   12.12972260  216.64199829    4.90999985    2.46000004
   12.13277817  223.58500671    4.90999985    2.46000004
   12.13611126  216.04800415    4.90999985    2.46000004
   12.13666630  212.89900208    4.90999985    2.46000004
   12.14000034  215.63800049    4.90999985    2.46000004
   12.14305496  225.22099304    4.90999985    2.46000004
   12.14638901  215.36099243    4.90999985    2.46000004
   12.14944458  211.06500244    4.90999985    2.46000004
   12.15277767  214.98699951    4.90999985    2.46000004
   12.15611076  215.67100525    4.90999985    2.46000004
   12.15916634  217.86000061    4.90999985    2.46000004
   12.16249943  212.17399597    4.90999985    2.48000002
   12.16583252  207.52299500    4.90999985    2.46000004
   12.16888905  217.75700378    4.90999985    2.48000002
   12.18611145  209.41299438    4.90999985    2.48000002
   12.18861103  213.23800659    4.90999985    2.48000002
   12.19194412  212.44500732    4.90999985    2.46000004
   12.19499969  218.42900085    4.90999985    2.48000002
   12.19833374  213.94000244    4.90999985    2.46000004
   12.20166683  208.68800354    4.90999985    2.48000002
   12.20472240  214.08799744    4.90999985    2.48000002
   12.20805550  212.94700623    4.90999985    2.48000002
   12.21138859  218.83799744    4.90999985    2.46000004
   12.21444416  210.10299683    4.90999985    2.46000004
   12.21777725  219.10899353    4.90999985    2.48000002
   12.21916580  221.26899719    4.90999985    2.46000004
   12.22138882  214.02499390    4.90999985    2.46000004
   12.22472191  214.43499756    4.90999985    2.48000002
   12.22777748  220.70899963    4.90999985    2.48000002
   12.23111057  215.58500671    4.90999985    2.46000004
   12.23444462  213.29400635    4.90999985    2.46000004
   12.23750019  211.74800110    4.90999985    2.48000002
   12.24083328  215.98500061    4.90999985    2.48000002
   12.24388885  211.62300110    4.90999985    2.46000004
   12.24722290  210.01899719    4.90999985    2.48000002
   12.25055599  219.60800171    4.90999985    2.46000004
   12.25277805  212.19299316    4.90999985    2.48000002
   12.25416660  221.44000244    4.90999985    2.46000004
   12.25749969  221.00000000    4.90999985    2.48000002
   12.26055527  216.70199585    4.90999985    2.48000002
   12.26388931  218.20799255    4.90999985    2.46000004
   12.26722240  216.02400208    4.90999985    2.46000004
   12.27027798  214.70100403    4.90999985    2.46000004
   12.27361107  212.04200745    4.90999985    2.46000004
   12.27666664  214.77900696    4.90999985    2.48000002
   12.27999973  218.82099915    4.90999985    2.46000004
   12.28333378  211.11399841    4.90999985    2.46000004
   12.28611183  221.63699341    4.90999985    2.48000002
   12.28694534  218.97700500    4.90999985    2.46000004
   12.29027843  221.12300110    4.90999985    2.48000002
   12.29333401  221.40699768    4.90999985    2.48000002
   12.29666710  226.49800110    4.90999985    2.48000002
   12.30000019  219.89500427    4.90999985    2.46000004
   12.30305576  225.71400452    4.90999985    2.48000002
   12.30638885  227.65499878    4.90999985    2.48000002
   12.30972195  217.22099304    4.90999985    2.48000002
   12.31277752  230.87199402    4.90999985    2.50000000
   12.31611156  218.04299927    4.90999985    2.48000002
   12.31944466  214.53999329    4.90999985    2.50000000
   12.31972218  215.57200623    4.90999985    2.50000000
   12.32305527  217.15699768    4.90999985    2.48000002
   12.32611084  200.70399475    4.90999985    2.48000002
   12.32944393  210.01899719    4.90999985    2.50000000
   12.33277798  217.46699524    4.90999985    2.50000000
   12.33583260  211.92999268    4.90999985    2.50000000
   12.33916664  208.73800659    4.90999985    2.50000000
   12.34249973  204.26400757    4.90999985    2.50000000
   12.34555531  206.97500610    4.90999985    2.50000000
   12.34888840  207.38499451    4.90999985    2.51999998
   12.35222244  216.06300354    4.90999985    2.50000000
   12.35277843  212.63299561    4.90999985    2.50000000
   12.35555553  204.94700623    4.90999985    2.50000000
   12.35888958  222.44200134    4.90999985    2.51999998
   12.36194515  203.61000061    4.90999985    2.50000000
   12.36527824  215.48500061    4.90999985    2.50000000
   12.36861134  208.57499695    4.90999985    2.50000000
   12.37166691  221.47900391    4.90999985    2.50000000
   12.37500000  217.30299377    4.90999985    2.50000000
   12.37833309  224.01899719    4.90999985    2.50000000
   12.38138866  223.96200562    4.90999985    2.51999998
   12.38472176  217.08000183    4.90999985    2.50000000
   12.38611126  218.08599854    4.90999985    2.50000000
   12.38833332  219.45300293    4.90999985    2.50000000
   12.39166641  209.15800476    4.90999985    2.51999998
   12.39472198  209.47900391    4.90999985    2.50000000
   12.39805508  210.88099670    4.90999985    2.51999998
   12.40138817  208.80400085    4.90999985    2.50000000
   12.40444374  208.96699524    4.90999985    2.51999998
   12.40777779  205.61399841    4.90999985    2.51999998
   12.41111088  210.58399963    4.90999985    2.50000000
   12.41416645  198.57499695    4.90999985    2.51999998
   12.41750050  205.57099915    4.90999985    2.51999998
   12.41944504  198.11799622    4.90999985    2.51999998
   12.42111111  214.23800659    4.90999985    2.51999998
   12.42444515  197.21400452    4.90999985    2.51999998
   12.42777824  203.19299316    4.90999985    2.51999998
   12.43083382  200.52400208    4.90999985    2.50000000
   12.43416691  209.34100342    4.90999985    2.51999998
   12.43750000  209.91099548    4.90999985    2.51999998
   12.44055557  214.98800659    4.90999985    2.51999998
   12.44388866  207.24600220    4.90999985    2.51999998
   12.44694424  206.71499634    4.90999985    2.51999998
   12.45027733  210.82000732    4.90999985    2.51999998
   12.45277786  216.35499573    4.90999985    2.50000000
   12.45388889  210.40100098    4.90999985    2.51999998
   12.45722198  218.23399353    4.90999985    2.51999998
   12.46055508  208.03999329    4.90999985    2.51999998
   12.46361065  210.26699829    4.90999985    2.51999998
   12.46694374  199.04800415    4.90999985    2.51999998
   12.46999931  220.44400024    4.90999985    2.51999998
   12.47333336  210.63400269    4.90999985    2.51999998
   12.47666645  205.06700134    4.90999985    2.51999998
   12.47972202  203.04699707    4.90999985    2.51999998
   12.48305511  205.33200073    4.90999985    2.51999998
   12.48611164  205.02299500    4.90999985    2.53999996
   12.48666668  200.06300354    4.90999985    2.53999996
   12.49000072  214.26199341    4.90999985    2.53999996
   12.49305534  198.70899963    4.90999985    2.51999998
   12.49638939  196.53100586    4.90999985    2.53999996
   12.49972248  201.93600464    4.90999985    2.51999998
   12.50277805  205.24000549    4.90999985    2.51999998
   12.50611115  208.25999451    4.90999985    2.61999989
   12.50944424  213.27799988    1.44000006    0.56999999
   12.51249981  204.95899963    0.70999998    0.19000000
   12.51583290  198.71000671    0.70999998    0.19000000
   12.51916599  205.53399658    0.70999998    0.19000000
   12.51972198  209.84899902    0.70999998    0.19000000
   12.52277756  212.48100281    0.70999998    0.19000000
   12.52611065  207.56799316    0.70999998    0.19000000
   12.52916622  205.33700562    0.70999998    0.19000000
   12.53249931  196.50000000    0.70999998    0.19000000
   12.53583336  207.22099304    0.70999998    0.19000000
   12.53888893  213.89900208    0.70999998    0.19000000
   12.54222298  206.31399536    0.70999998    0.19000000
   12.54555607  197.38400269    0.70999998    0.19000000
   12.54861164  199.15699768    0.70999998    0.19000000
   12.55194473  199.60899353    0.70999998    0.19000000
   12.55305576  202.29499817    0.70999998    0.19000000
   12.55555534  199.40100098    0.70999998    0.19000000
   12.55888939  209.09500122    0.70999998    0.19000000
   12.56222248  213.15299988    0.70999998    0.19000000
   12.56527805  201.53300476    0.70999998    0.19000000
   12.56861115  207.43499756    0.70999998    0.19000000
   12.57166672  207.96000671    0.70999998    0.19000000
   12.57499981  197.03199768    0.70999998    0.19000000
   12.57833290  204.63900757    0.70999998    0.19000000
   12.58138847  207.56199646    0.70999998    0.19000000
   12.58472157  214.01600647    0.70999998    0.19000000
   12.58638859  200.46499634    0.70999998    0.19000000
   12.58833313  202.78999329    0.70999998    0.19000000
   12.59166622  212.63699341    0.70999998    0.19000000
   12.59499931  196.58799744    0.70999998    0.19000000
   12.59805489  201.95300293    0.70999998    0.19000000
   12.60138893  199.80999756    0.70999998    0.19000000
   12.60444450  201.91799927    0.70999998    0.19000000
   12.60777855  196.94500732    0.70999998    0.19000000
   12.61111164  208.01100159    0.70999998    0.19000000
   12.61416721  189.75100708    0.70999998    0.19000000
   12.61750031  208.54100037    0.70999998    0.19000000
   12.61972237  204.20500183    0.70999998    0.19000000
   12.62111092  204.15499878    0.70999998    0.19000000
   12.62444496  204.07000732    0.70999998    0.19000000
   12.62777805  198.91600037    0.70999998    0.19000000
   12.63083363  209.06599426    0.70999998    0.19000000
   12.63416672  201.97500610    0.70999998    0.19000000
   12.63722229  217.48199463    0.70999998    0.19000000
   12.64055538  210.63900757    0.70999998    0.19000000
   12.64388847  205.98800659    0.70999998    0.19000000
   12.64694405  209.66900635    0.70999998    0.19000000
   12.65027714  210.13600159    0.70999998    0.19000000
   12.65305519  207.24600220    0.70999998    0.19000000
   12.65388870  214.88299561    0.70999998    0.19000000
   12.65722179  217.39500427    0.70999998    0.19000000
   12.66055489  200.19500732    0.70999998    0.19000000
   12.66361046  198.36000061    0.70999998    0.19000000
   12.66694450  202.95899963    0.70999998    0.19000000
   12.67027855  190.66900635    0.70999998    0.19000000
   12.67333412  211.57099915    0.70999998    0.19000000
   12.67666721  187.87899780    0.70999998    0.19000000
   12.68000031  203.61900330    0.70999998    0.19000000
   12.68305588  200.13800049    0.70999998    0.19000000
   12.68638897  199.57899475    0.70999998    0.19000000
   12.68666649  192.12100220    0.70999998    0.19000000
   12.69000053  190.81300354    0.70999998    0.19000000
   12.69333363  202.35000610    0.70999998    0.19000000
   12.69638920  195.72300720    0.70999998    0.19000000
   12.69972229  201.73699951    0.70999998    0.19000000
   12.70277786  195.31500244    0.70999998    0.19000000
   12.70611095  190.55000305    0.70999998    0.19000000
   12.70944405  191.95399475    0.70999998    0.19000000
   12.71249962  199.74299622    0.70999998    0.19000000
   12.71583271  205.50700378    0.70999998    0.19000000
   12.71916580  201.78999329    0.70999998    0.19000000
   12.71972179  196.33900452    0.70999998    0.19000000
   12.72249985  203.56799316    0.70999998    0.19000000
   12.72583294  198.66299438    0.70999998    0.19000000
   12.72916603  196.15199280    0.70999998    0.19000000
   12.73222160  192.35699463    0.70999998    0.19000000
   12.73555565  205.46000671    0.70999998    0.19000000
   12.73861122  197.18699646    0.70999998    0.19000000
   12.74194431  191.63999939    0.70999998    0.19000000
   12.74527836  208.64100647    0.70999998    0.19000000
   12.74833393  193.22900391    0.70999998    0.19000000
   12.75166702  194.82699585    0.70999998    0.19000000
   12.75305557  201.55700684    0.70999998    0.19000000
   12.75527763  196.76600647    0.70999998    0.19000000
   12.75861073  200.82600403    0.70999998    0.19000000
   12.76194477  208.63000488    0.70999998    0.19000000
   12.76500034  206.32099915    0.70999998    0.19000000
   12.76833344  195.63200378    0.70999998    0.19000000
   12.77138901  204.02200317    0.70999998    0.19000000
   12.77472210  201.17500305    0.70999998    0.19000000
   12.77805519  196.18600464    0.70999998    0.19000000
   12.78111076  201.58099365    0.70999998    0.19000000
   12.78444481  189.05200195    0.70999998    0.19000000
   12.78638935  201.24099731    0.70999998    0.19000000
   12.78805637  200.68200684    0.70999998    0.19000000
   12.79138947  198.54100037    0.70999998    0.19000000
   12.79472256  195.42900085    0.70999998    0.19000000
   12.79777813  191.41299438    0.70999998    0.19000000
   12.80111122  207.19999695    0.70999998    0.19000000
   12.80416679  196.29400635    0.70999998    0.19000000
   12.80749989  197.86000061    0.70999998    0.19000000
   12.81083393  195.64500427    0.70999998    0.19000000
   12.81388950  190.70599365    0.70999998    0.19000000
   12.81722260  206.06100464    0.70999998    0.19000000
   12.81972218  199.33500671    0.70999998    0.19000000
   12.82083321  196.69400024    0.70999998    0.19000000
   12.82416630  204.60099792    0.70999998    0.19000000
   12.82750034  191.26300049    0.70999998    0.19000000
   12.83055592  200.00399780    0.70999998    0.19000000
   12.83388901  196.74000549    0.70999998    0.19000000
   12.83722210  184.24899292    0.70999998    0.19000000
   12.84027767  204.94000244    0.70999998    0.19000000
   12.84361076  204.33900452    0.70999998    0.19000000
   12.84694386  193.82299805    0.70999998    0.19000000
   12.85000038  199.30999756    0.70999998    0.19000000
   12.85305595  206.09899902    0.70999998    0.19000000
   12.85361195  203.72700500    0.70999998    0.19000000
   12.85694504  187.88699341    0.70999998    0.19000000
   12.86027813  199.13000488    0.70999998    0.19000000
   12.86333370  196.85299683    0.70999998    0.19000000
   12.86666679  205.22099304    0.70999998    0.19000000
   12.86999989  192.51899719    0.70999998    0.19000000
   12.87305546  202.74699402    0.70999998    0.19000000
   12.87638855  197.46699524    0.70999998    0.19000000
   12.87944412  195.47700500    0.70999998    0.19000000
   12.88277817  203.25799561    0.70999998    0.19000000
   12.88611126  198.34399414    0.70999998    0.19000000
   12.88666630  192.25399780    0.70999998    0.19000000
   12.88972187  204.97799683    0.70999998    0.19000000
   12.89305496  191.14799500    0.70999998    0.19000000
   12.89611053  185.25700378    0.70999998    0.19000000
   12.89944458  185.69299316    0.70999998    0.19000000
   12.90277767  192.72399902    0.70999998    0.19000000
   12.90583324  194.83999634    0.70999998    0.19000000
   12.90916634  181.89599609    0.70999998    0.19000000
   12.91249943  197.77499390    0.70999998    0.19000000
   12.91555500  187.28700256    0.70999998    0.19000000
   12.91888905  191.75700378    0.70999998    0.19000000
   12.92000008  189.18099976    0.70999998    0.19000000
   12.92250061  185.88999939    0.70999998    0.19000000
   12.92583370  195.05900574    0.70999998    0.19000000
   12.92916679  198.12199402    0.70999998    0.19000000
   12.93222237  182.78700256    0.70999998    0.19000000
   12.93555546  187.10000610    0.70999998    0.19000000
   12.93861103  183.27900696    0.70999998    0.19000000
   12.94194412  193.94099426    0.70999998    0.19000000
   12.94527817  193.70799255    0.70999998    0.19000000
   12.94833374  198.71200562    0.70999998    0.19000000
   12.95166683  179.79499817    0.70999998    0.19000000
   12.95333290  180.97700500    0.70999998    0.19000000
   12.95527744  189.38999939    0.70999998    0.19000000
   12.95861053  192.36700439    0.70999998    0.19000000
   12.96194458  188.45199585    0.70999998    0.19000000
   12.96500015  189.73300171    0.70999998    0.19000000
   12.96833324  193.37300110    0.70999998    0.19000000
   12.97138882  188.60800171    0.70999998    0.19000000
   12.97472191  192.52299500    0.70999998    0.19000000
   12.97805500  185.48300171    0.70999998    0.19000000
   12.98111057  184.62300110    0.70999998    0.19000000
   12.98444462  196.05499268    0.70999998    0.19000000
   12.98666668  184.62800598    0.70999998    0.19000000
   12.98805618  180.03100586    0.70999998    0.19000000
   12.99138927  173.98100281    0.70999998    0.19000000
   12.99472237  182.09700012    0.70999998    0.19000000
   12.99777794  185.31100464    0.70999998    0.19000000
   13.00111103  184.30200195    0.70999998    0.19000000
   13.00416660  180.97099304    0.70999998    0.19000000
   13.00749969  187.69500732    0.70999998    0.19000000
   13.01083374  190.52000427    0.70999998    0.19000000
   13.01416683  197.26699829    0.70999998    0.19000000
   13.01722240  200.31599426    0.70999998    0.19000000
   13.01999950  193.53599548    0.70999998    0.19000000
   13.02083302  188.31799316    0.70999998    0.19000000
   13.02416611  177.90600586    0.70999998    0.19000000
   13.02750015  195.55099487    0.70999998    0.19000000
   13.03055573  186.65199280    0.70999998    0.19000000
   13.03388977  190.78300476    0.70999998    0.19000000
   13.03694534  185.64700317    0.70999998    0.19000000
   13.04027843  185.36700439    0.70999998    0.19000000
   13.04361153  185.11599731    0.70999998    0.19000000
   13.04666710  193.31199646    0.70999998    0.19000000
   13.05000019  189.35499573    0.70999998    0.19000000
   13.05333328  187.52900696    0.70999998    0.19000000
   13.05361176  184.28500366    0.70999998    0.19000000
   13.05694485  199.02299500    0.70999998    0.19000000
   13.06027794  188.20899963    0.70999998    0.19000000
   13.06333351  185.32800293    0.70999998    0.19000000
   13.17138958   -1.00000000   -1.00000000   -1.00000000
   13.27083302   -1.00000000   -1.00000000   -1.00000000
   13.37972260   -1.00000000   -1.00000000   -1.00000000
   13.48694515   -1.00000000   -1.00000000   -1.00000000
   13.59305477   -1.00000000   -1.00000000   -1.00000000
   13.69416714   -1.00000000   -1.00000000   -1.00000000
   13.78972244   -1.00000000   -1.00000000   -1.00000000
   13.88833332   -1.00000000   -1.00000000   -1.00000000
   13.99722290   -1.00000000   -1.00000000   -1.00000000
   14.03166676   90.97699738    0.70999998    0.19000000
   14.03472233  180.61500549    0.70999998    0.19000000
   14.04694462  193.08500671    0.00000000    0.00000000
   14.05194473  193.08500671    0.70999998    0.19000000
   14.06583309  171.13400269    0.00000000    0.00000000
   14.06611156  176.85899353    0.70999998    0.19000000
   14.06916618  181.40499878    0.70999998    0.19000000
   14.07250023  181.38900757    0.70999998    0.19000000
   14.07555580  191.78999329    0.70999998    0.19000000
   14.07888889  185.26899719    0.70999998    0.19000000
   14.08222198  190.19400024    0.70999998    0.19000000
   14.08527756  195.73100281    0.70999998    0.19000000
   14.08861065  201.49200439    0.70999998    0.19000000
   14.10361195  201.49200439    0.70999998    0.19000000
   14.10750008  168.40100098    0.70999998    0.19000000
   14.11083412  178.13600159    0.70999998    0.19000000
   14.11416721  166.05999756    0.70999998    0.19000000
   14.12666702  174.22999573    0.00000000    0.00000000
   14.13000011  177.95399475    0.70999998    0.19000000
   14.13333321  187.56700134    0.70999998    0.19000000
   14.13749981  187.56700134    0.70999998    0.19000000
   14.14222240  183.99800110    0.70999998    0.19000000
   14.14249992  181.61300659    0.70999998    0.19000000
   14.14555550  184.16700745    0.70999998    0.19000000
   14.14888859  181.45199585    0.70999998    0.19000000
   14.15194416  180.89599609    0.70999998    0.19000000
   14.15527725  180.68800354    0.70999998    0.19000000
   14.15861034  189.25300598    0.70999998    0.19000000
   14.16166592  194.12399292    0.70999998    0.19000000
   14.16499996  203.46899414    0.70999998    0.19000000
   14.16805553  190.40199280    0.70999998    0.19000000
   14.17138958  187.51499939    0.70999998    0.19000000
   14.17472267  196.07800293    0.70999998    0.19000000
   14.17583370  178.76499939    0.70999998    0.19000000
   14.18055630  178.76499939    0.70999998    0.19000000
   14.18444443  185.98100281    0.70999998    0.19000000
   14.18777752  185.64999390    0.70999998    0.19000000
   14.19111156  171.27499390    0.70999998    0.19000000
   14.19416714  178.44599915    0.70999998    0.19000000
   14.19750023  170.96600342    0.70999998    0.19000000
   14.20083332  181.85299683    0.70999998    0.19000000
   14.20388889  188.63299561    0.70999998    0.19000000
   14.20722198  177.59599304    0.70999998    0.19000000
   14.20916653  197.50399780    0.70999998    0.19000000
   14.21083355  175.55099487    0.70999998    0.19000000
   14.21416664  175.90299988    0.70999998    0.19000000
   14.21722221  179.90100098    0.70999998    0.19000000
   14.22361088  179.90100098    0.70999998    0.19000000
   14.22777748  193.07499695    0.70999998    0.19000000
   14.23083305  175.16999817    0.70999998    0.19000000
   14.23416710  172.49099731    0.70999998    0.19000000
   14.23750019  189.83000183    0.70999998    0.19000000
   14.24055576  174.05999756    0.70999998    0.19000000
   14.24250031  179.45599365    0.70999998    0.19000000
   14.24416733  178.81100464    0.70999998    0.19000000
   14.24777794  184.49099731    0.70999998    0.19000000
   14.25111103  181.25999451    0.70999998    0.19000000
   14.25444412  183.69500732    0.70999998    0.19000000
   14.26527786  168.96600342    0.00000000    0.00000000
   14.26944447  168.96600342    0.70999998    0.19000000
   14.27361107  171.04100037    0.70999998    0.19000000
   14.27694416  167.27200317    0.70999998    0.19000000
   14.27999973  178.76100159    0.70999998    0.19000000
   14.28083324  174.62899780    0.70999998    0.19000000
   14.28361130  170.97900391    0.70999998    0.19000000
   14.28694534  168.69900513    0.70999998    0.19000000
   14.29000092  164.54299927    0.70999998    0.19000000
   14.29333401  166.06500244    0.70999998    0.19000000
   14.29666710  177.84300232    0.70999998    0.19000000
   14.29972267  188.27799988    0.70999998    0.19000000
   14.30305576  179.62699890    0.70999998    0.19000000
   14.30638885  174.25000000    0.70999998    0.19000000
   14.31222248  174.25000000    0.70999998    0.19000000
   14.31638908  171.19700623    0.70999998    0.19000000
   14.31972218  176.02799988    0.70999998    0.19000000
   14.32277775  177.16999817    0.70999998    0.19000000
   14.32611084  174.52900696    0.70999998    0.19000000
   14.32944393  183.69700623    0.70999998    0.19000000
   14.33249950  179.71000671    0.70999998    0.19000000
   14.33583260  182.88800049    0.70999998    0.19000000
   14.33916664  177.32200623    0.70999998    0.19000000
   14.34222221  179.60299683    0.70999998    0.19000000
   14.34555531  172.41700745    0.70999998    0.19000000
   14.34777737  161.60200500    0.70999998    0.19000000
   14.34916592  175.63900757    0.70999998    0.19000000
   14.35500050  175.63900757    0.70999998    0.19000000
   14.35916710  169.89199829    0.70999998    0.19000000
   14.36250019  181.23899841    0.70999998    0.19000000
   14.36583328  176.44500732    0.70999998    0.19000000
   14.36888885  174.94799805    0.70999998    0.19000000
   14.37222195  169.58599854    0.70999998    0.19000000
   14.37555599  176.16400146    0.70999998    0.19000000
   14.37861156  169.82600403    0.70999998    0.19000000
   14.38111115  175.31700134    0.70999998    0.19000000
   14.38222218  171.06399536    0.70999998    0.19000000
   14.38555527  175.60899353    0.70999998    0.19000000
   14.38861084  174.57899475    0.70999998    0.19000000
   14.39194393  181.62300110    0.70999998    0.19000000
   14.39888859  181.62300110    0.70999998    0.19000000
   14.40305519  176.03500366    0.70999998    0.19000000
   14.40638828  171.97799683    0.70999998    0.19000000
   14.41888905  178.47200012    0.00000000    0.00000000
   14.41944504  175.23300171    0.70999998    0.19000000
   14.42250061  176.69599915    0.70999998    0.19000000
   14.42555618  178.09300232    0.70999998    0.19000000
   14.42888927  175.78599548    0.70999998    0.19000000
   14.43222237  178.83999634    0.70999998    0.19000000
   14.43527794  179.88099670    0.70999998    0.19000000
   14.43861103  177.24299622    0.70999998    0.19000000
   14.44194412  176.72099304    0.70999998    0.19000000
   14.44666672  176.72099304    0.70999998    0.19000000
   14.45055580  173.97700500    0.70999998    0.19000000
   14.45277786  173.20300293    0.70999998    0.19000000
   14.45444393  172.41400146    0.70999998    0.19000000
   14.45777798  175.44799805    0.70999998    0.19000000
   14.46083355  173.64900208    0.70999998    0.19000000
   14.46416664  162.36199951    0.70999998    0.19000000
   14.46749973  166.88099670    0.70999998    0.19000000
   14.47055531  175.54299927    0.70999998    0.19000000
   14.47388840  176.22000122    0.70999998    0.19000000
   14.47722149  173.93600464    0.70999998    0.19000000
   14.48027706  173.68699646    0.70999998    0.19000000
   14.48361111  174.48699951    0.70999998    0.19000000
   14.48944473  174.48699951    0.70999998    0.19000000
   14.49361134  169.44400024    0.70999998    0.19000000
   14.49666691  168.17300415    0.70999998    0.19000000
   14.50000000  162.87600708    0.70999998    0.19000000
   14.50333309  180.48199463    0.70999998    0.19000000
   14.50638866  172.12100220    0.70999998    0.19000000
   14.50972176  168.41999817    0.70999998    0.19000000
   14.51277733  174.26800537    0.70999998    0.19000000
   14.51611137  157.71000671    0.70999998    0.19000000
   14.51944447  168.99899292    0.70999998    0.19000000
   14.52027798  160.49600220    0.70999998    0.19000000
   14.52305508  169.20100403    0.70999998    0.19000000
   14.52611065  159.89500427    0.70999998    0.19000000
   14.53222179  159.89500427    0.70999998    0.19000000
   14.53638935  173.09800720    0.70999998    0.19000000
   14.53972244  179.52000427    0.70999998    0.19000000
   14.54277802  180.50900269    0.70999998    0.19000000
   14.54611111  180.93499756    0.70999998    0.19000000
   14.54916668  171.62399292    0.70999998    0.19000000
   14.55249977  172.44900513    0.70999998    0.19000000
   14.55361176  181.50900269    0.70999998    0.19000000
   14.55611134  178.19900513    0.70999998    0.19000000
   14.55916691  174.29299927    0.70999998    0.19000000
   14.56250000  167.42399597    0.70999998    0.19000000
   14.56583309  156.77099609    0.70999998    0.19000000
   14.56888866  166.34399414    0.70999998    0.19000000
   14.57499981  166.34399414    0.70999998    0.19000000
   14.57916641  171.37600708    0.70999998    0.19000000
   14.58249950  178.00799561    0.70999998    0.19000000
   14.58583260  177.41200256    0.70999998    0.19000000
   14.58722210  166.43299866    0.70999998    0.19000000
   14.58916664  163.52600098    0.70999998    0.19000000
   14.59249973  180.16499329    0.70999998    0.19000000
   14.59583282  154.12100220    0.70999998    0.19000000
   14.59888840  161.06700134    0.70999998    0.19000000
   14.60222244  165.27299500    0.70999998    0.19000000
   14.60555553  175.32899475    0.70999998    0.19000000
   14.60861111  174.19000244    0.70999998    0.19000000
   14.61194515  176.26400757    0.70999998    0.19000000
   14.61805534  176.26400757    0.70999998    0.19000000
   14.62194443  169.26899719    0.70999998    0.19000000
   14.62527752  173.55400085    0.70999998    0.19000000
   14.62861156  172.45399475    0.70999998    0.19000000
   14.63166714  175.96400452    0.70999998    0.19000000
   14.63500023  164.06900024    0.70999998    0.19000000
   14.63833332  169.05400085    0.70999998    0.19000000
   14.64138889  166.76100159    0.70999998    0.19000000
   14.64472198  169.96499634    0.70999998    0.19000000
   14.64805508  166.00100708    0.70999998    0.19000000
   14.65111065  167.55999756    0.70999998    0.19000000
   14.65388870  166.62600708    0.70999998    0.19000000
   14.65472221  160.64399719    0.70999998    0.19000000
   14.66083336  160.64399719    0.70999998    0.19000000
   14.66499996  162.78199768    0.70999998    0.19000000
   14.66805553  187.78799438    0.70999998    0.19000000
   14.67138958  164.31399536    0.70999998    0.19000000
   14.67472267  169.84399414    0.70999998    0.19000000
   14.67777824  176.94900513    0.70999998    0.19000000
   14.68111134  170.61199951    0.70999998    0.19000000
   14.68416691  164.23899841    0.70999998    0.19000000
   14.68722248  167.22999573    0.70999998    0.19000000
   14.68777752  165.06700134    0.70999998    0.19000000
   14.69111156  165.39700317    0.70999998    0.19000000
   14.69444466  167.61300659    0.70999998    0.19000000
   14.69750023  165.96499634    0.70999998    0.19000000
   14.70361137  165.96499634    0.70999998    0.19000000
   14.70777798  174.11599731    0.70999998    0.19000000
   14.71111107  170.21899414    0.70999998    0.19000000
   14.71416664  160.58900452    0.70999998    0.19000000
   14.71749973  165.60400391    0.70999998    0.19000000
   14.72055531  174.44799805    0.70999998    0.19000000
   14.72083282  167.75500488    0.70999998    0.19000000
   14.72416592  172.59899902    0.70999998    0.19000000
   14.72749996  171.37800598    0.70999998    0.19000000
   14.73055553  174.33799744    0.70999998    0.19000000
   14.73388958  167.16600037    0.70999998    0.19000000
   14.74583340  177.91000366    0.00000000    0.00000000
   14.75000000  177.91000366    0.70999998    0.19000000
   14.75416660  168.86099243    0.70999998    0.19000000
   14.75722218  155.89900208    0.70999998    0.19000000
   14.76055527  163.97500610    0.70999998    0.19000000
   14.76138878  164.99000549    0.70999998    0.19000000
   14.76416683  182.72599792    0.70999998    0.19000000
   14.76749992  160.17300415    0.70999998    0.19000000
   14.77055550  170.63600159    0.70999998    0.19000000
   14.77388859  175.69700623    0.70999998    0.19000000
   14.77722168  173.72000122    0.70999998    0.19000000
   14.78027725  172.75000000    0.70999998    0.19000000
   14.78361130  167.14399719    0.70999998    0.19000000
   14.78666687  164.38200378    0.70999998    0.19000000
   14.79277802  164.38200378    0.70999998    0.19000000
   14.79694462  169.46899414    0.70999998    0.19000000
   14.80027771  169.10200500    0.70999998    0.19000000
   14.80333328  165.56300354    0.70999998    0.19000000
   14.80694485  167.50300598    0.70999998    0.19000000
   14.81000042  166.01400757    0.70999998    0.19000000
   14.81333351  170.17999268    0.70999998    0.19000000
   14.81666660  174.13699341    0.70999998    0.19000000
   14.81972218  164.09700012    0.70999998    0.19000000
   14.82305527  168.88200378    0.70999998    0.19000000
   14.82611084  165.16600037    0.70999998    0.19000000
   14.82805538  168.78300476    0.70999998    0.19000000
   14.82972240  158.48100281    0.70999998    0.19000000
   14.83555508  158.48100281    0.70999998    0.19000000
   14.83972168  162.16900635    0.70999998    0.19000000
   14.84305477  165.24899292    0.70999998    0.19000000
   14.84638882  159.82099915    0.70999998    0.19000000
   14.84944439  161.55299377    0.70999998    0.19000000
   14.85277843  163.67199707    0.70999998    0.19000000
   14.85583401  164.60099792    0.70999998    0.19000000
   14.85916710  164.00399780    0.70999998    0.19000000
   14.86138916  163.67999268    0.70999998    0.19000000
   14.86277771  165.34100342    0.70999998    0.19000000
   14.86611176  165.73599243    0.70999998    0.19000000
   14.86916637  162.94000244    0.70999998    0.19000000
   14.87250042  169.15400696    0.70999998    0.19000000
   14.87861156  169.15400696    0.70999998    0.19000000
   14.88277817  163.31799316    0.70999998    0.19000000
   14.88583279  169.14199829    0.70999998    0.19000000
   14.88916683  161.64799500    0.70999998    0.19000000
   14.89222240  169.68200684    0.70999998    0.19000000
   14.89499950  167.27499390    0.70999998    0.19000000
   14.89611053  160.25999451    0.70999998    0.19000000
   14.89944458  172.11000061    0.70999998    0.19000000
   14.90249920  168.10000610    0.70999998    0.19000000
   14.90583324  174.64900208    0.70999998    0.19000000
   14.90916634  169.24400330    0.70999998    0.19000000
   14.91222191  162.90400696    0.70999998    0.19000000
   14.91555500  160.65100098    0.70999998    0.19000000
   14.92138958  160.65100098    0.70999998    0.19000000
   14.92555618  168.05700684    0.70999998    0.19000000
   14.92833328  174.41000366    0.70999998    0.19000000
   14.92916679  170.06700134    0.70999998    0.19000000
   14.93249989  171.84899902    0.70999998    0.19000000
   14.93555546  165.80299377    0.70999998    0.19000000
   14.93888855  185.49099731    0.70999998    0.19000000
   14.94194412  170.16900635    0.70999998    0.19000000
   14.94527817  174.91799927    0.70999998    0.19000000
   14.94861126  166.85200500    0.70999998    0.19000000
   14.95166683  170.87300110    0.70999998    0.19000000
   14.95499992  175.84599304    0.70999998    0.19000000
   14.95833302  180.86000061    0.70999998    0.19000000
   14.96416664  180.86000061    0.70999998    0.19000000
   14.96833324  172.62500000    0.70999998    0.19000000
   14.97166634  178.33999634    0.70999998    0.19000000
   14.97472191  169.94900513    0.70999998    0.19000000
   14.97805500  174.68499756    0.70999998    0.19000000
   14.98138809  180.38200378    0.70999998    0.19000000
   14.98444462  182.88400269    0.70999998    0.19000000
   14.98777771  164.56399536    0.70999998    0.19000000
   14.99083328  179.13400269    0.70999998    0.19000000
   14.99416733  180.77600098    0.70999998    0.19000000
   14.99499989  186.09700012    0.70999998    0.19000000
   14.99777794  178.57000732    0.70999998    0.19000000
   15.00111103  171.76100159    0.70999998    0.19000000
   15.00694466  171.76100159    0.70999998    0.19000000
   15.01111126  177.33399963    0.70999998    0.19000000
   15.01444435  184.97099304    0.70999998    0.19000000
   15.01777744  183.43499756    0.70999998    0.19000000
   15.02083302  173.64100647    0.70999998    0.19000000
   15.02416611  179.94599915    0.70999998    0.19000000
   15.02722168  176.25999451    0.70999998    0.19000000
   15.02833271  174.84100342    0.70999998    0.19000000
   15.03083324  183.23100281    0.70999998    0.19000000
   15.03416729  175.74699402    0.70999998    0.19000000
   15.03722286  186.83500671    0.70999998    0.19000000
   15.05805588  186.83500671    0.70999998    0.19000000
   15.06194496  177.37199402    0.70999998    0.19000000
   15.06527805  163.57099915    0.70999998    0.19000000
   15.06861115  194.62800598    0.70999998    0.19000000
   15.07166672  188.97500610    0.70999998    0.19000000
   15.07499981  191.95899963    0.70999998    0.19000000
   15.07833290  183.54499817    0.70999998    0.19000000
   15.08138847  172.98800659    0.70999998    0.19000000
   15.08472157  190.03100586    0.70999998    0.19000000
   15.08777714  177.00199890    0.70999998    0.19000000
   15.09111118  181.31799316    0.70999998    0.19000000
   15.09444427  162.48899841    0.70999998    0.19000000
   15.09527779  176.83900452    0.70999998    0.19000000
   15.10055637  176.83900452    0.70999998    0.19000000
   15.10472298  192.39399719    0.70999998    0.19000000
   15.10805607  176.75000000    0.70999998    0.19000000
   15.11138916  178.12600708    0.70999998    0.19000000
   15.11444473  180.82299805    0.70999998    0.19000000
   15.11777782  173.30499268    0.70999998    0.19000000
   15.12083340  176.79499817    0.70999998    0.19000000
   15.12416649  189.49600220    0.70999998    0.19000000
   15.12750053  161.36500549    0.70999998    0.19000000
   15.12861156  186.28300476    0.70999998    0.19000000
   15.13111115  193.56199646    0.70999998    0.19000000
   15.13416672  167.42500305    0.70999998    0.19000000
   15.13749981  183.98300171    0.70999998    0.19000000
   15.14361095  183.98300171    0.70999998    0.19000000
   15.14777756  181.29699707    0.70999998    0.19000000
   15.15083313  175.95500183    0.70999998    0.19000000
   15.15416622  173.03599548    0.70999998    0.19000000
   15.15722179  171.88699341    0.70999998    0.19000000
   15.16055489  175.74000549    0.70999998    0.19000000
   15.16194439  173.18200684    0.70999998    0.19000000
   15.16416645  178.86000061    0.70999998    0.19000000
   15.16750050  171.00700378    0.70999998    0.19000000
   15.17055607  150.07200623    0.70999998    0.19000000
   15.17388916  173.16999817    0.70999998    0.19000000
   15.17694473  171.26199341    0.70999998    0.19000000
   15.18027782  171.14500427    0.70999998    0.19000000
   15.18638897  171.14500427    0.70999998    0.19000000
   15.19055557  172.69000244    0.70999998    0.19000000
   15.19361115  178.76400757    0.70999998    0.19000000
   15.19527817  187.51300049    0.70999998    0.19000000
   15.19750023  177.50999451    0.70999998    0.19000000
   15.20083332  180.94500732    0.70999998    0.19000000
   15.20388889  179.51600647    0.70999998    0.19000000
   15.20722198  191.50799561    0.70999998    0.19000000
   15.21027756  165.13000488    0.70999998    0.19000000
   15.21361065  185.24800110    0.70999998    0.19000000
   15.21694374  184.93899536    0.70999998    0.19000000
   15.21999931  179.08900452    0.70999998    0.19000000
   15.22333336  166.68499756    0.70999998    0.19000000
   15.22916603  166.68499756    0.70999998    0.19000000
   15.23333359  163.75399780    0.70999998    0.19000000
   15.23666668  163.23899841    0.70999998    0.19000000
   15.23972225  160.54899597    0.70999998    0.19000000
   15.24305534  167.38400269    0.70999998    0.19000000
   15.24611092  166.53799438    0.70999998    0.19000000
   15.24944496  167.88000488    0.70999998    0.19000000
   15.25277805  171.07499695    0.70999998    0.19000000
   15.25583363  175.03100586    0.70999998    0.19000000
   15.25916672  173.79600525    0.70999998    0.19000000
   15.26194477  179.08900452    0.70999998    0.19000000
   15.26277733  174.38099670    0.70999998    0.19000000
   15.26583290  158.73599243    0.70999998    0.19000000
   15.27194405  158.73599243    0.70999998    0.19000000
   15.27611065  164.31100464    0.70999998    0.19000000
   15.27944374  177.38000488    0.70999998    0.19000000
   15.28249931  162.38000488    0.70999998    0.19000000
   15.28583336  175.02200317    0.70999998    0.19000000
   15.28916740  169.37399292    0.70999998    0.19000000
   15.29222298  166.97300720    0.70999998    0.19000000
   15.29527855  175.39599609    0.70999998    0.19000000
   15.29611111  169.51300049    0.70999998    0.19000000
   15.29916668  180.94900513    0.70999998    0.19000000
   15.30249977  161.41299438    0.70999998    0.19000000
   15.30583382  169.74200439    0.70999998    0.19000000
   15.30888939  176.92999268    0.70999998    0.19000000
   15.31500053  176.92999268    0.70999998    0.19000000
   15.31916618  171.48399353    0.70999998    0.19000000
   15.32222176  169.66000366    0.70999998    0.19000000
   15.32555580  173.42300415    0.70999998    0.19000000
   15.32861137  158.51100159    0.70999998    0.19000000
   15.32916641  165.68699646    0.70999998    0.19000000
   15.33249950  163.46000671    0.70999998    0.19000000
   15.33555508  164.70799255    0.70999998    0.19000000
   15.33888817  170.61999512    0.70999998    0.19000000
   15.34194374  161.67900085    0.70999998    0.19000000
   15.34527779  172.22799683    0.70999998    0.19000000
   15.34861088  170.17300415    0.70999998    0.19000000
   15.35166740  170.01300049    0.70999998    0.19000000
   15.35777855  170.01300049    0.70999998    0.19000000
   15.36194515  168.56199646    0.70999998    0.19000000
   15.36250019  165.37500000    0.70999998    0.19000000
   15.36555576  170.57699585    0.70999998    0.19000000
   15.36888885  177.02400208    0.70999998    0.19000000
   15.37222195  167.76899719    0.70999998    0.19000000
   15.37527752  169.43699646    0.70999998    0.19000000
   15.37861156  166.79899597    0.70999998    0.19000000
   15.38166714  155.88800049    0.70999998    0.19000000
   15.38500023  160.91799927    0.70999998    0.19000000
   15.38833332  155.23599243    0.70999998    0.19000000
   15.39138889  163.49099731    0.70999998    0.19000000
   15.39472198  163.93800354    0.70999998    0.19000000
   15.39583302  162.54100037    0.70999998    0.19000000
   15.40055561  162.54100037    0.70999998    0.19000000
   15.40472221  168.26600647    0.70999998    0.19000000
   15.40805531  161.32400513    0.70999998    0.19000000
   15.41111088  158.13800049    0.70999998    0.19000000
   15.41444397  157.53799438    0.70999998    0.19000000
   15.41750050  160.50399780    0.70999998    0.19000000
   15.42083359  163.84399414    0.70999998    0.19000000
   15.42416668  158.13099670    0.70999998    0.19000000
   15.42722225  168.83599854    0.70999998    0.19000000
   15.42916679  167.38800049    0.70999998    0.19000000
   15.43083382  158.69500732    0.70999998    0.19000000
   15.43416691  172.32899475    0.70999998    0.19000000
   15.43750000  158.50000000    0.70999998    0.19000000
   15.44333363  158.50000000    0.70999998    0.19000000
   15.44750023  164.16600037    0.70999998    0.19000000
   15.45083332  157.05999756    0.70999998    0.19000000
   15.45416641  151.71899414    0.70999998    0.19000000
   15.45722198  155.25599670    0.70999998    0.19000000
   15.46055508  159.15800476    0.70999998    0.19000000
   15.46249962  153.82000732    0.70999998    0.19000000
   15.46416664  159.60800171    0.70999998    0.19000000
   15.46749973  158.25999451    0.70999998    0.19000000
   15.47083282  156.39199829    0.70999998    0.19000000
   15.47388840  162.64999390    0.70999998    0.19000000
   15.47722149  155.03700256    0.70999998    0.19000000
   15.48027706  162.17700195    0.70999998    0.19000000
   15.48638916  162.17700195    0.70999998    0.19000000
   15.49027824  162.39900208    0.70999998    0.19000000
   15.49361134  165.09599304    0.70999998    0.19000000
   15.49583340  164.26100159    0.70999998    0.19000000
   15.49722290  165.45100403    0.70999998    0.19000000
   15.50055599  152.45500183    0.70999998    0.19000000
   15.50388908  161.83099365    0.70999998    0.19000000
   15.50694466  158.71200562    0.70999998    0.19000000
   15.51027775  154.67500305    0.70999998    0.19000000
   15.51333332  163.66600037    0.70999998    0.19000000
   15.51666641  159.08900452    0.70999998    0.19000000
   15.51999950  155.41099548    0.70999998    0.19000000
   15.52305508  160.19599915    0.70999998    0.19000000
   15.52916622  160.19599915    0.70999998    0.19000000
   15.53333378  167.90800476    0.70999998    0.19000000
   15.53638935  160.60699463    0.70999998    0.19000000
   15.53972244  150.05700684    0.70999998    0.19000000
   15.54305553  145.43299866    0.70999998    0.19000000
   15.54611111  153.74400330    0.70999998    0.19000000
   15.54944515  156.19099426    0.70999998    0.19000000
   15.55249977  155.75799561    0.70999998    0.19000000
   15.55583382  158.92300415    0.70999998    0.19000000
   15.55916691  155.94400024    0.70999998    0.19000000
   15.56222248  157.38099670    0.70999998    0.19000000
   15.56277752  157.55200195    0.70999998    0.19000000
   15.56611156  151.41000366    0.70999998    0.19000000
   15.57194424  151.41000366    0.70999998    0.19000000
   15.57611084  156.13000488    0.70999998    0.19000000
   15.57916641  154.46499634    0.70999998    0.19000000
   15.58249950  160.31399536    0.70999998    0.19000000
   15.58583260  155.30900574    0.70999998    0.19000000
   15.58888817  162.41200256    0.70999998    0.19000000
   15.59222221  165.42399597    0.70999998    0.19000000
   15.59555531  155.94099426    0.70999998    0.19000000
   15.59611034  156.23899841    0.70999998    0.19000000
   15.59916592  160.48599243    0.70999998    0.19000000
   15.60249996  167.05000305    0.70999998    0.19000000
   15.60555553  159.64199829    0.70999998    0.19000000
   15.60888958  148.25799561    0.70999998    0.19000000
   15.61472225  148.25799561    0.70999998    0.19000000
   15.61888885  155.53199768    0.70999998    0.19000000
   15.62222195  165.65600586    0.70999998    0.19000000
   15.62527752  151.60699463    0.70999998    0.19000000
   15.62861156  163.76899719    0.70999998    0.19000000
   15.62944412  160.52600098    0.70999998    0.19000000
   15.63222218  172.92799377    0.70999998    0.19000000
   15.63555527  161.28900146    0.70999998    0.19000000
   15.63861084  163.28900146    0.70999998    0.19000000
   15.64194393  153.64199829    0.70999998    0.19000000
   15.64499950  153.83799744    0.70999998    0.19000000
   15.64833355  159.05999756    0.70999998    0.19000000
   15.65166664  151.29800415    0.70999998    0.19000000
   15.65749931  151.29800415    0.70999998    0.19000000
   15.66166592  161.47900391    0.70999998    0.19000000
   15.66277695  157.45199585    0.70999998    0.19000000
   15.66527748  153.49400330    0.70999998    0.19000000
   15.66861153  152.45700073    0.70999998    0.19000000
   15.67166710  158.39100647    0.70999998    0.19000000
   15.67500019  154.71400452    0.70999998    0.19000000
   15.67833328  166.27099609    0.70999998    0.19000000
   15.68138885  157.43699646    0.70999998    0.19000000
   15.68472195  155.13299561    0.70999998    0.19000000
   15.68805599  163.01100159    0.70999998    0.19000000
   15.69111156  160.44200134    0.70999998    0.19000000
   15.69444466  162.24899292    0.70999998    0.19000000
   15.69611073  165.65600586    0.70999998    0.19000000
   15.70055580  165.65600586    0.70999998    0.19000000
   15.70472240  162.08999634    0.70999998    0.19000000
   15.70777798  154.44700623    0.70999998    0.19000000
   15.71111107  156.31599426    0.70999998    0.19000000
   15.71416664  159.71299744    0.70999998    0.19000000
   15.71749973  159.00100708    0.70999998    0.19000000
   15.72083282  163.68400574    0.70999998    0.19000000
   15.72388840  162.49299622    0.70999998    0.19000000
   15.72722149  157.68499756    0.70999998    0.19000000
   15.72944355  158.38299561    0.70999998    0.19000000
   15.73083305  153.94599915    0.70999998    0.19000000
   15.73416710  151.28900146    0.70999998    0.19000000
   15.73722267  159.62100220    0.70999998    0.19000000
   15.74333382  159.62100220    0.70999998    0.19000000
   15.74750042  155.62800598    0.70999998    0.19000000
   15.75055599  151.65800476    0.70999998    0.19000000
   15.75388908  156.53300476    0.70999998    0.19000000
   15.75722218  164.80499268    0.70999998    0.19000000
   15.76055527  165.07299805    0.70999998    0.19000000
   15.76277733  155.75599670    0.70999998    0.19000000
   15.76416683  155.47700500    0.70999998    0.19000000
   15.76749992  150.84700012    0.70999998    0.19000000
   15.77055550  163.87899780    0.70999998    0.19000000
   15.77388859  161.76600647    0.70999998    0.19000000
   15.77694416  153.34399414    0.70999998    0.19000000
   15.78027725  159.78500366    0.70999998    0.19000000
   15.78611183  159.78500366    0.70999998    0.19000000
   15.79027843  153.23300171    0.70999998    0.19000000
   15.79361153  162.28100586    0.70999998    0.19000000
   15.79611111  155.47399902    0.70999998    0.19000000
   15.79722309  149.57800293    0.70999998    0.19000000
   15.80055618  160.54299927    0.70999998    0.19000000
   15.80361176  153.48800659    0.70999998    0.19000000
   15.80694485  151.62899780    0.70999998    0.19000000
   15.81000042  168.42500305    0.70999998    0.19000000
   15.81333351  164.88299561    0.70999998    0.19000000
   15.81666660  165.70899963    0.70999998    0.19000000
   15.81972218  166.58200073    0.70999998    0.19000000
   15.82305527  157.03799438    0.70999998    0.19000000
   15.82888889  157.03799438    0.70999998    0.19000000
   15.83305550  166.56700134    0.70999998    0.19000000
   15.83638859  161.91900635    0.70999998    0.19000000
   15.83972168  168.87699890    0.70999998    0.19000000
   15.84277725  154.51100159    0.70999998    0.19000000
   15.84611034  162.89100647    0.70999998    0.19000000
   15.84916592  153.58099365    0.70999998    0.19000000
   15.85249996  152.46899414    0.70999998    0.19000000
   15.85583401  158.92900085    0.70999998    0.19000000
   15.85888958  157.05299377    0.70999998    0.19000000
   15.86222267  161.88299561    0.70999998    0.19000000
   15.86416721  152.66900635    0.70999998    0.19000000
   15.86583328  150.82099915    0.70999998    0.19000000
   15.87194443  150.82099915    0.70999998    0.19000000
   15.87611103  150.08700562    0.70999998    0.19000000
   15.87916660  157.01899719    0.70999998    0.19000000
   15.88249969  155.40400696    0.70999998    0.19000000
   15.88583279  157.60800171    0.70999998    0.19000000
   15.88888836  158.01699829    0.70999998    0.19000000
   15.89222240  152.15100098    0.70999998    0.19000000
   15.89527798  162.63200378    0.70999998    0.19000000
   15.89750004  163.79699707    0.70999998    0.19000000
   15.89888859  154.95100403    0.70999998    0.19000000
   15.90222168  157.96299744    0.70999998    0.19000000
   15.90555477  162.34599304    0.70999998    0.19000000
   15.90861034  156.45700073    0.70999998    0.19000000
   15.91472149  156.45700073    0.70999998    0.19000000
   15.91888905  163.78999329    0.70999998    0.19000000
   15.92194462  164.86399841    0.70999998    0.19000000
   15.92527771  158.60099792    0.70999998    0.19000000
   15.92861176  158.67100525    0.70999998    0.19000000
   15.93083382  159.19799805    0.70999998    0.19000000
   15.93222237  159.08299255    0.70999998    0.19000000
   15.93555546  166.21299744    0.70999998    0.19000000
   15.93861103  163.53999329    0.70999998    0.19000000
   15.94194412  165.26100159    0.70999998    0.19000000
   15.94499969  163.72599792    0.70999998    0.19000000
   15.94833374  156.88099670    0.70999998    0.19000000
   15.95166683  163.33200073    0.70999998    0.19000000
   15.95749950  163.33200073    0.70999998    0.19000000
   15.96166611  150.02699280    0.70999998    0.19000000
   15.96416664  160.72399902    0.70999998    0.19000000
   15.96527767  155.06700134    0.70999998    0.19000000
   15.96861076  152.21200562    0.70999998    0.19000000
   15.97166634  145.68099976    0.70999998    0.19000000
   15.97499943  164.49699402    0.70999998    0.19000000
   15.97805500  175.01400757    0.70999998    0.19000000
   15.98138809  156.68200684    0.70999998    0.19000000
   15.98472214  154.24800110    0.70999998    0.19000000
   15.98777771  157.61999512    0.70999998    0.19000000
   15.99111176  152.46499634    0.70999998    0.19000000
   15.99444485  154.83599854    0.70999998    0.19000000
   16.00055504  154.83599854    0.70999998    0.19000000
   16.00444412  158.39500427    0.70999998    0.19000000
   16.00777817  160.01400757    0.70999998    0.19000000
   16.01111031  167.62899780    0.70999998    0.19000000
   16.01416588  155.35899353    0.70999998    0.19000000
   16.01749992  159.95500183    0.70999998    0.19000000
   16.02055550  157.61900330    0.70999998    0.19000000
   16.02388954  159.12199402    0.70999998    0.19000000
   16.02722168  152.74400330    0.70999998    0.19000000
   16.03027725  155.06599426    0.70999998    0.19000000
   16.03138924  149.96299744    0.70999998    0.19000000
   16.03388786  149.59599304    0.70999998    0.19000000
   16.03722191  157.39100647    0.70999998    0.19000000
   16.04333305  157.39100647    0.70999998    0.19000000
   16.04749870  151.87800598    0.70999998    0.19000000
   16.05055428  160.35000610    0.70999998    0.19000000
   16.05388832  155.81399536    0.70999998    0.19000000
   16.07139015  153.46899414    0.70999998    0.19000000
   16.07389069  155.06399536    0.70999998    0.19000000
   16.07694626  154.21099854    0.70999998    0.19000000
   16.08027840  166.08900452    0.70999998    0.19000000
   16.08638954  166.08900452    0.70999998    0.19000000
   16.09027863  157.88600159    0.70999998    0.19000000
   16.09361267  156.32699585    0.70999998    0.19000000
   16.09694481  151.38299561    0.70999998    0.19000000
   16.10000038  162.64199829    0.70999998    0.19000000
   16.10333443  154.49899292    0.70999998    0.19000000
   16.10472298  152.92199707    0.70999998    0.19000000
   16.10722351  146.10600281    0.70999998    0.19000000
   16.11027908  156.76100159    0.70999998    0.19000000
   16.11361122  151.07899475    0.70999998    0.19000000
   16.11666679  171.81900024    0.70999998    0.19000000
   16.12000084  148.09199524    0.70999998    0.19000000
   16.12333298  158.81399536    0.70999998    0.19000000
   16.12916756  158.81399536    0.70999998    0.19000000
   16.13333321  148.24099731    0.70999998    0.19000000
   16.13638878  154.58200073    0.70999998    0.19000000
   16.13805580  167.35400391    0.70999998    0.19000000
   16.13999939  145.34300232    0.70999998    0.19000000
   16.14333344  165.61000061    0.70999998    0.19000000
   16.14666748  150.84500122    0.70999998    0.19000000
   16.14972115  163.24400330    0.70999998    0.19000000
   16.15305519  152.48800659    0.70999998    0.19000000
   16.15611076  158.36000061    0.70999998    0.19000000
   16.15944481  158.74400330    0.70999998    0.19000000
   16.16277695  152.63999939    0.70999998    0.19000000
   16.16583252  156.02400208    0.70999998    0.19000000
   16.17194366  156.02400208    0.70999998    0.19000000
   16.17611122  149.65299988    0.70999998    0.19000000
   16.17944336  151.69099426    0.70999998    0.19000000
   16.18249893  154.43400574    0.70999998    0.19000000
   16.18583298  152.01300049    0.70999998    0.19000000
   16.18888855  149.37600708    0.70999998    0.19000000
   16.19222069  145.78100586    0.70999998    0.19000000
   16.19555473  160.24200439    0.70999998    0.19000000
   16.19861031  142.48300171    0.70999998    0.19000000
   16.20194435  153.97900391    0.70999998    0.19000000
   16.20472336  158.82800293    0.70999998    0.19000000
   16.20555687  150.20799255    0.70999998    0.19000000
   16.20888901  160.44099426    0.70999998    0.19000000
   16.21472359  160.44099426    0.70999998    0.19000000
   16.21888924  159.37600708    0.70999998    0.19000000
   16.22222328  157.97599792    0.70999998    0.19000000
   16.22527885  157.63400269    0.70999998    0.19000000
   16.22861099  151.34899902    0.70999998    0.19000000
   16.23194504  165.47399902    0.70999998    0.19000000
   16.23500061  152.65400696    0.70999998    0.19000000
   16.23805618  152.72099304    0.70999998    0.19000000
   16.23861122  150.80400085    0.70999998    0.19000000
   16.24194527  153.78900146    0.70999998    0.19000000
   16.24527740  150.02999878    0.70999998    0.19000000
   16.24833298  146.08799744    0.70999998    0.19000000
   16.25166702  149.41600037    0.70999998    0.19000000
   16.25777817  149.41600037    0.70999998    0.19000000
   16.26166725  151.34199524    0.70999998    0.19000000
   16.26499939  149.20199585    0.70999998    0.19000000
   16.26833344  161.61500549    0.70999998    0.19000000
   16.27138901  157.19700623    0.70999998    0.19000000
   16.27166557  157.05999756    0.70999998    0.19000000
   16.27499962  163.21800232    0.70999998    0.19000000
   16.27833366  149.34300232    0.70999998    0.19000000
   16.28166580  154.10400391    0.70999998    0.19000000
   16.28472137  155.58999634    0.70999998    0.19000000
   16.28805542  149.55900574    0.70999998    0.19000000
   16.29111099  153.08900452    0.70999998    0.19000000
   16.29444313  151.63299561    0.70999998    0.19000000
   16.30055428  151.63299561    0.70999998    0.19000000
   16.30472183  150.73500061    0.70999998    0.19000000
   16.30499840  150.30099487    0.70999998    0.19000000
   16.30833244  154.22000122    0.70999998    0.19000000
   16.31166649  160.29400635    0.70999998    0.19000000
   16.31472206  152.35699463    0.70999998    0.19000000
   16.31805611  150.35899353    0.70999998    0.19000000
   16.32139015  152.75500488    0.70999998    0.19000000
   16.32444572  150.78399658    0.70999998    0.19000000
   16.32777786  153.68600464    0.70999998    0.19000000
   16.33083344  154.65699768    0.70999998    0.19000000
   16.33416748  156.82200623    0.70999998    0.19000000
   16.33750153  162.78900146    0.70999998    0.19000000
   16.33805656  159.95500183    0.70999998    0.19000000
   16.34333420  159.95500183    0.70999998    0.19000000
   16.34749985  147.40899658    0.70999998    0.19000000
   16.35083389  153.64199829    0.70999998    0.19000000
   16.35388947  153.70700073    0.70999998    0.19000000
   16.35722351  153.54400635    0.70999998    0.19000000
   16.36027908  151.39900208    0.70999998    0.19000000
   16.36361122  155.37399292    0.70999998    0.19000000
   16.36694527  151.33000183    0.70999998    0.19000000
   16.37000084  155.07400513    0.70999998    0.19000000
   16.37138939  155.41600037    0.70999998    0.19000000
   16.37388992  153.38099670    0.70999998    0.19000000
   16.37694550  150.45700073    0.70999998    0.19000000
   16.38027763  150.87399292    0.70999998    0.19000000
   16.38611031  150.87399292    0.70999998    0.19000000
   16.39027786  160.13999939    0.70999998    0.19000000
   16.39361191  151.44999695    0.70999998    0.19000000
   16.39666748  151.73100281    0.70999998    0.19000000
   16.39999962  148.78999329    0.70999998    0.19000000
   16.40333366  140.50799561    0.70999998    0.19000000
   16.40472221  161.34300232    0.70999998    0.19000000
   16.40694427  150.78900146    0.70999998    0.19000000
   16.40999985  154.65299988    0.70999998    0.19000000
   16.41333389  157.61900330    0.70999998    0.19000000
   16.41638756  149.81799316    0.70999998    0.19000000
   16.41972160  144.48699951    0.70999998    0.19000000
   16.42305565  154.69799805    0.70999998    0.19000000
   16.42916679  154.69799805    0.70999998    0.19000000
   16.43305397  155.43099976    0.70999998    0.19000000
   16.43638802  152.88400269    0.70999998    0.19000000
   16.43805504  155.15199280    0.70999998    0.19000000
   16.44027710  149.64399719    0.70999998    0.19000000
   16.44333267  151.94900513    0.70999998    0.19000000
   16.44666672  149.51199341    0.70999998    0.19000000
   16.44972038  154.65800476    0.70999998    0.19000000
   16.45305634  153.71899414    0.70999998    0.19000000
   16.45639038  150.49899292    0.70999998    0.19000000
   16.45944595  155.46400452    0.70999998    0.19000000
   16.46277809  152.29800415    0.70999998    0.19000000
   16.46611214  152.20399475    0.70999998    0.19000000
   16.47194481  152.20399475    0.70999998    0.19000000
   16.47611237  153.96899414    0.70999998    0.19000000
   16.47916794  158.64399719    0.70999998    0.19000000
   16.48250008  149.04699707    0.70999998    0.19000000
   16.48583412  152.55400085    0.70999998    0.19000000
   16.48888969  150.38900757    0.70999998    0.19000000
   16.49222183  145.15600586    0.70999998    0.19000000
   16.49527740  153.74000549    0.70999998    0.19000000
   16.49861145  161.72599792    0.70999998    0.19000000
   16.50194359  152.53900146    0.70999998    0.19000000
   16.50472260  151.21099854    0.70999998    0.19000000
   16.50555611  153.95799255    0.70999998    0.19000000
   16.50861168  156.38999939    0.70999998    0.19000000
   16.51472282  156.38999939    0.70999998    0.19000000
   16.51888847  151.06599426    0.70999998    0.19000000
   16.52222252  145.46800232    0.70999998    0.19000000
   16.52527809  157.99099731    0.70999998    0.19000000
   16.52861023  157.50799561    0.70999998    0.19000000
   16.53166580  160.06500244    0.70999998    0.19000000
   16.53499985  152.52799988    0.70999998    0.19000000
   16.53805542  151.92999268    0.70999998    0.19000000
   16.53888893  148.72500610    0.70999998    0.19000000
   16.54194450  154.56599426    0.70999998    0.19000000
   16.54527664  147.22999573    0.70999998    0.19000000
   16.54833221  152.42900085    0.70999998    0.19000000
   16.55166626  151.86599731    0.70999998    0.19000000
   16.55749893  151.86599731    0.70999998    0.19000000
   16.56166649  156.29699707    0.70999998    0.19000000
   16.56499863  149.49400330    0.70999998    0.19000000
   16.56805611  151.39799500    0.70999998    0.19000000
   16.57139015  157.92700195    0.70999998    0.19000000
   16.57194519  153.61500549    0.70999998    0.19000000
   16.57500076  146.22900391    0.70999998    0.19000000
   16.57833481  150.06100464    0.70999998    0.19000000
   16.58139038  150.23100281    0.70999998    0.19000000
   16.58472252  159.04600525    0.70999998    0.19000000
   16.58805656  153.46499634    0.70999998    0.19000000
   16.59111214  147.47300720    0.70999998    0.19000000
   16.59444427  147.88900757    0.70999998    0.19000000
   16.60055542  147.88900757    0.70999998    0.19000000
   16.60444450  150.97200012    0.70999998    0.19000000
   16.60499954  151.68699646    0.70999998    0.19000000
   16.60833359  148.97000122    0.70999998    0.19000000
   16.61166763  147.22099304    0.70999998    0.19000000
   16.61472321  142.37800598    0.70999998    0.19000000
   16.61805534  155.18499756    0.70999998    0.19000000
   16.62138939  144.40299988    0.70999998    0.19000000
   16.62444496  149.71400452    0.70999998    0.19000000
   16.62777710  152.38200378    0.70999998    0.19000000
   16.63111115  152.83500671    0.70999998    0.19000000
   16.63416672  145.42399597    0.70999998    0.19000000
   16.63750076  144.09300232    0.70999998    0.19000000
   16.63833237  153.31100464    0.70999998    0.19000000
   16.64333344  153.31100464    0.70999998    0.19000000
   16.64749908  149.10299683    0.70999998    0.19000000
   16.65055466  154.03799438    0.70999998    0.19000000
   16.65388870  154.92199707    0.70999998    0.19000000
   16.65722275  149.21600342    0.70999998    0.19000000
   16.66027832  155.81399536    0.70999998    0.19000000
   16.66361046  149.45300293    0.70999998    0.19000000
   16.66666603  150.07000732    0.70999998    0.19000000
   16.67000008  154.99600220    0.70999998    0.19000000
   16.67166519  157.51899719    0.70999998    0.19000000
   16.67361069  153.19900513    0.70999998    0.19000000
   16.67694473  158.23800659    0.70999998    0.19000000
   16.68000031  153.84599304    0.70999998    0.19000000
   16.68610954  153.84599304    0.70999998    0.19000000
   16.69027710  150.23199463    0.70999998    0.19000000
   16.69333267  160.44500732    0.70999998    0.19000000
   16.69666672  163.18699646    0.70999998    0.19000000
   16.70000076  154.42700195    0.70999998    0.19000000
   16.70305634  160.78500366    0.70999998    0.19000000
   16.70499992  152.76899719    0.70999998    0.19000000
   16.70666695  151.47599792    0.70999998    0.19000000
   16.71000099  156.38299561    0.70999998    0.19000000
   16.71305656  156.61300659    0.70999998    0.19000000
   16.71638870  158.95799255    0.70999998    0.19000000
   16.71972275  153.98699951    0.70999998    0.19000000
   16.72277832  153.29200745    0.70999998    0.19000000
   16.72888947  153.29200745    0.70999998    0.19000000
   16.73305511  155.16000366    0.70999998    0.19000000
   16.73638916  150.15600586    0.70999998    0.19000000
   16.73833275  157.72000122    0.70999998    0.19000000
   16.73999977  153.92999268    0.70999998    0.19000000
   16.74333382  156.70899963    0.70999998    0.19000000
   16.74638939  156.38299561    0.70999998    0.19000000
   16.74972153  157.19799805    0.70999998    0.19000000
   16.75305557  158.24400330    0.70999998    0.19000000
   16.75611115  153.44900513    0.70999998    0.19000000
   16.75944519  165.50000000    0.70999998    0.19000000
   16.76250076  152.44000244    0.70999998    0.19000000
   16.76583290  147.52299500    0.70999998    0.19000000
   16.77166557  147.52299500    0.70999998    0.19000000
   16.77583313  150.18699646    0.70999998    0.19000000
   16.77916718  151.39300537    0.70999998    0.19000000
   16.78249931  156.58500671    0.70999998    0.19000000
   16.78555489  154.08099365    0.70999998    0.19000000
   16.78888893  153.44000244    0.70999998    0.19000000
   16.79194450  148.99699402    0.70999998    0.19000000
   16.79527664  155.39799500    0.70999998    0.19000000
   16.79861069  150.68600464    0.70999998    0.19000000
   16.80166626  153.78599548    0.70999998    0.19000000
   16.80499840  155.87500000    0.70999998    0.19000000
   16.80555534  147.46899414    0.70999998    0.19000000
   16.80861092  152.75799561    0.70999998    0.19000000
   16.81472206  152.75799561    0.70999998    0.19000000
   16.81888962  151.66700745    0.70999998    0.19000000
   16.82194519  155.05200195    0.70999998    0.19000000
   16.82527924  153.25399780    0.70999998    0.19000000
   16.82833481  150.54800415    0.70999998    0.19000000
   16.83166695  154.26600647    0.70999998    0.19000000
   16.83500099  150.42399597    0.70999998    0.19000000
   16.83805656  159.47900391    0.70999998    0.19000000
   16.83889008  152.56900024    0.70999998    0.19000000
   16.84194565  159.76300049    0.70999998    0.19000000
   16.84500122  159.04499817    0.70999998    0.19000000
   16.84833336  155.42300415    0.70999998    0.19000000
   16.85138893  148.65100098    0.70999998    0.19000000
   16.85750008  148.65100098    0.70999998    0.19000000
   16.86166763  150.80700684    0.70999998    0.19000000
   16.86472321  157.30000305    0.70999998    0.19000000
   16.86805534  148.25500488    0.70999998    0.19000000
   16.87138939  150.41299438    0.70999998    0.19000000
   16.87222290  158.60499573    0.70999998    0.19000000
   16.87500000  153.79299927    0.70999998    0.19000000
   16.87805557  159.00599670    0.70999998    0.19000000
   16.88138962  151.37300110    0.70999998    0.19000000
   16.88444519  155.72700500    0.70999998    0.19000000
   16.88777733  150.90899658    0.70999998    0.19000000
   16.89111137  157.44900513    0.70999998    0.19000000
   16.89416695  152.83599854    0.70999998    0.19000000
   16.90027809  152.83599854    0.70999998    0.19000000
   16.90444374  151.33200073    0.70999998    0.19000000
   16.90555573  147.67999268    0.70999998    0.19000000
   16.90833282  156.88900757    0.70999998    0.19000000
   16.91138840  143.49899292    0.70999998    0.19000000
   16.91472244  148.99499512    0.70999998    0.19000000
   16.91777802  149.00399780    0.70999998    0.19000000
   16.92111015  146.67100525    0.70999998    0.19000000
   16.92444420  147.08000183    0.70999998    0.19000000
   16.92749977  153.26600647    0.70999998    0.19000000
   16.93083191  149.47799683    0.70999998    0.19000000
   16.93416595  154.44700623    0.70999998    0.19000000
   16.93722153  148.96499634    0.70999998    0.19000000
   16.93888855  157.83500671    0.70999998    0.19000000
   16.94305420  157.83500671    0.70999998    0.19000000
   16.94722176  161.11900330    0.70999998    0.19000000
   16.95055580  143.29299927    0.70999998    0.19000000
   16.95388985  157.25300598    0.70999998    0.19000000
   16.95694542  151.48899841    0.70999998    0.19000000
   16.96027946  149.95300293    0.70999998    0.19000000
   16.96361160  152.27600098    0.70999998    0.19000000
   16.96666718  147.62199402    0.70999998    0.19000000
   16.97000122  159.93699646    0.70999998    0.19000000
   16.97222328  148.80200195    0.70999998    0.19000000
   16.97361183  154.64100647    0.70999998    0.19000000
   16.97666740  156.49299622    0.70999998    0.19000000
   16.98000145  156.13699341    0.70999998    0.19000000
   16.98611069  156.13699341    0.70999998    0.19000000
   16.99027824  159.48199463    0.70999998    0.19000000
   16.99333382  160.85899353    0.70999998    0.19000000
   16.99666786  145.22799683    0.70999998    0.19000000
   17.00083351  149.64199829    0.70999998    0.19000000
   17.00416756  151.15699768    0.70999998    0.19000000
   17.00555611  148.35000610    0.70999998    0.19000000
   17.00777817  153.12199402    0.70999998    0.19000000
   17.01222229  148.89100647    0.70999998    0.19000000
   17.01555634  151.96800232    0.70999998    0.19000000
   17.01888847  159.55799866    0.70999998    0.19000000
   17.02194405  156.47300720    0.70999998    0.19000000
   17.02888870  156.47300720    0.70999998    0.19000000
   17.03361130  155.97399902    0.70999998    0.19000000
   17.03694344  154.80599976    0.70999998    0.19000000
   17.03888893  151.50000000    0.70999998    0.19000000
   17.04055595  149.93899536    0.70999998    0.19000000
   17.04361153  150.60800171    0.70999998    0.19000000
   17.04694366  150.88099670    0.70999998    0.19000000
   17.04999924  150.12399292    0.70999998    0.19000000
   17.05333328  152.04899597    0.70999998    0.19000000
   17.05777740  147.32000732    0.70999998    0.19000000
   17.06110954  151.16900635    0.70999998    0.19000000
   17.06444359  156.53799438    0.70999998    0.19000000
   17.06750107  148.24000549    0.70999998    0.19000000
   17.07166672  148.24000549    0.70999998    0.19000000
   17.09083366  155.90299988    0.70999998    0.19000000
   17.09388924  152.55099487    0.70999998    0.19000000
   17.09722328  154.16799927    0.70999998    0.19000000
   17.10055542  147.00000000    0.70999998    0.19000000
   17.10361099  149.57400513    0.70999998    0.19000000
   17.10666656  152.71299744    0.70999998    0.19000000
   17.10722351  151.04499817    0.70999998    0.19000000
   17.11055565  163.22500610    0.70999998    0.19000000
   17.11499977  163.22500610    0.70999998    0.19000000
   17.11916733  153.09700012    0.70999998    0.19000000
   17.12249947  149.10099792    0.70999998    0.19000000
   17.12638855  148.35000610    0.70999998    0.19000000
   17.12972260  146.52699280    0.70999998    0.19000000
   17.13277817  150.99099731    0.70999998    0.19000000
   17.13777733  149.19700623    0.70999998    0.19000000
   17.13999939  235.92100525    0.70999998    0.19000000
   17.14138794  148.78300476    0.70999998    0.19000000
   17.14472198  149.02000427    0.70999998    0.19000000
   17.15666580  157.93200684    0.00000000    0.00000000
   17.15999985  144.79100037    0.70999998    0.19000000
   17.16611099  144.79100037    0.70999998    0.19000000
   17.17027664  147.49299622    0.70999998    0.19000000
   17.17333221  151.41299438    0.70999998    0.19000000
   17.17388916  148.24000549    0.70999998    0.19000000
   17.17722130  151.34899902    0.70999998    0.19000000
   17.18027687  152.99299622    0.70999998    0.19000000
   17.18361092  149.88299561    0.70999998    0.19000000
   17.18694305  152.40899658    0.70999998    0.19000000
   17.18999863  148.88699341    0.70999998    0.19000000
   17.19333267  150.28799438    0.70999998    0.19000000
   17.19638824  151.60499573    0.70999998    0.19000000
   17.19972038  151.58299255    0.70999998    0.19000000
   17.20305634  150.67199707    0.70999998    0.19000000
   17.20888901  150.67199707    0.70999998    0.19000000
   17.21305656  152.22900391    0.70999998    0.19000000
   17.21638870  148.81799316    0.70999998    0.19000000
   17.21972275  157.19700623    0.70999998    0.19000000
   17.22277832  155.12300110    0.70999998    0.19000000
   17.22611237  153.77600098    0.70999998    0.19000000
   17.22944450  144.20799255    0.70999998    0.19000000
   17.23250008  146.38999939    0.70999998    0.19000000
   17.23583412  148.88699341    0.70999998    0.19000000
   17.23888969  143.58799744    0.70999998    0.19000000
   17.23999977  146.58099365    0.70999998    0.19000000
   17.24250031  152.87300110    0.70999998    0.19000000
   17.24583435  149.68899536    0.70999998    0.19000000
   17.26111031  149.68899536    0.70999998    0.19000000
   17.26527786  153.16499329    0.70999998    0.19000000
   17.27805519  149.12300110    0.00000000    0.00000000
   17.28777695  153.52600098    0.70999998    0.19000000
   17.29083252  148.62199402    0.70999998    0.19000000
   17.29722214  148.62199402    0.70999998    0.19000000
   17.30999947  147.38200378    0.00000000    0.00000000
   17.31472206  145.24400330    0.70999998    0.19000000
   17.31638718  157.93499756    0.70999998    0.19000000
   17.31972313  149.33900452    0.70999998    0.19000000
   17.33222389  148.36700439    0.00000000    0.00000000
   17.33555603  157.55499268    0.70999998    0.19000000
   17.35111237  157.55499268    0.70999998    0.19000000
   17.35527802  157.13800049    0.70999998    0.19000000
   17.36777878  149.18800354    0.00000000    0.00000000
   17.37111092  150.13900757    0.70999998    0.19000000
   17.37416649  138.41799927    0.70999998    0.19000000
   17.37750053  149.91499329    0.70999998    0.19000000
   17.38083267  140.29600525    0.70999998    0.19000000
   17.38527679  140.29600525    0.70999998    0.19000000
   17.38944435  148.05000305    0.70999998    0.19000000
   17.39277840  144.39300537    0.70999998    0.19000000
   17.39583397  157.58000183    0.70999998    0.19000000
   17.39916611  147.89300537    0.70999998    0.19000000
   17.40222168  154.26800537    0.70999998    0.19000000
   17.40555573  149.88200378    0.70999998    0.19000000
   17.40888786  148.61799622    0.70999998    0.19000000
   17.41194344  152.46899414    0.70999998    0.19000000
   17.41527748  148.52400208    0.70999998    0.19000000
   17.41944313  153.33900452    0.70999998    0.19000000
   17.42027664  151.62199402    0.70999998    0.19000000
   17.42305565  154.35099792    0.70999998    0.19000000
   17.42888832  154.35099792    0.70999998    0.19000000
   17.43305397  146.93699646    0.70999998    0.19000000
   17.43610954  149.36199951    0.70999998    0.19000000
   17.43944359  151.85699463    0.70999998    0.19000000
   17.44277763  147.45199585    0.70999998    0.19000000
   17.44583321  153.03700256    0.70999998    0.19000000
   17.44916534  150.07499695    0.70999998    0.19000000
   17.46111107  156.23500061    0.00000000    0.00000000
   17.46166801  154.57400513    0.70999998    0.19000000
   17.46472359  152.49499512    0.70999998    0.19000000
   17.46777916  151.85499573    0.70999998    0.19000000
   17.47194481  151.85499573    0.70999998    0.19000000
   17.47611237  157.36099243    0.70999998    0.19000000
   17.47944450  157.91900635    0.70999998    0.19000000
   17.48250008  150.58900452    0.70999998    0.19000000
   17.48722267  155.35499573    0.70999998    0.19000000
   17.49027824  150.54200745    0.70999998    0.19000000
   17.49361229  150.85699463    0.70999998    0.19000000
   17.49500084  149.12100220    0.70999998    0.19000000
   17.49722290  155.67300415    0.70999998    0.19000000
   17.50027847  150.67599487    0.70999998    0.19000000
   17.50361061  152.61500549    0.70999998    0.19000000
   17.50694466  159.03300476    0.70999998    0.19000000
   17.51000023  155.93600464    0.70999998    0.19000000
   17.51472282  155.93600464    0.70999998    0.19000000
   17.51888847  147.53199768    0.70999998    0.19000000
   17.52222252  159.69799805    0.70999998    0.19000000
   17.52527809  149.15899658    0.70999998    0.19000000
   17.52833366  156.80700684    0.70999998    0.19000000
   17.52916718  160.13299561    0.70999998    0.19000000
   17.53222275  159.09399414    0.70999998    0.19000000
   17.53555489  156.33500671    0.70999998    0.19000000
   17.53861046  152.88000488    0.70999998    0.19000000
   17.54194450  150.81599426    0.70999998    0.19000000
   17.54527664  154.10800171    0.70999998    0.19000000
   17.54833221  150.71200562    0.70999998    0.19000000
   17.55166626  144.72500610    0.70999998    0.19000000
   17.55777740  144.72500610    0.70999998    0.19000000
   17.56166649  151.71600342    0.70999998    0.19000000
   17.56499863  150.71200562    0.70999998    0.19000000
   17.56833458  158.05900574    0.70999998    0.19000000
   17.57139015  151.03799438    0.70999998    0.19000000
   17.57472229  153.95899963    0.70999998    0.19000000
   17.57805634  149.99200439    0.70999998    0.19000000
   17.58111191  160.24699402    0.70999998    0.19000000
   17.58444595  156.57400513    0.70999998    0.19000000
   17.58750153  160.63600159    0.70999998    0.19000000
   17.59083366  154.90100098    0.70999998    0.19000000
   17.59416771  155.11500549    0.70999998    0.19000000
   17.59500122  150.35099792    0.70999998    0.19000000
   17.60055542  150.35099792    0.70999998    0.19000000
   17.60472298  149.25999451    0.70999998    0.19000000
   17.60777855  153.08799744    0.70999998    0.19000000
   17.61111069  150.26699829    0.70999998    0.19000000
   17.61444473  145.97799683    0.70999998    0.19000000
   17.61750031  151.85299683    0.70999998    0.19000000
   17.62083435  156.00199890    0.70999998    0.19000000
   17.62416649  151.80799866    0.70999998    0.19000000
   17.62722206  144.13299561    0.70999998    0.19000000
   17.62833405  149.75399780    0.70999998    0.19000000
   17.63111115  150.11999512    0.70999998    0.19000000
   17.63416672  152.54499817    0.70999998    0.19000000
   17.63750076  156.87699890    0.70999998    0.19000000
   17.64333344  156.87699890    0.70999998    0.19000000
   17.64749908  149.33099365    0.70999998    0.19000000
   17.65083313  149.82800293    0.70999998    0.19000000
   17.65388870  139.51400757    0.70999998    0.19000000
   17.65722275  150.44400024    0.70999998    0.19000000
   17.66027832  146.26300049    0.70999998    0.19000000
   17.66166687  153.61799622    0.70999998    0.19000000
   17.66416550  158.97500610    0.70999998    0.19000000
   17.66722107  160.86799622    0.70999998    0.19000000
   17.67055511  151.72399902    0.70999998    0.19000000
   17.67388916  152.85600281    0.70999998    0.19000000
   17.67694473  156.41600037    0.70999998    0.19000000
   17.68027687  160.67599487    0.70999998    0.19000000
   17.68610954  160.67599487    0.70999998    0.19000000
   17.69027710  156.06700134    0.70999998    0.19000000
   17.69361115  164.70399475    0.70999998    0.19000000
   17.69499969  154.45799255    0.70999998    0.19000000
   17.69722176  156.99699402    0.70999998    0.19000000
   17.70027924  149.28300476    0.70999998    0.19000000
   17.70361137  146.45399475    0.70999998    0.19000000
   17.70694542  146.86399841    0.70999998    0.19000000
   17.71000099  141.79499817    0.70999998    0.19000000
   17.71333504  152.11599731    0.70999998    0.19000000
   17.71638870  147.71400452    0.70999998    0.19000000
   17.71972275  147.51100159    0.70999998    0.19000000
   17.72305679  149.18899536    0.70999998    0.19000000
   17.72916794  149.18899536    0.70999998    0.19000000
   17.73305511  156.32800293    0.70999998    0.19000000
   17.73638916  147.58200073    0.70999998    0.19000000
   17.73972321  145.83399963    0.70999998    0.19000000
   17.74277878  157.12199402    0.70999998    0.19000000
   17.74611092  152.74299622    0.70999998    0.19000000
   17.74944496  151.57400513    0.70999998    0.19000000
   17.75250053  154.71699524    0.70999998    0.19000000
   17.75583267  151.61399841    0.70999998    0.19000000
   17.75888824  148.59599304    0.70999998    0.19000000
   17.76166725  161.01199341    0.70999998    0.19000000
   17.76277733  157.49400330    0.70999998    0.19000000
   17.76583290  162.12100220    0.70999998    0.19000000
   17.77194405  162.12100220    0.70999998    0.19000000
   17.77611160  152.99600220    0.70999998    0.19000000
   17.77916718  145.61500549    0.70999998    0.19000000
   17.78249931  153.62399292    0.70999998    0.19000000
   17.78583336  156.60600281    0.70999998    0.19000000
   17.78888893  152.59700012    0.70999998    0.19000000
   17.79222107  147.10400391    0.70999998    0.19000000
   17.79500008  144.95799255    0.70999998    0.19000000
   17.79583359  154.37100220    0.70999998    0.19000000
   17.79888916  152.13800049    0.70999998    0.19000000
   17.80222130  156.16000366    0.70999998    0.19000000
   17.80555534  158.03999329    0.70999998    0.19000000
   17.80861092  144.93899536    0.70999998    0.19000000
   17.81472206  144.93899536    0.70999998    0.19000000
   17.81888962  145.59300232    0.70999998    0.19000000
   17.82222366  150.52999878    0.70999998    0.19000000
   17.82527924  157.57400513    0.70999998    0.19000000
   17.82833481  150.39999390    0.70999998    0.19000000
   17.82916832  158.64900208    0.70999998    0.19000000
   17.83222389  151.89199829    0.70999998    0.19000000
   17.83555603  149.67100525    0.70999998    0.19000000
   17.83916664  152.62500000    0.70999998    0.19000000
   17.84222221  160.81300354    0.70999998    0.19000000
   17.84555626  147.28399658    0.70999998    0.19000000
   17.84889030  146.19700623    0.70999998    0.19000000
   17.85194397  147.22300720    0.70999998    0.19000000
   17.85750008  147.22300720    0.70999998    0.19000000
   17.86166763  146.67999268    0.70999998    0.19000000
   17.86499977  146.84700012    0.70999998    0.19000000
   17.86833382  151.10499573    0.70999998    0.19000000
   17.87138939  136.43200684    0.70999998    0.19000000
   17.87472153  147.52999878    0.70999998    0.19000000
   17.87777710  145.03199768    0.70999998    0.19000000
   17.88111115  153.20500183    0.70999998    0.19000000
   17.88444519  156.32600403    0.70999998    0.19000000
   17.88750076  149.18400574    0.70999998    0.19000000
   17.89083290  149.47999573    0.70999998    0.19000000
   17.89416695  141.81599426    0.70999998    0.19000000
   17.89500046  154.12699890    0.70999998    0.19000000
   17.90027809  154.12699890    0.70999998    0.19000000
   17.90444374  152.17799377    0.70999998    0.19000000
   17.90777779  146.08599854    0.70999998    0.19000000
   17.91110992  146.75900269    0.70999998    0.19000000
   17.91416550  152.70899963    0.70999998    0.19000000
   17.91749954  139.20300293    0.70999998    0.19000000
   17.92055511  155.22099304    0.70999998    0.19000000
   17.92388916  148.97900391    0.70999998    0.19000000
   17.92722130  148.51600647    0.70999998    0.19000000
   17.92833328  147.12800598    0.70999998    0.19000000
   17.93083191  146.33000183    0.70999998    0.19000000
   17.93388748  140.84599304    0.70999998    0.19000000
   17.93722153  147.29699707    0.70999998    0.19000000
   17.95000076  147.29699707    0.70999998    0.19000000
   17.95388985  156.90100098    0.70999998    0.19000000
   17.95722389  147.17900085    0.70999998    0.19000000
   17.96055603  146.06799316    0.70999998    0.19000000
   17.96361160  155.80599976    0.70999998    0.19000000
   17.96555710  152.46899414    0.70999998    0.19000000
   17.96750069  145.60600281    0.70999998    0.19000000
   17.97055626  155.54899597    0.70999998    0.19000000
   17.97389030  147.07899475    0.70999998    0.19000000
   17.97694588  149.11700439    0.70999998    0.19000000
   17.98027802  149.24099731    0.70999998    0.19000000
   17.99555588  149.24099731    0.70999998    0.19000000
