    HOUR (UT)   FLARE FACTOR    SKY TESTER    SUN TESTER
   12.43361092   -1.00000000   -1.00000000   -1.00000000
   12.49861145  260.08099365    2.03999996    2.05999994
   12.50166702  264.93798828    2.01999998    2.05999994
   12.50500011  285.27099609    2.01999998    2.05999994
   12.50833321  247.92799377    2.01999998    2.05999994
   12.51138878  304.50100708    2.01999998    2.05999994
   12.51472187  275.90399170    2.01999998    2.05999994
   12.51888847  275.90399170    2.00000000    2.05999994
   12.52305508  286.56799316    1.98000002    2.07999992
   12.52611065  277.76000977    1.98000002    2.07999992
   12.52944374  285.31298828    1.98000002    2.07999992
   12.53166676  292.67700195    1.98000002    2.07999992
   12.53305531  256.95800781    1.98000002    2.07999992
   12.53638935  283.90798950    1.96000004    2.07999992
   12.53944492  309.82998657    1.96000004    2.07999992
   12.54305553  295.78698730    1.96000004    2.07999992
   12.54638958  290.41500854    1.96000004    2.07999992
   12.54944515  299.54501343    1.94000006    2.09999990
   12.55277824  291.01000977    1.89999998    2.09999990
   12.55611134  288.86199951    1.89999998    2.09999990
   12.56166649  288.86199951    1.88000000    2.09999990
   12.56583309  288.92700195    1.88000000    2.09999990
   12.56888866  250.06799316    1.86000001    2.11999989
   12.57222176  277.67001343    1.86000001    2.09999990
   12.57555580  312.38800049    1.86000001    2.09999990
   12.57861137  326.28298950    1.86000001    2.09999990
   12.58194447  420.83700562    1.85000002    2.11999989
   12.58388901  415.12600708    1.85000002    2.11999989
   12.58527756  392.69500732    1.85000002    2.11999989
   12.58666611  388.39999390    1.85000002    2.11999989
   12.58805561  418.41000366    1.85000002    2.11999989
   12.58944416  334.25900269    1.85000002    2.13000011
   12.58944416  277.67001343    1.86000001    2.09999990
   12.58972168  312.38800049    1.86000001    2.09999990
   12.58972168  326.28298950    1.86000001    2.09999990
   12.58972168  420.83700562    1.85000002    2.11999989
   12.59000015  299.54501343    1.94000006    2.09999990
   12.59000015  291.01000977    1.89999998    2.09999990
   12.59000015  288.86199951    1.89999998    2.09999990
   12.59027767  288.92700195    1.88000000    2.09999990
   12.59027767  250.06799316    1.86000001    2.11999989
   12.59083271  404.56900024    1.85000002    2.13000011
   12.59277725  468.90100098    1.85000002    2.11999989
   12.59416676  434.04299927    1.85000002    2.11999989
   12.59555531  482.26300049    1.85000002    2.11999989
   12.59694386  420.04901123    1.83000004    2.11999989
   12.59833336  307.86401367    1.83000004    2.13000011
   12.59833336  404.56900024    1.85000002    2.13000011
   12.59888840  299.57901001    1.85000002    2.11999989
   12.60222244  388.86099243    1.83000004    2.11999989
   12.60555553  421.57699585    1.83000004    2.11999989
   12.60750008  367.93099976    1.83000004    2.11999989
   12.60888958  381.77801514    1.83000004    2.11999989
   12.61027813  366.14898682    1.83000004    2.11999989
   12.61166668  416.20098877    1.83000004    2.11999989
   12.61305618  458.16299438    1.83000004    2.11999989
   12.61444473  427.21798706    1.83000004    2.11999989
   12.61583328  394.58200073    1.83000004    2.11999989
   12.61722279  411.11300659    1.83000004    2.11999989
   12.61861134  382.77301025    1.80999994    2.13000011
   12.61999989  422.13598633    1.80999994    2.11999989
   12.62138939  442.93899536    1.80999994    2.13000011
   12.62277794  411.51800537    1.80999994    2.13000011
   12.62416649  476.69699097    1.80999994    2.13000011
   12.62555599  408.34799194    1.80999994    2.13000011
   12.62694454  446.14999390    1.80999994    2.13000011
   12.62833309  417.71701050    1.80999994    2.13000011
   12.62972260  411.19601440    1.80999994    2.13000011
   12.63111115  456.63101196    1.80999994    2.13000011
   12.63249969  391.19699097    1.78999996    2.13000011
   12.63388920  490.16198730    1.80999994    2.15000010
   12.63527775  450.63598633    1.80999994    2.15000010
   12.63666630  425.19500732    1.80999994    2.15000010
   12.63805580  384.04098511    1.78999996    2.15000010
   12.63944435  342.48199463    1.78999996    2.15000010
   12.63944435  299.57901001    1.85000002    2.11999989
   12.63944435  388.86099243    1.83000004    2.11999989
   12.63972187  421.57699585    1.83000004    2.11999989
   12.64027786  474.98999023    1.78999996    2.15000010
   12.64222240  425.04901123    1.78999996    2.13000011
   12.64361095  409.26800537    1.78999996    2.13000011
   12.64499950  480.05398560    1.78999996    2.13000011
   12.64638901  448.70001221    1.78999996    2.13000011
   12.64777756  433.06600952    1.78999996    2.13000011
   12.64916611  469.31698608    1.78999996    2.13000011
   12.65055561  478.34201050    1.76999998    2.13000011
   12.65194416  480.21200562    1.76999998    2.13000011
   12.65333271  477.14199829    1.76999998    2.13000011
   12.65472221  448.05200195    1.76999998    2.15000010
   12.65611076  425.65899658    1.76999998    2.15000010
   12.65749931  396.58599854    1.75000000    2.17000008
   12.65888882  460.02200317    1.75000000    2.17000008
   12.66027737  484.45901489    1.75000000    2.17000008
   12.66166592  525.46099854    1.75000000    2.15000010
   12.66305542  502.35900879    1.75000000    2.15000010
   12.66444397  507.92001343    1.75000000    2.15000010
   12.66583252  472.68399048    1.76999998    2.15000010
   12.66722298  463.09899902    1.76999998    2.15000010
   12.66861153  522.20800781    1.76999998    2.15000010
   12.67000008  350.43600464    1.76999998    2.15000010
   12.67138958  403.33200073    1.75000000    2.17000008
   12.67277813  464.02398682    1.75000000    2.15000010
   12.67416668  475.89999390    1.75000000    2.17000008
   12.67555618  443.66799927    1.75000000    2.17000008
   12.67694473  424.44601440    1.75000000    2.17000008
   12.67833328  480.80599976    1.75000000    2.17000008
   12.67972279  427.08300781    1.75000000    2.17000008
   12.68111134  455.41500854    1.75000000    2.17000008
   12.68249989  404.07598877    1.75000000    2.15000010
   12.68388939  491.92700195    1.73000002    2.17000008
   12.68527794  451.53399658    1.73000002    2.17000008
   12.68666649  445.73699951    1.73000002    2.17000008
   12.68805599  462.10900879    1.75000000    2.17000008
   12.68944454  412.34201050    1.75000000    2.17000008
   12.69083309  375.80700684    1.75000000    2.17000008
   12.69222260  390.77301025    1.73000002    2.17000008
   12.69361115  511.88500977    1.73000002    2.17000008
   12.69499969  395.39801025    1.73000002    2.17000008
   12.69638920  400.48498535    1.73000002    2.17000008
   12.69777775  411.01800537    1.73000002    2.17000008
   12.69916630  442.58300781    1.73000002    2.17000008
   12.70055580  522.59100342    1.73000002    2.17000008
   12.70194435  440.25000000    1.73000002    2.17000008
   12.70333290  385.18399048    1.71000004    2.17000008
   12.70472240  446.97100830    1.71000004    2.17000008
   12.70611095  482.45498657    1.71000004    2.17000008
   12.70749950  382.38198853    1.71000004    2.17000008
   12.70888901  476.86099243    1.71000004    2.17000008
   12.71027756  452.10000610    1.71000004    2.17000008
   12.71166611  467.03298950    1.71000004    2.17000008
   12.71305561  495.65701294    1.71000004    2.17000008
   12.71444416  407.44601440    1.71000004    2.17000008
   12.71583271  431.36099243    1.71000004    2.17000008
   12.71722221  475.92599487    1.71000004    2.17000008
   12.71861076  441.41699219    1.71000004    2.17000008
   12.71999931  463.18600464    1.71000004    2.19000006
   12.72138882  399.85800171    1.69000006    2.19000006
   12.72277737  438.32299805    1.71000004    2.17000008
   12.72416592  515.13897705    1.71000004    2.17000008
   12.72555542  470.50000000    1.71000004    2.17000008
   12.72694397  438.08099365    1.69000006    2.19000006
   12.72833252  379.43798828    1.69000006    2.19000006
   12.72972202  440.21499634    1.69000006    2.19000006
   12.73111057  371.99899292    1.69000006    2.19000006
   12.73249912  431.64898682    1.69000006    2.19000006
   12.73388958  456.99899292    1.69000006    2.19000006
   12.73527813  451.14599609    1.69000006    2.19000006
   12.73666668  411.55398560    1.69000006    2.19000006
   12.73805618  327.45300293    1.69000006    2.21000004
   12.73805618  474.98999023    1.78999996    2.15000010
   12.73861122  389.20498657    1.69000006    2.21000004
   12.74194431  381.53201294    1.66999996    2.19000006
   12.74527836  404.24301147    1.66999996    2.19000006
   12.74722290  433.04901123    1.66999996    2.19000006
   12.74861145  446.37899780    1.66999996    2.19000006
   12.75000000  423.32901001    1.66999996    2.21000004
   12.75138855  371.23400879    1.66999996    2.21000004
   12.75277805  376.64599609    1.66999996    2.21000004
   12.75416660  371.84799194    1.66999996    2.19000006
   12.75555515  387.37500000    1.66999996    2.19000006
   12.75694466  388.79299927    1.64999998    2.21000004
   12.75833321  377.51098633    1.64999998    2.21000004
   12.75972176  378.49301147    1.64999998    2.21000004
   12.76111126  365.62500000    1.64999998    2.21000004
   12.76249981  376.92999268    1.64999998    2.21000004
   12.76388931  427.12899780    1.64999998    2.21000004
   12.76527786  341.50299072    1.64999998    2.21000004
   12.76527786  389.20498657    1.69000006    2.21000004
   12.76527786  381.53201294    1.66999996    2.19000006
   12.76555538  404.24301147    1.66999996    2.19000006
   12.76611137  378.94900513    1.64999998    2.21000004
   12.76916599  345.51199341    1.61000001    2.21000004
   12.77250004  389.05499268    1.61000001    2.21000004
   12.77583313  342.88198853    1.60000002    2.23000002
   12.77888870  424.56399536    1.60000002    2.23000002
   12.78111076  390.68899536    1.60000002    2.23000002
   12.78222179  367.69100952    1.60000002    2.23000002
   12.78361130  359.57998657    1.60000002    2.23000002
   12.78500080  368.51901245    1.60000002    2.21000004
   12.78638935  334.60699463    1.60000002    2.23000002
   12.78666687  378.94900513    1.64999998    2.21000004
   12.78666687  345.51199341    1.61000001    2.21000004
   12.78666687  389.05499268    1.61000001    2.21000004
   12.78694534  342.88198853    1.60000002    2.23000002
   12.78694534  424.56399536    1.60000002    2.23000002
   12.78750038  396.38000488    1.61000001    2.23000002
   12.79083347  342.46301270    1.60000002    2.23000002
   12.79388905  379.00698853    1.60000002    2.23000002
   12.79722309  371.25900269    1.61000001    2.23000002
   12.80055618  337.68701172    1.61000001    2.23000002
   12.80722237  337.68701172    1.60000002    2.23000002
   12.81138897  374.78601074    1.60000002    2.23000002
   12.81472206  459.65701294    1.60000002    2.23000002
   12.81666660  481.18798828    1.60000002    2.23000002
   12.81805515  407.56100464    1.60000002    2.23000002
   12.81944466  460.66299438    1.60000002    2.23000002
   12.82083321  492.01599121    1.60000002    2.23000002
   12.82222176  414.98699951    1.58000004    2.23000002
   12.82361126  438.35501099    1.60000002    2.23000002
   12.82499981  434.28100586    1.58000004    2.23000002
   12.82638836  385.34500122    1.58000004    2.23000002
   12.82777786  414.98098755    1.58000004    2.23000002
   12.82916641  440.56399536    1.58000004    2.25000000
   12.83055592  452.18301392    1.58000004    2.25000000
   12.83194447  440.80700684    1.58000004    2.25000000
   12.83333302  448.30899048    1.58000004    2.23000002
   12.83472157  438.97698975    1.58000004    2.23000002
   12.83611107  460.58801270    1.58000004    2.23000002
   12.83749962  437.06698608    1.58000004    2.25000000
   12.83888817  441.25601196    1.58000004    2.25000000
   12.84027767  406.50799561    1.58000004    2.25000000
   12.84166622  439.72000122    1.55999994    2.23000002
   12.84305477  449.47399902    1.55999994    2.23000002
   12.84444427  374.17001343    1.55999994    2.23000002
   12.84583282  427.30999756    1.55999994    2.25000000
   12.84722233  398.12500000    1.55999994    2.25000000
   12.84861088  410.11401367    1.55999994    2.25000000
   12.85000038  371.35501099    1.55999994    2.25000000
   12.85138893  386.15499878    1.55999994    2.25000000
   12.85277843  354.79901123    1.55999994    2.25000000
   12.85416698  368.44601440    1.55999994    2.25000000
   12.85555553  399.25201416    1.55999994    2.25000000
   12.85694504  384.78201294    1.55999994    2.25000000
   12.85833359  402.02499390    1.55999994    2.25000000
   12.85972214  360.11499023    1.55999994    2.25000000
   12.86111164  371.16699219    1.55999994    2.25000000
   12.86250019  364.82101440    1.53999996    2.25000000
   12.86388969  392.43200684    1.53999996    2.25000000
   12.86527824  327.65899658    1.53999996    2.26999998
   12.86527824  396.38000488    1.61000001    2.23000002
   12.86527824  342.46301270    1.60000002    2.23000002
   12.86555576  379.00698853    1.60000002    2.23000002
   12.86555576  371.25900269    1.61000001    2.23000002
   12.86555576  337.68701172    1.61000001    2.23000002
   12.86583328  374.78601074    1.60000002    2.23000002
   12.86583328  459.65701294    1.60000002    2.23000002
   12.86638927  362.19100952    1.53999996    2.26999998
   12.86972237  373.99798584    1.51999998    2.26999998
   12.87277794  304.31698608    1.51999998    2.25000000
   12.87611103  329.08801270    1.51999998    2.26999998
   12.87944412  362.31298828    1.51999998    2.26999998
   12.88611126  362.31298828    1.50000000    2.26999998
   12.89000034  358.40301514    1.50000000    2.26999998
   12.89333344  362.87899780    1.50000000    2.26999998
   12.89666653  353.99301147    1.48000002    2.26999998
   12.89916611  318.21301270    1.48000002    2.26999998
   12.90027714  335.68099976    1.48000002    2.26999998
   12.90361118  347.04800415    1.48000002    2.26999998
   12.90694427  315.74099731    1.48000002    2.26999998
   12.90999985  313.28399658    1.46000004    2.28999996
   12.91333294  336.86898804    1.46000004    2.28999996
   12.91638851  301.02398682    1.44000006    2.28999996
   12.91972256  293.95999146    1.44000006    2.26999998
   12.92305565  300.20901489    1.44000006    2.26999998
   12.92888927  300.20901489    1.46000004    2.28999996
   12.93305588  303.10900879    1.44000006    2.28999996
   12.93611145  277.26098633    1.41999996    2.28999996
   12.93944454  279.26901245    1.41999996    2.28999996
   12.94277763  263.52200317    1.39999998    2.28999996
   12.94583321  269.81698608    1.39999998    2.28999996
   12.94916630  283.78900146    1.39999998    2.28999996
   12.95249939  271.86099243    1.38000000    2.30999994
   12.95555496  279.35501099    1.38000000    2.28999996
   12.95888901  271.70401001    1.36000001    2.30999994
   12.96194458  256.10198975    1.36000001    2.30999994
   12.96527767  266.62701416    1.34000003    2.28999996
   12.96583271  266.07101440    1.36000001    2.30999994
   12.97166634  266.07101440    1.36000001    2.30999994
   12.97583294  260.90798950    1.36000001    2.30999994
   12.97916603  258.07800293    1.36000001    2.30999994
   12.98222160  265.14700317    1.36000001    2.30999994
   12.98555565  251.24299622    1.36000001    2.30999994
   12.98861122  233.03399658    1.34000003    2.30999994
   12.99194431  265.18600464    1.34000003    2.30999994
   12.99527836  269.53500366    1.34000003    2.30999994
   12.99833393  244.43800354    1.34000003    2.30999994
   12.99916649  270.04299927    1.34000003    2.30999994
   13.00222206  287.64300537    1.34000003    2.30999994
   13.00527763  249.29299927    1.33000004    2.32999992
   13.00861073  264.58999634    1.33000004    2.32999992
   13.01444435  264.58999634    1.33000004    2.32999992
   13.01861095  257.46200562    1.33000004    2.32999992
   13.02194405  255.84500122    1.33000004    2.32999992
   13.02499962  247.16700745    1.33000004    2.30999994
   13.02833271  247.03399658    1.33000004    2.32999992
   13.03166676  248.15899658    1.30999994    2.32999992
   13.03249931  263.80398560    1.30999994    2.32999992
   13.03527832  242.27699280    1.30999994    2.32999992
   13.03833389  249.90299988    1.30999994    2.32999992
   13.04166698  251.00500488    1.30999994    2.34999990
   13.04500008  241.29699707    1.30999994    2.32999992
   13.04805565  251.22900391    1.30999994    2.32999992
   13.05138874  260.02200317    1.30999994    2.32999992
   13.05749989  260.02200317    1.30999994    2.32999992
   13.06138897  230.92700195    1.30999994    2.32999992
   13.06472206  225.09399414    1.28999996    2.34999990
   13.06583309  239.63600159    1.28999996    2.32999992
   13.06833363  218.21000671    1.30999994    2.32999992
   13.07138920  248.83000183    1.28999996    2.34999990
   13.07472229  216.81900024    1.28999996    2.36999989
   13.07805538  229.31700134    1.28999996    2.34999990
   13.08111095  225.70899963    1.28999996    2.36999989
   13.08444405  246.37699890    1.28999996    2.34999990
   13.08749962  245.79100037    1.28999996    2.36999989
   13.09083271  229.93299866    1.28999996    2.34999990
   13.09416676  231.88299561    1.28999996    2.34999990
   13.10027790  231.88299561    1.26999998    2.34999990
   13.10444450  251.61099243    1.25000000    2.34999990
   13.10750008  250.20199585    1.26999998    2.36999989
   13.11083412  242.17300415    1.25000000    2.36999989
   13.11416721  228.63600159    1.25000000    2.36999989
   13.11722279  245.50900269    1.25000000    2.36999989
   13.12055588  252.22999573    1.25000000    2.34999990
   13.12361145  233.46099854    1.25000000    2.34999990
   13.12694454  247.62699890    1.25000000    2.36999989
   13.13027763  228.54299927    1.23000002    2.36999989
   13.13249969  216.06199646    1.23000002    2.36999989
   13.13388920  273.78201294    1.23000002    2.36999989
   13.13694477  222.21699524    1.23000002    2.36999989
   13.14305496  222.21699524    1.23000002    2.36999989
   13.14722252  230.87300110    1.23000002    2.36999989
   13.15055561  246.43699646    1.23000002    2.36999989
   13.15361118  232.55200195    1.23000002    2.36999989
   13.15694427  244.47799683    1.23000002    2.36999989
   13.15999985  261.47601318    1.21000004    2.39000010
   13.16333294  219.45700073    1.23000002    2.39000010
   13.16583252  219.49600220    1.23000002    2.39000010
   13.16694450  234.88000488    1.23000002    2.39000010
   13.17000008  213.07400513    1.21000004    2.39000010
   13.17333412  225.62699890    1.21000004    2.39000010
   13.17638874  216.68699646    1.21000004    2.36999989
   13.17972279  232.88600159    1.21000004    2.39000010
   13.18583298  232.88600159    1.21000004    2.39000010
   13.19000053  219.15899658    1.19000006    2.39000010
   13.19333363  234.15100098    1.19000006    2.39000010
   13.19638920  239.06599426    1.19000006    2.39000010
   13.19916630  226.45300293    1.19000006    2.39000010
   13.20027733  233.00700378    1.19000006    2.39000010
   13.20361137  210.18299866    1.19000006    2.39000010
   13.20666695  222.46600342    1.16999996    2.39000010
   13.21000004  236.25000000    1.16999996    2.39000010
   13.21333313  242.47099304    1.16999996    2.39000010
   13.21638870  208.33399963    1.16999996    2.39000010
   13.21972179  238.07499695    1.16999996    2.39000010
   13.22305489  218.77699280    1.16999996    2.40000010
   13.22888851  218.77699280    1.16999996    2.39000010
   13.23277760  245.59599304    1.16999996    2.40000010
   13.23611164  217.04600525    1.16999996    2.39000010
   13.23944473  213.24800110    1.14999998    2.39000010
   13.24250031  223.76800537    1.14999998    2.39000010
   13.24583340  222.64599609    1.14999998    2.39000010
   13.24916649  233.69400024    1.14999998    2.39000010
   13.25222206  286.11898804    1.14999998    2.40000010
   13.25555515  258.61099243    1.13000000    2.40000010
   13.25888920  201.41999817    1.13000000    2.40000010
   13.26194477  234.08799744    1.13000000    2.40000010
   13.26527786  219.78199768    1.13000000    2.40000010
   13.26583290  254.69000244    1.13000000    2.40000010
   13.27166653  254.69000244    1.13000000    2.40000010
   13.27583313  257.89300537    1.13000000    2.40000010
   13.27888870  209.72599792    1.11000001    2.40000010
   13.28222179  231.08099365    1.11000001    2.40000010
   13.28527832  229.46499634    1.13000000    2.40000010
   13.28861141  254.93699646    1.14999998    2.42000008
   13.29194450  293.46200562    1.13000000    2.40000010
   13.29527855  244.47599792    1.13000000    2.40000010
   13.29833412  257.47799683    1.13000000    2.40000010
   13.29916668  267.36700439    1.13000000    2.40000010
   13.30222225  275.75900269    1.14999998    2.40000010
   13.30527782  278.00299072    1.13000000    2.40000010
   13.30861092  273.25000000    1.13000000    2.42000008
   13.31444454  273.25000000    1.13000000    2.42000008
   13.31861115  279.00601196    1.13000000    2.42000008
   13.32166672  322.97799683    1.13000000    2.42000008
   13.32499981  346.31600952    1.13000000    2.42000008
   13.32833290  308.26998901    1.11000001    2.42000008
   13.33138847  335.98999023    1.11000001    2.42000008
   13.33249950  339.19799805    1.11000001    2.44000006
   13.33527756  327.09698486    1.11000001    2.42000008
   13.33833313  353.01400757    1.11000001    2.42000008
   13.34166622  338.17800903    1.09000003    2.42000008
   13.34499931  298.85900879    1.09000003    2.42000008
   13.34805489  311.88198853    1.09000003    2.42000008
   13.35138893  269.14599609    1.09000003    2.42000008
   13.35722256  269.14599609    1.09000003    2.42000008
   13.36138916  282.36999512    1.09000003    2.42000008
   13.36472225  245.77400208    1.09000003    2.42000008
   13.36583328  302.02200317    1.09000003    2.42000008
   13.36833382  282.52899170    1.09000003    2.42000008
   13.37166691  261.22601318    1.09000003    2.44000006
   13.37472248  266.08200073    1.09000003    2.44000006
   13.37805557  274.94100952    1.09000003    2.44000006
   13.38111115  260.81298828    1.07000005    2.44000006
   13.38444424  246.06799316    1.05999994    2.44000006
   13.38777733  271.28500366    1.05999994    2.44000006
   13.39083290  266.11499023    1.05999994    2.44000006
   13.39416695  255.60899353    1.05999994    2.44000006
   13.40027714  255.60899353    1.03999996    2.44000006
   13.40416622  247.77200317    1.05999994    2.44000006
   13.40749931  251.33399963    1.03999996    2.46000004
   13.41083336  233.69700623    1.03999996    2.44000006
   13.41388893  249.12399292    1.03999996    2.46000004
   13.41722298  200.19000244    1.03999996    2.44000006
   13.42027855  226.85299683    1.01999998    2.46000004
   13.42361164  211.94900513    1.03999996    2.44000006
   13.42694473  228.73300171    1.01999998    2.44000006
   13.43000031  236.15800476    1.01999998    2.44000006
   13.43249989  231.01199341    1.01999998    2.46000004
   13.43388939  218.35800171    1.01999998    2.46000004
   13.43694496  227.55999756    1.01999998    2.46000004
   13.44305515  227.55999756    1.01999998    2.46000004
   13.44722271  196.97300720    1.01999998    2.46000004
   13.45027733  210.93400574    1.01999998    2.46000004
   13.45361137  206.33099365    1.00000000    2.46000004
   13.45666695  205.98599243    1.00000000    2.46000004
   13.46000004  210.61700439    1.00000000    2.46000004
   13.46333313  212.01499939    1.00000000    2.46000004
   13.46583271  205.53100586    1.00000000    2.46000004
   13.46694374  219.10000610    1.00000000    2.46000004
   13.47027779  210.08599854    1.00000000    2.46000004
   13.47333336  216.57600403    0.98000002    2.46000004
   13.47666645  219.05200195    1.00000000    2.46000004
   13.47972202  221.07600403    0.98000002    2.46000004
   13.48583317  221.07600403    0.98000002    2.46000004
   13.49000072  209.33000183    0.98000002    2.46000004
   13.49305534  209.65899658    0.98000002    2.46000004
   13.49638939  193.08000183    0.98000002    2.48000002
   13.51555538  225.85800171    0.95999998    2.48000002
   13.51638889  236.42999268    0.95999998    2.46000004
   13.51972198  223.22700500    0.95999998    2.46000004
   13.52277756  227.96200562    0.95999998    2.48000002
   13.52861118  227.96200562    0.95999998    2.46000004
   13.53277779  223.91900635    0.95999998    2.48000002
   13.53611183  214.92100525    0.95999998    2.48000002
   13.53916740  221.25199890    0.95999998    2.46000004
   13.54250050  211.11700439    0.95999998    2.48000002
   13.54583359  226.62100220    0.95999998    2.48000002
   13.54888916  214.73100281    0.95999998    2.48000002
   13.54944515  222.66099548    0.95999998    2.48000002
   13.55277824  209.39399719    0.95999998    2.48000002
   13.55583382  212.01400757    0.94000000    2.48000002
   13.55916691  221.54299927    0.94000000    2.46000004
   13.56250000  219.61500549    0.94000000    2.48000002
   13.56555557  215.69200134    0.94000000    2.48000002
   13.57166672  215.69200134    0.92000002    2.48000002
   13.57555580  220.91099548    0.92000002    2.48000002
   13.57888889  229.95599365    0.92000002    2.48000002
   13.58222198  212.00999451    0.92000002    2.48000002
   13.58249950  217.89300537    0.92000002    2.48000002
   13.58583260  213.69099426    0.92000002    2.48000002
   13.58916664  221.32699585    0.92000002    2.48000002
   13.59222221  207.96099854    0.92000002    2.48000002
   13.59555531  224.31100464    0.89999998    2.48000002
   13.59861088  212.44099426    0.89999998    2.48000002
   13.60194492  221.23899841    0.89999998    2.48000002
   13.60527802  221.10099792    0.92000002    2.48000002
   13.60833359  213.88600159    0.89999998    2.48000002
   13.61444473  213.88600159    0.88000000    2.48000002
   13.61861134  218.64700317    0.88000000    2.50000000
   13.62166691  219.43699646    0.88000000    2.48000002
   13.62500000  208.11399841    0.88000000    2.50000000
   13.62833309  225.37500000    0.88000000    2.50000000
   13.63138866  211.49299622    0.88000000    2.50000000
   13.63472176  210.55400085    0.88000000    2.50000000
   13.63805580  216.51499939    0.88000000    2.50000000
   13.64111137  224.64100647    0.86000001    2.50000000
   13.64444447  210.73300171    0.86000001    2.50000000
   13.64750004  217.77499390    0.86000001    2.51999998
   13.64944458  210.89100647    0.86000001    2.50000000
   13.65138817  203.88200378    0.86000001    2.50000000
   13.65722179  203.88200378    0.86000001    2.50000000
   13.66138840  205.60400391    0.86000001    2.51999998
   13.66472149  209.33200073    0.86000001    2.50000000
   13.66777802  219.41799927    0.86000001    2.50000000
   13.67111111  213.99699402    0.86000001    2.51999998
   13.67444515  211.59399414    0.86000001    2.51999998
   13.67750072  215.92399597    0.86000001    2.51999998
   13.68083382  208.49099731    0.86000001    2.51999998
   13.68277836  207.65800476    0.86000001    2.51999998
   13.68444443  230.82899475    0.86000001    2.50000000
   13.68750000  206.82699585    0.83999997    2.50000000
   13.69083309  218.95599365    0.83999997    2.50000000
   13.69416714  224.20399475    0.86000001    2.51999998
   13.69999981  224.20399475    0.83999997    2.51999998
   13.70416641  237.61300659    0.86000001    2.50000000
   13.70749950  236.86000061    0.86000001    2.50000000
   13.71055508  226.90499878    0.83999997    2.51999998
   13.71388912  210.98699951    0.86000001    2.51999998
   13.71638870  214.98300171    0.86000001    2.50000000
   13.71777725  237.39399719    0.83999997    2.51999998
   13.72083282  220.88000488    0.86000001    2.51999998
   13.72416592  237.66099548    0.83999997    2.51999998
   13.72749996  233.92199707    0.83999997    2.51999998
   13.73055553  221.45399475    0.83999997    2.51999998
   13.73388958  229.84800720    0.83999997    2.51999998
   13.73694515  222.94900513    0.86000001    2.51999998
   13.74305534  222.94900513    0.86000001    2.51999998
   13.74694443  270.39599609    0.86000001    2.51999998
   13.74972248  253.57299805    0.86000001    2.53999996
   13.75055599  249.08500671    0.86000001    2.53999996
   13.75388908  256.46398926    0.86000001    2.53999996
   13.75722218  268.36401367    0.83999997    2.51999998
   13.76027775  254.56900024    0.83999997    2.51999998
   13.76361084  254.69500732    0.83999997    2.51999998
   13.76694393  237.72900391    0.83999997    2.51999998
   13.76999950  239.05799866    0.83999997    2.51999998
   13.77333355  252.76899719    0.83999997    2.51999998
   13.77638817  239.74099731    0.83999997    2.51999998
   13.77972221  239.57099915    0.83999997    2.51999998
   13.78583336  239.57099915    0.83999997    2.51999998
   13.79000092  294.10699463    0.83999997    2.53999996
   13.79305553  241.12199402    0.83999997    2.53999996
   13.79638958  256.88598633    0.83999997    2.51999998
   13.79972267  261.49301147    0.83999997    2.51999998
   13.80277824  256.17001343    0.83999997    2.53999996
   13.80611134  259.76000977    0.83999997    2.53999996
   13.80944443  250.84899902    0.83999997    2.53999996
   13.81250000  241.34500122    0.83999997    2.51999998
   13.81583309  244.07000732    0.83999997    2.53999996
   13.81666660  238.25999451    0.83999997    2.53999996
   13.81944466  229.52099609    0.81999999    2.53999996
   13.82250023  255.93600464    0.81999999    2.53999996
   13.82861137  255.93600464    0.81999999    2.53999996
   13.83277798  242.21499634    0.81999999    2.53999996
   13.83611107  235.75599670    0.81999999    2.53999996
   13.83916664  235.43800354    0.81999999    2.53999996
   13.84249973  237.16099548    0.81999999    2.53999996
   13.84555531  237.87399292    0.81999999    2.53999996
   13.84888840  232.56100464    0.83999997    2.53999996
   13.85000038  244.26300049    0.83999997    2.53999996
   13.85249996  213.87100220    0.81999999    2.53999996
   13.85555553  237.31300354    0.81999999    2.53999996
   13.85888958  243.94299316    0.83999997    2.53999996
   13.86222267  242.58099365    0.81999999    2.53999996
   13.86527824  251.94900513    0.81999999    2.53999996
   13.87138939  251.94900513    0.81999999    2.53999996
   13.87555599  235.76699829    0.81999999    2.55999994
   13.87888908  232.99000549    0.81999999    2.55999994
   13.88194466  228.74499512    0.80000001    2.53999996
   13.88361073  220.13600159    0.80000001    2.55999994
   13.88583279  228.18800354    0.81999999    2.53999996
   13.88888836  233.67700195    0.80000001    2.53999996
   13.89222240  227.72999573    0.80000001    2.53999996
   13.89555550  232.92599487    0.80000001    2.55999994
   13.89861107  228.05700684    0.80000001    2.53999996
   13.90194416  235.21099854    0.81999999    2.53999996
   13.90527725  235.10899353    0.81999999    2.53999996
   13.90833282  243.11000061    0.81999999    2.53999996
   13.91444397  243.11000061    0.81999999    2.55999994
   13.91861153  244.04400635    0.80000001    2.53999996
   13.92166710  251.21400452    0.80000001    2.53999996
   13.92500019  238.47399902    0.80000001    2.55999994
   13.92833328  248.38600159    0.79000002    2.55999994
   13.93138885  250.35299683    0.79000002    2.53999996
   13.93472195  244.65199280    0.79000002    2.55999994
   13.93777752  240.12399292    0.79000002    2.55999994
   13.94111156  247.03199768    0.79000002    2.55999994
   13.94444466  239.29499817    0.79000002    2.55999994
   13.94750023  241.29200745    0.76999998    2.55999994
   13.95027733  253.61900330    0.79000002    2.55999994
   13.95138836  249.82899475    0.79000002    2.55999994
   13.95722198  249.82899475    0.76999998    2.55999994
   13.96138859  254.12199402    0.76999998    2.55999994
   13.96444416  248.52999878    0.76999998    2.55999994
   13.96777725  221.72500610    0.76999998    2.55999994
   13.97111034  240.60600281    0.76999998    2.55999994
   13.97416592  247.45199585    0.76999998    2.55999994
   13.97749996  260.10101318    0.76999998    2.53999996
   13.98083305  229.50399780    0.76999998    2.57999992
   13.98361111  249.75100708    0.76999998    2.55999994
   13.98444462  248.12100220    0.76999998    2.55999994
   13.98750019  248.48500061    0.76999998    2.55999994
   13.99083328  255.21800232    0.75000000    2.57999992
   13.99388885  255.45100403    0.75000000    2.55999994
   14.00000000  255.45100403    0.75000000    2.55999994
   14.00416660  245.74600220    0.75000000    2.55999994
   14.00749969  230.37500000    0.75000000    2.55999994
   14.01055527  250.91099548    0.75000000    2.55999994
   14.01388931  226.68600464    0.75000000    2.55999994
   14.01694393  240.06900024    0.76999998    2.55999994
   14.01749992  254.43200684    0.76999998    2.55999994
   14.02055550  244.79600525    0.76999998    2.55999994
   14.02388859  248.96899414    0.76999998    2.57999992
   14.02694416  253.92599487    0.76999998    2.57999992
   14.03027725  250.87199402    0.76999998    2.57999992
   14.03361130  235.33299255    0.76999998    2.57999992
   14.03666687  242.19900513    0.76999998    2.57999992
   14.04277802  242.19900513    0.76999998    2.55999994
   14.04694462  260.49099731    0.76999998    2.55999994
   14.05027771  224.25799561    0.75000000    2.55999994
   14.05083370  246.82800293    0.75000000    2.55999994
   14.05388927  245.69299316    0.75000000    2.55999994
   14.05722237  252.08200073    0.75000000    2.57999992
   14.06055546  241.98399353    0.75000000    2.57999992
   14.06388950  259.68399048    0.75000000    2.57999992
   14.06694412  246.42199707    0.75000000    2.57999992
   14.07027817  236.46299744    0.75000000    2.57999992
   14.07361126  245.73899841    0.75000000    2.57999992
   14.07666683  249.19700623    0.75000000    2.57999992
   14.07999992  247.77099609    0.75000000    2.57999992
   14.08583260  247.77099609    0.75000000    2.57999992
   14.08972168  248.43099976    0.75000000    2.59999990
   14.09305477  246.91999817    0.75000000    2.59999990
   14.09638882  248.56599426    0.75000000    2.57999992
   14.09944439  230.66900635    0.75000000    2.57999992
   14.10277843  237.99800110    0.75000000    2.57999992
   14.10611153  240.92500305    0.75000000    2.57999992
   14.10916710  227.42300415    0.75000000    2.57999992
   14.11250019  226.19299316    0.75000000    2.59999990
   14.11555576  244.76300049    0.75000000    2.57999992
   14.11694431  224.89100647    0.75000000    2.57999992
   14.11944485  242.98599243    0.75000000    2.59999990
   14.12250042  226.96299744    0.75000000    2.57999992
   14.12861156  226.96299744    0.75000000    2.57999992
   14.13277817  228.83000183    0.75000000    2.57999992
   14.13611126  208.22399902    0.75000000    2.59999990
   14.13916683  223.35899353    0.75000000    2.57999992
   14.14249992  227.44000244    0.75000000    2.59999990
   14.14555550  236.53199768    0.75000000    2.57999992
   14.14888859  218.66499329    0.73000002    2.57999992
   14.15027714  226.54899597    0.75000000    2.57999992
   14.15277767  223.23899841    0.75000000    2.57999992
   14.15583324  228.99699402    0.75000000    2.59999990
   14.15916634  233.63400269    0.73000002    2.59999990
   14.16249943  226.36799622    0.73000002    2.59999990
   14.16555500  223.35600281    0.73000002    2.59999990
   14.17138958  223.35600281    0.73000002    2.57999992
   14.17555618  227.94900513    0.73000002    2.57999992
   14.17888927  205.05200195    0.73000002    2.57999992
   14.18194485  207.02400208    0.73000002    2.59999990
   14.18388939  216.81599426    0.70999998    2.59999990
   14.18555546  211.82699585    0.73000002    2.59999990
   14.18888855  222.38099670    0.70999998    2.59999990
   14.19222260  209.81399536    0.70999998    2.59999990
   14.19527817  209.97999573    0.70999998    2.59999990
   14.19861126  224.91200256    0.70999998    2.59999990
   14.20194435  222.13699341    0.70999998    2.59999990
   14.20499992  208.46800232    0.70999998    2.59999990
   14.20833302  223.79200745    0.70999998    2.59999990
   14.21416664  223.79200745    0.70999998    2.59999990
   14.21833324  217.85899353    0.73000002    2.61999989
   14.22166634  211.43899536    0.70999998    2.59999990
   14.22472191  212.97900391    0.70999998    2.59999990
   14.22805500  212.89900208    0.70999998    2.59999990
   14.23138809  217.04299927    0.70999998    2.59999990
   14.23444462  223.41499329    0.70999998    2.61999989
   14.23777771  220.10299683    0.70999998    2.59999990
   14.24111176  225.92799377    0.70999998    2.61999989
   14.24416733  217.10000610    0.70999998    2.59999990
   14.24750042  210.12800598    0.70999998    2.59999990
   14.25055599  219.61700439    0.70999998    2.59999990
   14.25083351  208.90600586    0.73000002    2.61999989
   14.25722218  208.90600586    0.70999998    2.59999990
   14.26138878  233.69599915    0.70999998    2.59999990
   14.26444435  225.88400269    0.73000002    2.61999989
   14.26777744  236.59899902    0.70999998    2.61999989
   14.27083302  234.50999451    0.70999998    2.59999990
   14.27416611  218.55599976    0.70999998    2.59999990
   14.27750015  226.28300476    0.70999998    2.61999989
   14.28055573  220.88999939    0.70999998    2.61999989
   14.28388977  223.09100342    0.70999998    2.59999990
   14.28416729  224.18699646    0.70999998    2.59999990
   14.28750038  237.17100525    0.70999998    2.59999990
   14.29083347  240.87100220    0.70999998    2.59999990
   14.29388905  233.03700256    0.70999998    2.59999990
   14.30000019  233.03700256    0.70999998    2.61999989
   14.30416679  234.41200256    0.70999998    2.61999989
   14.30722237  243.10099792    0.70999998    2.59999990
   14.31055546  240.19299316    0.70999998    2.59999990
   14.31388950  243.55299377    0.70999998    2.61999989
   14.31694412  233.87899780    0.70999998    2.61999989
   14.31750011  236.53799438    0.70999998    2.61999989
   14.32083321  237.91099548    0.70999998    2.61999989
   14.32388878  252.40600586    0.70999998    2.61999989
   14.32722187  239.80099487    0.70999998    2.61999989
   14.33055592  223.59599304    0.70999998    2.61999989
   14.33361053  227.33999634    0.70999998    2.61999989
   14.33694458  245.47700500    0.70999998    2.61999989
   14.34277725  245.47700500    0.70999998    2.59999990
   14.34694386  242.79600525    0.70999998    2.59999990
   14.35027790  229.40100098    0.70999998    2.61999989
   14.35083389  240.58700562    0.70999998    2.61999989
   14.35388947  243.75900269    0.70999998    2.61999989
   14.35694504  227.31300354    0.70999998    2.61999989
   14.36027813  236.16600037    0.70999998    2.61999989
   14.36361122  242.50300598    0.70999998    2.61999989
   14.36666679  242.30599976    0.70999998    2.61999989
   14.36999989  218.99200439    0.70999998    2.61999989
   14.37333393  217.38999939    0.70999998    2.61999989
   14.37666702  219.59599304    0.70999998    2.61999989
   14.37972260  231.20599365    0.70999998    2.61999989
   14.38555527  231.20599365    0.70999998    2.61999989
   14.38972187  226.91900635    0.70999998    2.61999989
   14.39305496  242.16600037    0.70999998    2.61999989
   14.39611053  211.74000549    0.70999998    2.61999989
   14.39944458  232.49600220    0.70999998    2.64000010
   14.40277767  212.38400269    0.70999998    2.64000010
   14.40583324  218.79200745    0.70999998    2.64000010
   14.40916634  225.20500183    0.69000000    2.61999989
   14.41249943  214.68299866    0.69000000    2.61999989
   14.41555500  223.94799805    0.69000000    2.61999989
   14.41750050  217.95399475    0.69000000    2.61999989
   14.41944504  227.67700195    0.69000000    2.61999989
   14.42250061  217.41999817    0.69000000    2.61999989
   14.42861176  217.41999817    0.69000000    2.61999989
   14.43249989  213.71600342    0.69000000    2.61999989
   14.43583298  219.63400269    0.70999998    2.64000010
   14.43916702  207.23899841    0.69000000    2.61999989
   14.44222260  209.85899353    0.70999998    2.61999989
   14.44555569  213.27299500    0.70999998    2.61999989
   14.44888878  214.62899780    0.69000000    2.61999989
   14.45083332  211.14199829    0.69000000    2.61999989
   14.45249939  214.73300171    0.69000000    2.61999989
   14.45555496  207.20399475    0.69000000    2.61999989
   14.45888901  220.18499756    0.69000000    2.61999989
   14.46222210  214.42900085    0.69000000    2.61999989
   14.46527767  197.59500122    0.69000000    2.64000010
   14.47138882  197.59500122    0.69000000    2.64000010
   14.47555542  205.16600037    0.69000000    2.64000010
   14.47861099  204.31300354    0.69000000    2.61999989
   14.48194408  203.20799255    0.69000000    2.64000010
   14.48416710  207.41900635    0.69000000    2.64000010
   14.48555565  206.86700439    0.69000000    2.61999989
   14.48861122  199.18899536    0.69000000    2.61999989
   14.49194431  203.56300354    0.69000000    2.64000010
   14.49527836  208.47300720    0.69000000    2.61999989
   14.49833393  202.66999817    0.69000000    2.64000010
   14.50166702  205.25199890    0.69000000    2.64000010
   14.50500011  199.00700378    0.69000000    2.64000010
   14.50805569  190.90400696    0.69000000    2.64000010
   14.51416683  190.90400696    0.69000000    2.64000010
   14.53277779  195.13000488    0.69000000    2.64000010
   14.53611183  197.25799561    0.70999998    2.64000010
   14.53944492  196.69599915    0.70999998    2.64000010
   14.54250050  181.12399292    0.69000000    2.64000010
   14.54583359  205.03399658    0.69000000    2.64000010
   14.54888916  184.44700623    0.70999998    2.64000010
   14.55222225  193.55299377    0.69000000    2.61999989
   14.55722237  193.55299377    0.69000000    2.64000010
   14.56138897  198.55900574    0.69000000    2.64000010
   14.56472206  181.51600647    0.69000000    2.64000010
   14.56583309  190.66999817    0.69000000    2.64000010
   14.56833363  186.10899353    0.69000000    2.64000010
   14.57138920  189.62100220    0.69000000    2.61999989
   14.57472229  195.80000305    0.69000000    2.64000010
   14.57805538  190.14700317    0.69000000    2.64000010
   14.58111095  196.60200500    0.69000000    2.64000010
   14.58444405  189.65100098    0.69000000    2.61999989
   14.58777714  185.61000061    0.69000000    2.64000010
   14.59083271  182.25000000    0.67000002    2.64000010
   14.59416676  186.37600708    0.67000002    2.64000010
   14.60000038  186.37600708    0.69000000    2.64000010
   14.60416698  193.48899841    0.69000000    2.64000010
   14.60750008  189.08200073    0.67000002    2.64000010
   14.61055565  186.30999756    0.67000002    2.64000010
   14.61388969  188.28399658    0.67000002    2.64000010
   14.61722279  181.62300110    0.67000002    2.64000010
   14.62027836  182.47799683    0.67000002    2.64000010
   14.62361145  188.31399536    0.67000002    2.64000010
   14.62694454  184.42799377    0.67000002    2.64000010
   14.63000011  179.79499817    0.69000000    2.64000010
   14.63249969  177.42700195    0.67000002    2.64000010
   14.63388920  191.89199829    0.69000000    2.64000010
   14.63694477  182.14999390    0.67000002    2.64000010
   14.64305496  182.14999390    0.69000000    2.64000010
   14.64694405  181.72999573    0.69000000    2.64000010
   14.65027714  183.76699829    0.67000002    2.64000010
   14.65361118  190.00799561    0.67000002    2.64000010
   14.65666676  182.89199829    0.67000002    2.64000010
   14.65999985  199.32200623    0.67000002    2.64000010
   14.66333294  167.69799805    0.67000002    2.66000009
   14.66583252  183.66900635    0.67000002    2.64000010
   14.66694450  180.60099792    0.69000000    2.64000010
   14.67000008  183.46200562    0.67000002    2.64000010
   14.67333412  201.76800537    0.69000000    2.64000010
   14.67666721  183.44000244    0.67000002    2.64000010
   14.67972279  174.35800171    0.69000000    2.66000009
   14.68583298  174.35800171    0.67000002    2.64000010
   14.69000053  179.78799438    0.67000002    2.64000010
   14.69333363  188.00999451    0.67000002    2.64000010
   14.69638920  179.83700562    0.67000002    2.64000010
   14.69916630  175.14399719    0.67000002    2.66000009
   14.70027733  167.96699524    0.67000002    2.66000009
   14.70333290  170.96600342    0.69000000    2.64000010
   14.70666695  185.34100342    0.67000002    2.64000010
   14.71000004  178.65899658    0.67000002    2.64000010
   14.71305561  174.27200317    0.67000002    2.64000010
   14.71638870  169.15400696    0.67000002    2.66000009
   14.71972179  171.83000183    0.69000000    2.64000010
   14.72277737  176.34500122    0.67000002    2.66000009
   14.72861099  176.34500122    0.67000002    2.64000010
   14.73277760  176.64500427    0.67000002    2.64000010
   14.73611164  170.97999573    0.67000002    2.66000009
   14.73916721  180.83700562    0.67000002    2.64000010
   14.74250031  162.51199341    0.67000002    2.64000010
   14.74555588  186.97700500    0.67000002    2.64000010
   14.74888897  171.52400208    0.67000002    2.64000010
   14.75222206  171.25199890    0.67000002    2.64000010
   14.75527763  172.62399292    0.67000002    2.66000009
   14.75861073  178.44700623    0.67000002    2.64000010
   14.76194477  174.07299805    0.67000002    2.66000009
   14.76500034  178.97700500    0.67000002    2.66000009
   14.76583290  173.92700195    0.67000002    2.66000009
   14.77138901  173.92700195    0.67000002    2.66000009
   14.77555561  172.64500427    0.69000000    2.66000009
   14.77888870  170.30900574    0.69000000    2.64000010
   14.78194427  171.86199951    0.69000000    2.64000010
   14.78527832  179.64399719    0.69000000    2.64000010
   14.78861141  168.74899292    0.69000000    2.69000006
   14.79166698  174.29299927    0.69000000    2.66000009
   14.79500008  170.70899963    0.69000000    2.66000009
   14.79833412  168.68800354    0.69000000    2.66000009
   14.79916668  167.28199768    0.69000000    2.64000010
   14.80194473  183.55799866    0.70999998    2.66000009
   14.80527782  172.43699646    0.70999998    2.67000008
   14.80833340  166.12100220    0.69000000    2.66000009
   14.81444454  166.12100220    0.69000000    2.66000009
   14.81833363  164.43800354    0.69000000    2.66000009
   14.82166672  171.40400696    0.70999998    2.66000009
   14.82499981  184.76699829    0.69000000    2.67000008
   14.82805538  172.91700745    0.70999998    2.66000009
   14.83138847  169.67599487    0.69000000    2.66000009
   14.83249950  171.05299377    0.69000000    2.66000009
   14.83500004  176.20300293    0.69000000    2.66000009
   14.83833313  203.79899597    0.67000002    2.67000008
   14.84138870  186.85499573    0.67000002    2.67000008
   14.84472179  187.59700012    0.67000002    2.66000009
   14.84805489  192.26699829    0.67000002    2.66000009
   14.85111141  185.00700378    0.67000002    2.66000009
   14.85722256  185.00700378    0.67000002    2.61999989
   14.86138916  196.67900085    0.67000002    2.67000008
   14.86444473  194.83500671    0.67000002    2.66000009
   14.86583328  188.17999268    0.67000002    2.66000009
   14.86805534  183.06399536    0.67000002    2.64000010
   14.87138939  192.30900574    0.67000002    2.66000009
   14.87444496  192.75300598    0.67000002    2.66000009
   14.87777805  180.47099304    0.67000002    2.64000010
   14.88083363  182.08500671    0.67000002    2.66000009
   14.88416672  188.77699280    0.67000002    2.67000008
   14.88749981  184.18800354    0.67000002    2.66000009
   14.89055538  182.22399902    0.67000002    2.64000010
   14.89388847  172.02000427    0.67000002    2.67000008
   14.89999962  172.02000427    0.69000000    2.66000009
   14.90416622  195.14300537    0.69000000    2.66000009
   15.02861118  183.35499573    0.67000002    2.67000008
   15.03194427  189.79299927    0.67000002    2.67000008
   15.03527832  196.54699707    0.64999998    2.66000009
   15.03833389  190.67399597    0.64999998    2.67000008
   15.04166698  190.83999634    0.67000002    2.67000008
   15.04500008  191.94099426    0.67000002    2.66000009
   15.04888916  191.94099426    0.67000002    2.67000008
   15.05305576  193.91799927    0.64999998    2.66000009
   15.05638885  186.32400513    0.67000002    2.66000009
   15.05972195  174.98699951    0.64999998    2.67000008
   15.06194496  192.55999756    0.67000002    2.66000009
   15.06333351  173.16299438    0.67000002    2.66000009
   15.06666660  193.53900146    0.64999998    2.67000008
   15.06972218  191.06199646    0.64999998    2.67000008
   15.07305527  191.07899475    0.64999998    2.67000008
   15.07638836  203.36700439    0.64999998    2.67000008
   15.07944393  194.79600525    0.64999998    2.67000008
   15.08277798  187.23899841    0.64999998    2.67000008
   15.08611107  213.55599976    0.64999998    2.67000008
   15.09194374  213.55599976    0.67000002    2.66000009
   15.09611034  209.80799866    0.64999998    2.66000009
   15.09916592  209.31599426    0.64999998    2.67000008
   15.10249996  233.70899963    0.64999998    2.67000008
   15.10555553  212.64900208    0.64999998    2.67000008
   15.10888958  240.57400513    0.64999998    2.67000008
   15.11222267  217.11399841    0.67000002    2.66000009
   15.11527824  209.16499329    0.64999998    2.67000008
   15.11861134  212.01699829    0.67000002    2.67000008
   15.12194443  194.29200745    0.64999998    2.67000008
   15.12500000  217.16999817    0.64999998    2.67000008
   15.12833309  211.57899475    0.64999998    2.69000006
   15.12888908  239.84599304    0.64999998    2.69000006
   15.13472176  239.84599304    0.64999998    2.67000008
   15.13888836  226.21499634    0.64999998    2.67000008
   15.20833302  212.99699402    0.64999998    2.69000006
   15.21166611  202.94200134    0.67000002    2.69000006
   15.21500015  200.99699402    0.67000002    2.67000008
   15.21805477  224.37600708    0.67000002    2.67000008
   15.22138882  214.81900024    0.67000002    2.67000008
   15.22472191  199.42599487    0.67000002    2.69000006
   15.22888851  199.42599487    0.67000002    2.66000009
   15.23305511  206.58399963    0.67000002    2.69000006
   15.23611164  197.21099854    0.67000002    2.69000006
   15.23944473  203.41000366    0.67000002    2.71000004
   15.24166679  199.57099915    0.67000002    2.67000008
   15.24305534  199.11399841    0.64999998    2.67000008
   15.24638939  212.63000488    0.64999998    2.69000006
   15.24944496  208.50199890    0.64999998    2.67000008
   15.25277805  213.89199829    0.64999998    2.67000008
   15.25611115  192.90899658    0.64999998    2.69000006
   15.25916672  185.60200500    0.64999998    2.67000008
   15.26249981  190.48300171    0.64999998    2.67000008
   15.26583290  201.60699463    0.64999998    2.67000008
   15.27166653  201.60699463    0.63000000    2.67000008
   15.27583313  181.78199768    0.63000000    2.67000008
   15.27888870  202.50000000    0.63000000    2.67000008
   15.28222179  200.38099670    0.63000000    2.67000008
   15.28555584  171.81799316    0.63000000    2.69000006
   15.28861141  196.46899414    0.63000000    2.69000006
   15.29194450  191.75500488    0.64999998    2.67000008
   15.29500008  176.21000671    0.63000000    2.69000006
   15.29833412  188.39199829    0.64999998    2.69000006
   15.30166721  192.72900391    0.64999998    2.69000006
   15.30472279  182.17900085    0.63000000    2.67000008
   15.30805588  188.81599426    0.63000000    2.71000004
   15.30861092  194.77099609    0.63000000    2.69000006
   15.31444454  194.77099609    0.63000000    2.69000006
   15.31861115  170.89700317    0.63000000    2.69000006
   15.32194424  169.25500488    0.63000000    2.69000006
   15.32499981  179.04600525    0.63000000    2.67000008
   15.32833290  169.33500671    0.63000000    2.69000006
   15.33138847  175.25900269    0.64999998    2.71000004
   15.33472157  165.75199890    0.63000000    2.69000006
   15.33805561  171.65400696    0.63000000    2.69000006
   15.34111118  171.63000488    0.63000000    2.69000006
   15.34194374  172.77400208    0.63000000    2.69000006
   15.34499931  188.36999512    0.63000000    2.69000006
   15.34805489  156.63900757    0.63000000    2.69000006
   15.35138893  175.07600403    0.63000000    2.69000006
   15.35722256  175.07600403    0.63000000    2.71000004
   15.36138916  166.97000122    0.63000000    2.71000004
   15.36472225  157.50300598    0.63000000    2.69000006
   15.36777782  174.44799805    0.63000000    2.69000006
   15.37111092  175.31799316    0.63000000    2.69000006
   15.37444496  169.06100464    0.63000000    2.71000004
   15.37527752  171.31399536    0.63000000    2.69000006
   15.37805557  165.77200317    0.63000000    2.69000006
   15.38111115  175.54600525    0.63000000    2.67000008
   15.38444424  172.77900696    0.61000001    2.69000006
   15.38749981  159.27200317    0.61000001    2.69000006
   15.39083290  160.13299561    0.61000001    2.67000008
   15.39416695  173.38800049    0.61000001    2.69000006
   15.40027714  173.38800049    0.61000001    2.69000006
   15.40416622  171.57600403    0.61000001    2.69000006
   15.40749931  178.02400208    0.63000000    2.69000006
   15.40861034  172.04899597    0.63000000    2.69000006
   15.41138840  164.21499634    0.61000001    2.71000004
   15.41444397  174.00700378    0.61000001    2.67000008
   15.41777802  175.69000244    0.61000001    2.67000008
   15.42083359  162.74699402    0.61000001    2.69000006
   15.42416668  168.97500610    0.61000001    2.71000004
   15.42750072  172.65499878    0.63000000    2.71000004
   15.43055630  154.35800171    0.61000001    2.69000006
   15.43388939  178.23300171    0.61000001    2.69000006
   15.43722248  168.55999756    0.61000001    2.69000006
   15.44305515  168.55999756    0.61000001    2.67000008
   15.44722271  162.47000122    0.61000001    2.71000004
   15.45027733  171.00700378    0.61000001    2.69000006
   15.45361137  174.71000671    0.61000001    2.69000006
   15.45694447  154.35499573    0.61000001    2.69000006
   15.46000004  169.64199829    0.61000001    2.69000006
   15.46333313  166.83200073    0.61000001    2.69000006
   15.46638870  172.11399841    0.61000001    2.69000006
   15.46972179  166.34800720    0.61000001    2.69000006
   15.47305489  164.63900757    0.61000001    2.69000006
   15.47527695  168.56700134    0.61000001    2.69000006
   15.47666645  167.26800537    0.61000001    2.69000006
   15.47972202  167.12100220    0.61000001    2.71000004
   15.48583317  167.12100220    0.61000001    2.69000006
   15.49000072  169.76300049    0.61000001    2.67000008
   15.49333382  170.58900452    0.61000001    2.69000006
   15.49638939  170.12600708    0.61000001    2.69000006
   15.49972248  165.65899658    0.61000001    2.71000004
   15.50277805  165.47000122    0.61000001    2.67000008
   15.50611115  170.32699585    0.61000001    2.71000004
   15.50861073  173.86300659    0.61000001    2.69000006
   15.51000023  165.07400513    0.61000001    2.69000006
   15.51305580  165.80099487    0.61000001    2.69000006
   15.51638889  172.28500366    0.61000001    2.71000004
   15.51944447  162.50700378    0.61000001    2.71000004
   15.52277756  172.45199585    0.61000001    2.69000006
   15.52861118  172.45199585    0.61000001    2.69000006
   15.53277779  153.55900574    0.61000001    2.69000006
   15.53611183  159.58999634    0.61000001    2.69000006
   15.53916740  162.07400513    0.61000001    2.69000006
   15.54194450  157.98500061    0.61000001    2.69000006
   15.54305553  167.50599670    0.61000001    2.69000006
   15.87555599  164.37699890    0.56999999    2.69000006
   15.87888908  159.80000305    0.56999999    2.71000004
   15.88194466  167.36900330    0.56999999    2.71000004
   15.88527775  168.21200562    0.56999999    2.71000004
   15.88861084  155.91799927    0.56999999    2.71000004
   15.89166641  163.95599365    0.56999999    2.71000004
   15.89583302  163.95599365    0.58999997    2.71000004
   15.89999962  160.42799377    0.56999999    2.71000004
   15.90305519  147.32400513    0.58999997    2.71000004
   15.90638828  165.55000305    0.58999997    2.71000004
   15.90888882  154.24299622    0.56999999    2.71000004
   15.91027737  160.18499756    0.56999999    2.71000004
   15.91333294  168.98699951    0.56999999    2.71000004
   15.91666698  162.28999329    0.56999999    2.71000004
   15.91972256  158.91600037    0.56999999    2.71000004
   15.92305565  158.31100464    0.56999999    2.71000004
   15.92638874  147.92199707    0.56999999    2.71000004
   15.92944431  156.89900208    0.56999999    2.71000004
   15.93277836  159.48699951    0.56999999    2.69000006
   15.93861103  159.48699951    0.56999999    2.71000004
   15.94277763  150.34899902    0.56999999    2.71000004
   15.94611073  166.94900513    0.56999999    2.69000006
   15.94916630  150.83299255    0.56999999    2.71000004
   15.95249939  155.96299744    0.56999999    2.69000006
   15.95583344  169.72000122    0.56999999    2.73000002
   15.95888901  183.80799866    0.56999999    2.75000000
   15.96222210  146.77000427    0.56999999    2.75000000
   15.96527767  166.81599426    0.56999999    2.69000006
   15.96861076  201.44299316    0.56999999    2.69000006
   15.97194386  198.76699829    0.56999999    2.69000006
   15.97499943  262.41900635    0.56999999    2.71000004
   15.97555542  178.90600586    0.56999999    2.71000004
   15.98166656  178.90600586    0.56999999    2.71000004
   15.98555565  195.48899841    0.56999999    2.71000004
   15.98888874  192.53700256    0.56999999    2.71000004
   15.99222279  226.37600708    0.56999999    2.71000004
   15.99527836  208.90499878    0.56999999    2.71000004
   15.99861145  205.83700562    0.56999999    2.71000004
   16.00166702  225.56199646    0.58999997    2.71000004
   16.00499916  191.76300049    0.56999999    2.69000006
   16.00833321  178.92300415    0.58999997    2.71000004
   16.00888824  234.95399475    0.58999997    2.71000004
   16.01194382  238.72300720    0.58999997    2.69000006
   16.01527786  207.86599731    0.58999997    2.71000004
   16.01833344  177.10400391    0.58999997    2.71000004
   16.02444458  177.10400391    0.56999999    2.71000004
   16.02861023  181.29899597    0.58999997    2.71000004
   16.03166580  209.39199829    0.58999997    2.75000000
   16.03499985  187.36199951    0.56999999    2.71000004
   16.03833199  178.92300415    0.56999999    2.69000006
   16.04138756  180.79600525    0.56999999    2.71000004
   16.04222107  202.73100281    0.56999999    2.71000004
   16.04500008  152.76300049    0.56999999    2.71000004
   16.04833221  182.42300415    0.56999999    2.69000006
   16.05138779  204.14900208    0.56999999    2.69000006
   16.05472183  197.10400391    0.56999999    2.71000004
   16.05777740  212.33799744    0.56999999    2.69000006
   16.06110954  211.67799377    0.56999999    2.71000004
   16.06722260  211.67799377    0.56999999    2.71000004
   16.07139015  136.83700562    0.56999999    2.71000004
   16.07472229  171.59199524    0.56999999    2.69000006
   16.07555580  199.10000610    0.56999999    2.69000006
   16.07833481  189.25199890    0.56999999    2.71000004
   16.08166695  167.91799927    0.56999999    2.71000004
   16.08472252  144.91999817    0.56999999    2.71000004
   16.08805656  190.44099426    0.56999999    2.69000006
   16.09111214  156.05599976    0.58999997    2.71000004
   16.09444427  161.57200623    0.58999997    2.73000002
   16.09777832  155.61599731    0.58999997    2.73000002
   16.10083389  180.94900513    0.56999999    2.71000004
   16.10416794  177.33700562    0.58999997    2.71000004
   16.11000061  177.33700562    0.58999997    2.71000004
   16.11416626  158.96800232    0.58999997    2.71000004
   16.11750031  180.40299988    0.58999997    2.73000002
   16.12055588  156.93899536    0.58999997    2.69000006
   16.12388992  148.35200500    0.58999997    2.69000006
   16.12722206  156.61199951    0.58999997    2.71000004
   16.13027763  163.28500366    0.58999997    2.71000004
   16.13361168  162.52999878    0.58999997    2.73000002
   16.13666725  166.65299988    0.58999997    2.73000002
   16.13999939  171.54899597    0.58999997    2.71000004
   16.14222145  149.89999390    0.58999997    2.71000004
   16.14361191  142.76400757    0.58999997    2.71000004
   16.14694405  156.75700378    0.58999997    2.71000004
   16.15305519  156.75700378    0.58999997    2.69000006
   16.15694427  164.62399292    0.58999997    2.71000004
   16.16027832  138.62500000    0.58999997    2.71000004
   16.16361046  144.67500305    0.58999997    2.71000004
   16.16666603  150.80000305    0.58999997    2.71000004
   16.17000008  163.95399475    0.58999997    2.69000006
   16.17305565  169.40400696    0.58999997    2.69000006
   16.17555428  160.99400330    0.58999997    2.71000004
   16.17694473  130.65699768    0.58999997    2.69000006
   16.18027687  144.02900696    0.58999997    2.71000004
   16.18333244  155.09199524    0.58999997    2.69000006
   16.18666649  151.14199829    0.58999997    2.71000004
   16.18972206  158.64100647    0.58999997    2.71000004
   16.19583321  158.64100647    0.56999999    2.67000008
   16.20000076  147.31900024    0.56999999    2.71000004
   16.20305634  138.07400513    0.56999999    2.71000004
   16.20639038  145.59500122    0.58999997    2.69000006
   16.20888901  150.64300537    0.56999999    2.71000004
   16.21000099  126.54699707    0.56999999    2.71000004
   16.21333504  161.46899414    0.58999997    2.73000002
   16.21638870  165.74600220    0.58999997    2.73000002
   16.21972275  135.71200562    0.56999999    2.71000004
   16.22305679  119.03399658    0.56999999    2.71000004
   16.22611237  141.03300476    0.56999999    2.71000004
   16.22944450  133.55999756    0.58999997    2.71000004
   16.23250008  140.56100464    0.58999997    2.67000008
   16.23861122  140.56100464    0.56999999    2.71000004
   16.24277878  152.84700012    0.56999999    2.69000006
   16.24583435  133.64999390    0.56999999    2.69000006
   16.24916649  147.58200073    0.56999999    2.71000004
   16.25250053  152.31199646    0.56999999    2.71000004
   16.25555611  157.02699280    0.56999999    2.71000004
   16.25888824  142.30000305    0.56999999    2.71000004
   16.26222229  138.01899719    0.56999999    2.71000004
   16.26527786  145.45100403    0.56999999    2.71000004
   16.26861000  131.31599426    0.56999999    2.71000004
   16.27166557  160.54200745    0.56999999    2.71000004
   16.27499962  149.79499817    0.56999999    2.71000004
   16.27555466  142.88200378    0.56999999    2.71000004
   16.28138924  142.88200378    0.56999999    2.69000006
   16.28555489  147.71200562    0.56999999    2.71000004
   16.28888893  135.44900513    0.56999999    2.73000002
   16.29194450  135.04899597    0.56999999    2.71000004
   16.29527664  134.21600342    0.56999999    2.73000002
   16.29861069  124.12899780    0.56999999    2.73000002
   16.30166626  135.13499451    0.56999999    2.73000002
   16.30499840  136.72799683    0.56999999    2.73000002
   16.30805397  119.00299835    0.56999999    2.71000004
   16.30888748  128.31100464    0.56999999    2.71000004
   16.31166649  141.05099487    0.56999999    2.71000004
   16.31499863  140.59599304    0.56999999    2.71000004
   16.31805611  152.34599304    0.56999999    2.69000006
   16.32444572  152.34599304    0.56999999    2.71000004
   16.32833481  135.47099304    0.56999999    2.71000004
   16.33166695  137.63400269    0.56999999    2.71000004
   16.33500099  139.44000244    0.56999999    2.71000004
   16.33805656  145.66099548    0.56999999    2.71000004
   16.34138870  134.46299744    0.56999999    2.71000004
   16.34222221  143.37899780    0.56999999    2.71000004
   16.34500122  133.33299255    0.56999999    2.71000004
   16.34833336  141.35299683    0.56999999    2.71000004
   16.35138893  154.59100342    0.56999999    2.71000004
   16.35472298  149.12699890    0.56999999    2.71000004
   16.35805511  154.17799377    0.56999999    2.71000004
   16.36111069  166.01300049    0.56999999    2.71000004
   16.36722183  166.01300049    0.56999999    2.73000002
   16.37138939  147.33700562    0.56999999    2.71000004
   16.37444496  131.69500732    0.56999999    2.71000004
   16.37555504  142.86599731    0.56999999    2.71000004
   16.37805557  161.84599304    0.56999999    2.71000004
   16.38138962  162.37500000    0.56999999    2.71000004
   16.38444519  152.80200195    0.56999999    2.71000004
   16.38777733  141.47000122    0.56999999    2.71000004
   16.39111137  155.50399780    0.56999999    2.71000004
   16.39416695  141.43400574    0.56999999    2.71000004
   16.39749908  149.07699585    0.56999999    2.71000004
   16.40055466  141.78399658    0.56999999    2.71000004
   16.40388870  141.27900696    0.56999999    2.71000004
   16.40999985  141.27900696    0.56999999    2.71000004
   16.41416550  153.59800720    0.56999999    2.71000004
   16.41722107  143.51800537    0.56999999    2.71000004
   16.42055511  156.44299316    0.56999999    2.71000004
   16.42388916  146.77000427    0.56999999    2.69000006
   16.42694473  150.87399292    0.56999999    2.71000004
   16.43027687  145.25700378    0.56999999    2.71000004
   16.43361092  144.64900208    0.56999999    2.71000004
   16.43666649  140.51300049    0.56999999    2.71000004
   16.43999863  145.05999756    0.56999999    2.71000004
   16.44222069  147.53300476    0.56999999    2.71000004
   16.44361115  152.86199951    0.56999999    2.71000004
   16.44694328  157.23100281    0.56999999    2.71000004
   16.45277786  157.23100281    0.56999999    2.71000004
   16.45694542  162.32299805    0.56999999    2.69000006
   16.46027946  139.78300476    0.56999999    2.71000004
   16.46333504  140.80700684    0.56999999    2.71000004
   16.46666718  131.73899841    0.56999999    2.71000004
   16.47000122  142.80999756    0.56999999    2.71000004
   16.47305679  146.83700562    0.56999999    2.71000004
   16.47555542  136.34700012    0.56999999    2.71000004
   16.47666740  147.36199951    0.56999999    2.71000004
   16.48000145  148.03700256    0.56999999    2.71000004
   16.48305511  139.09199524    0.56999999    2.73000002
   16.48638916  138.32000732    0.56999999    2.73000002
   16.48972321  134.76300049    0.58999997    2.69000006
   16.49555588  134.76300049    0.55000001    2.71000004
   16.49972153  142.03799438    0.56999999    2.71000004
   16.50305557  129.71400452    0.56999999    2.71000004
   16.50638962  140.72300720    0.56999999    2.73000002
   16.50888824  134.05000305    0.56999999    2.73000002
   16.51000023  131.92399597    0.56999999    2.73000002
   16.51333427  133.99600220    0.56999999    2.73000002
   16.51638794  138.58599854    0.56999999    2.71000004
   16.51972198  137.24600220    0.56999999    2.71000004
   16.52305603  141.14100647    0.55000001    2.75000000
   16.52611160  132.88600159    0.55000001    2.71000004
   16.52944374  142.30700684    0.56999999    2.71000004
   16.53277779  129.54800415    0.55000001    2.71000004
   16.53861046  129.54800415    0.55000001    2.71000004
   16.54277802  130.39599609    0.55000001    2.71000004
   16.54583359  122.81199646    0.55000001    2.73000002
   16.54916573  125.48100281    0.56999999    2.73000002
   16.55222130  144.02600098    0.56999999    2.73000002
   16.55555534  133.74000549    0.56999999    2.73000002
   16.55888748  129.46499634    0.55000001    2.73000002
   16.56194305  124.13600159    0.56999999    2.71000004
   16.56527710  137.69799805    0.56999999    2.71000004
   16.56861115  129.89999390    0.56999999    2.71000004
   16.57166672  130.56900024    0.56999999    2.73000002
   16.57500076  135.38499451    0.56999999    2.71000004
   16.57583427  131.89799500    0.56999999    2.73000002
   16.58139038  131.89799500    0.55000001    2.71000004
   16.58555603  135.09100342    0.55000001    2.73000002
   16.58861160  130.70700073    0.55000001    2.71000004
   16.59194565  142.73500061    0.55000001    2.71000004
   16.59527779  132.61999512    0.55000001    2.71000004
   16.59833336  136.72000122    0.56999999    2.71000004
   16.60166740  125.09300232    0.56999999    2.71000004
   16.60499954  126.33300018    0.56999999    2.71000004
   16.60805511  128.99699402    0.56999999    2.71000004
   16.60916710  126.01200104    0.56999999    2.71000004
   16.61166763  131.70899963    0.56999999    2.71000004
   16.61499977  130.63299561    0.56999999    2.71000004
   16.61805534  127.74199677    0.55000001    2.73000002
   16.62416649  127.74199677    0.55000001    2.71000004
   16.62833405  129.71699524    0.55000001    2.71000004
   16.63166618  123.16899872    0.55000001    2.71000004
   16.63472176  128.33700562    0.56999999    2.71000004
   16.63805580  125.81099701    0.55000001    2.73000002
   16.64138794  133.78500366    0.56999999    2.73000002
   16.64249992  120.13400269    0.56999999    2.71000004
   16.64472198  127.63899994    0.56999999    2.71000004
   16.64805603  136.82400513    0.56999999    2.71000004
   16.65111160  123.43299866    0.56999999    2.71000004
   16.65444374  129.26400757    0.55000001    2.73000002
   16.65777779  123.50599670    0.55000001    2.69000006
   16.66083336  139.19099426    0.55000001    2.73000002
   16.66722107  139.19099426    0.56999999    2.73000002
   16.67111015  132.58999634    0.56999999    2.71000004
   16.67444420  127.91799927    0.55000001    2.71000004
   16.67583275  127.83599854    0.56999999    2.71000004
   16.67805481  131.41099548    0.56999999    2.71000004
   16.68138885  128.02799988    0.56999999    2.73000002
   16.68444443  126.12599945    0.56999999    2.73000002
   16.68777657  126.74600220    0.56999999    2.71000004
   16.69111061  125.16300201    0.56999999    2.71000004
   16.69416618  132.27699280    0.55000001    2.73000002
   16.69749832  134.30400085    0.55000001    2.73000002
   16.70083427  126.82499695    0.55000001    2.73000002
   16.70388985  125.37100220    0.56999999    2.71000004
   16.71000099  125.37100220    0.56999999    2.71000004
   16.71416664  122.39600372    0.55000001    2.73000002
   16.71722221  126.07099915    0.56999999    2.71000004
   16.72055626  133.41000366    0.55000001    2.73000002
   16.72389030  128.68400574    0.56999999    2.71000004
   16.72694588  123.93800354    0.56999999    2.75000000
   16.73027802  124.33999634    0.56999999    2.71000004
   16.73361206  128.02099609    0.56999999    2.71000004
   16.73666763  121.55200195    0.56999999    2.71000004
   16.73999977  122.25299835    0.56999999    2.71000004
   16.74250031  128.98399353    0.56999999    2.71000004
   16.74361229  126.06999969    0.56999999    2.71000004
   16.74694443  130.46699524    0.56999999    2.71000004
   16.75277710  130.46699524    0.56999999    2.73000002
   16.75694466  123.14299774    0.56999999    2.71000004
   16.76000023  119.54799652    0.56999999    2.73000002
   16.76333427  117.22499847    0.56999999    2.73000002
   16.76666641  129.04100037    0.56999999    2.73000002
   16.76972198  130.42399597    0.56999999    2.73000002
   16.77305603  130.34899902    0.56999999    2.73000002
   16.77583313  125.97200012    0.56999999    2.71000004
   16.77666664  123.21600342    0.56999999    2.71000004
   16.78000069  119.05699921    0.56999999    2.73000002
   16.78305435  130.38600159    0.58999997    2.71000004
   16.78638840  119.66699982    0.58999997    2.71000004
   16.78972244  121.44000244    0.58999997    2.71000004
   16.79555511  121.44000244    0.56999999    2.71000004
   16.79972076  115.23300171    0.58999997    2.71000004
   16.80305481  120.47399902    0.56999999    2.73000002
   16.80611038  121.59100342    0.58999997    2.73000002
   16.80916595  122.65100098    0.58999997    2.71000004
   16.80972099  126.80899811    0.58999997    2.71000004
   16.81305504  126.06400299    0.56999999    2.71000004
   16.81638718  118.48699951    0.58999997    2.71000004
   16.81944466  108.41300201    0.58999997    2.71000004
   16.82277870  125.69499969    0.58999997    2.73000002
   16.82583427  120.10600281    0.58999997    2.71000004
   16.82916832  115.32099915    0.58999997    2.73000002
   16.83250046  124.42099762    0.58999997    2.71000004
   16.83833313  124.42099762    0.58999997    2.73000002
   16.84250069  123.05699921    0.61000001    2.73000002
   16.84583473  128.38699341    0.58999997    2.71000004
   16.84916687  123.96099854    0.58999997    2.71000004
   16.85222244  118.51200104    0.58999997    2.71000004
   16.85555649  116.49299622    0.61000001    2.71000004
   16.85888863  120.38600159    0.58999997    2.75000000
   16.86194420  127.82900238    0.58999997    2.73000002
   16.86527824  140.09500122    0.61000001    2.71000004
   16.86833382  142.55900574    0.58999997    2.73000002
   16.87166595  137.93400574    0.58999997    2.69000006
   16.87500000  135.87500000    0.58999997    2.71000004
   16.87583351  140.93099976    0.58999997    2.71000004
   16.89638901  140.93099976    0.58999997    2.71000004
   16.90055466  274.33599854    0.58999997    2.73000002
   16.90361023  255.35899353    0.58999997    2.71000004
   16.90694427  272.48199463    0.58999997    2.71000004
   16.90916634  297.39700317    0.58999997    2.71000004
   16.91083336  302.81500244    0.58999997    2.71000004
   16.91388893  264.68899536    0.58999997    2.71000004
   16.91722107  317.07998657    0.58999997    2.71000004
   16.92055511  327.14300537    0.58999997    2.71000004
   16.92361069  377.02398682    0.58999997    2.71000004
   16.92694473  328.89599609    0.58999997    2.71000004
   16.93000031  310.95800781    0.58999997    2.71000004
   16.93333244  371.05398560    0.58999997    2.71000004
   16.93916512  371.05398560    0.58999997    2.71000004
   16.94333267  345.54299927    0.58999997    2.71000004
   16.94638824  341.60000610    0.58999997    2.71000004
   16.94972038  305.82101440    0.58999997    2.73000002
   16.95305634  358.30899048    0.58999997    2.71000004
   16.95611191  330.89999390    0.58999997    2.71000004
   16.95944595  328.88800049    0.58999997    2.71000004
   16.96277809  315.17599487    0.61000001    2.71000004
   16.96583366  319.95199585    0.58999997    2.71000004
   16.96916771  228.46099854    0.58999997    2.71000004
   16.97222328  363.55801392    0.58999997    2.71000004
   16.97555542  250.10299683    0.58999997    2.71000004
   16.97611237  311.26998901    0.58999997    2.71000004
   16.98194504  311.26998901    0.58999997    2.69000006
   16.98611069  314.17498779    0.61000001    2.71000004
   16.98944473  281.61199951    0.61000001    2.71000004
   16.99250031  264.07998657    0.61000001    2.71000004
   16.99583435  256.02099609    0.61000001    2.71000004
   16.99916649  284.19900513    0.61000001    2.71000004
   17.00222206  251.20599365    0.61000001    2.71000004
   17.00555611  300.76501465    0.58999997    2.71000004
   17.00861168  204.41400146    0.61000001    2.71000004
   17.00944519  307.99700928    0.61000001    2.71000004
   17.01250076  237.39500427    0.58999997    2.71000004
   17.01555634  227.58700562    0.58999997    2.71000004
   17.01888847  258.77600098    0.58999997    2.71000004
   17.02472115  258.77600098    0.58999997    2.71000004
   17.02888870  288.03298950    0.61000001    2.71000004
   17.03222275  289.15399170    0.58999997    2.71000004
   17.03555489  276.40600586    0.61000001    2.71000004
   17.03861046  293.77200317    0.61000001    2.71000004
   17.04194450  264.78399658    0.61000001    2.71000004
   17.04277802  276.40301514    0.61000001    2.71000004
   17.04555511  255.11000061    0.61000001    2.69000006
   17.04861069  220.17900085    0.61000001    2.71000004
   17.05194283  232.49699402    0.61000001    2.71000004
   17.05527687  235.37199402    0.61000001    2.71000004
   17.05833244  272.64001465    0.61000001    2.71000004
   17.06166649  230.74699402    0.61000001    2.71000004
   17.06777954  230.74699402    0.61000001    2.71000004
   17.07166672  241.92599487    0.58999997    2.69000006
   17.07500076  240.23199463    0.61000001    2.69000006
   17.07611275  262.32000732    0.61000001    2.69000006
   17.07861137  250.50999451    0.61000001    2.69000006
   17.08166695  244.56199646    0.61000001    2.71000004
   17.08500099  286.20999146    0.61000001    2.71000004
   17.08833313  275.38198853    0.61000001    2.71000004
   17.09138870  258.82901001    0.61000001    2.71000004
   17.09472275  278.26300049    0.61000001    2.71000004
   17.09777832  280.66101074    0.61000001    2.71000004
   17.10111237  279.86999512    0.61000001    2.71000004
   17.10444450  157.22599792    0.61000001    2.71000004
   17.11444473   -1.00000000    0.61000001    2.73000002
   17.11777878   -1.00000000    0.61000001    2.73000002
   17.20388985   -1.00000000   -1.00000000   -1.00000000
   17.32500076   -1.00000000   -1.00000000   -1.00000000
   17.42611122   -1.00000000   -1.00000000   -1.00000000
   17.50083351  269.53500366    0.64999998    2.71000004
   17.50416756  280.83200073    0.64999998    2.69000006
   17.50722313  256.67098999    0.64999998    2.71000004
   17.51055527  230.32499695    0.64999998    2.71000004
   17.51388931  241.56300354    0.64999998    2.71000004
   17.51694489  265.67800903    0.64999998    2.69000006
   17.52111053  265.67800903    0.64999998    2.69000006
   17.52527809  269.49499512    0.64999998    2.69000006
   17.52861023  287.79299927    0.64999998    2.71000004
   17.53166580  284.72000122    0.64999998    2.71000004
   17.53416634  258.82000732    0.64999998    2.71000004
   17.53555489  251.93800354    0.64999998    2.71000004
   17.53861046  270.10400391    0.64999998    2.71000004
   17.54194450  261.23300171    0.63000000    2.71000004
   17.54527664  272.98901367    0.63000000    2.71000004
   17.54833221  265.64898682    0.63000000    2.71000004
   17.55166626  276.01901245    0.64999998    2.71000004
   17.55499840  286.70401001    0.64999998    2.71000004
   17.55805397  264.43099976    0.64999998    2.71000004
   17.56388855  264.43099976    0.64999998    2.71000004
   17.56805611  268.33700562    0.64999998    2.69000006
   17.57139015  280.10101318    0.64999998    2.69000006
   17.57472229  289.17800903    0.64999998    2.71000004
   17.57777786  300.87399292    0.64999998    2.71000004
   17.58111191  274.03900146    0.64999998    2.69000006
   17.58416748  273.76400757    0.64999998    2.71000004
   17.58750153  288.00500488    0.64999998    2.69000006
   17.59083366  268.98599243    0.64999998    2.69000006
   17.59388924  294.82000732    0.64999998    2.69000006
   17.59722328  283.27700806    0.64999998    2.69000006
   17.60055542  303.61199951    0.64999998    2.69000006
   17.60083389  313.18899536    0.64999998    2.69000006
   17.60694504  313.18899536    0.64999998    2.69000006
   17.61111069  284.55099487    0.64999998    2.71000004
   17.61416626  250.55900574    0.64999998    2.71000004
   17.61750031  265.82998657    0.64999998    2.69000006
   17.62055588  273.52099609    0.67000002    2.69000006
   17.62388992  248.53399658    0.67000002    2.69000006
   17.62722206  250.71099854    0.64999998    2.69000006
   17.63027763  261.50900269    0.64999998    2.69000006
   17.63361168  241.65299988    0.64999998    2.71000004
   17.63416672  266.07101440    0.64999998    2.71000004
   17.63722229  268.04998779    0.64999998    2.71000004
   17.64055634  242.75199890    0.64999998    2.69000006
   17.64361191  278.55801392    0.64999998    2.71000004
   17.64972115  278.55801392    0.64999998    2.69000006
   17.65388870  273.00900269    0.64999998    2.69000006
   17.65694427  264.06298828    0.64999998    2.69000006
   17.66027832  284.94000244    0.64999998    2.69000006
   17.66361046  273.15798950    0.64999998    2.69000006
   17.66666603  281.61499023    0.64999998    2.69000006
   17.66749954  266.77200317    0.64999998    2.69000006
   17.67027664  267.93301392    0.64999998    2.69000006
   17.67361069  278.12298584    0.64999998    2.71000004
   17.67666626  264.81201172    0.64999998    2.69000006
   17.68000031  269.31500244    0.64999998    2.69000006
   17.68333244  263.02801514    0.64999998    2.69000006
   17.68638802  259.84298706    0.64999998    2.69000006
   17.69249916  259.84298706    0.64999998    2.69000006
   17.69666672  278.68499756    0.64999998    2.69000006
   17.70000076  279.69400024    0.64999998    2.69000006
   17.70083427  285.77200317    0.64999998    2.69000006
   17.70361137  275.91500854    0.64999998    2.69000006
   17.70694542  251.89500427    0.64999998    2.69000006
   17.71000099  271.46099854    0.64999998    2.69000006
   17.71333504  310.63598633    0.64999998    2.69000006
   17.71666718  276.17401123    0.64999998    2.69000006
   17.71972275  252.80700684    0.64999998    2.71000004
   17.72305679  252.10699463    0.64999998    2.69000006
   17.72638893  287.63400269    0.64999998    2.69000006
   17.72944450  272.35198975    0.64999998    2.71000004
   17.73527718  272.35198975    0.64999998    2.69000006
   17.73944473  255.15199280    0.64999998    2.69000006
   17.74277878  280.19900513    0.64999998    2.69000006
   17.74611092  264.36499023    0.64999998    2.69000006
   17.74916649  300.51699829    0.64999998    2.69000006
   17.75250053  255.94299316    0.64999998    2.69000006
   17.75555611  285.16000366    0.64999998    2.71000004
   17.75888824  308.82199097    0.64999998    2.71000004
   17.76222229  267.84899902    0.64999998    2.67000008
   17.76527786  278.52801514    0.64999998    2.67000008
   17.76777840  284.23098755    0.64999998    2.71000004
   17.76888847  252.42700195    0.64999998    2.71000004
   17.77222252  295.75100708    0.64999998    2.69000006
   17.77833366  295.75100708    0.64999998    2.71000004
   17.78249931  282.32101440    0.64999998    2.69000006
   17.78555489  279.34500122    0.64999998    2.69000006
   17.78888893  278.37701416    0.64999998    2.69000006
   17.79194450  279.12899780    0.64999998    2.69000006
   17.79527664  280.25500488    0.64999998    2.71000004
   17.79861069  245.44400024    0.64999998    2.71000004
   17.80111122  253.45599365    0.64999998    2.69000006
   17.80222130  254.83599854    0.64999998    2.69000006
   17.80555534  281.54299927    0.64999998    2.69000006
   17.80861092  255.11399841    0.64999998    2.69000006
   17.81222153  280.88101196    0.64999998    2.69000006
   17.81527710  287.22100830    0.64999998    2.71000004
   17.82111168  287.22100830    0.64999998    2.69000006
   17.82527924  255.27000427    0.64999998    2.71000004
   17.82833481  272.41400146    0.64999998    2.71000004
   17.83166695  273.53799438    0.64999998    2.71000004
   17.83444595  286.77301025    0.64999998    2.71000004
   17.83527756  280.21701050    0.67000002    2.69000006
   17.83861160  296.54501343    0.64999998    2.69000006
   17.84194565  282.08401489    0.64999998    2.69000006
   17.84500122  297.92199707    0.64999998    2.69000006
   17.84833336  279.86801147    0.64999998    2.69000006
   17.85166740  275.94699097    0.64999998    2.71000004
   17.85472298  257.65600586    0.64999998    2.71000004
   17.85805511  300.54699707    0.64999998    2.71000004
   17.86388969  300.54699707    0.64999998    2.69000006
   17.86805534  245.32899475    0.64999998    2.69000006
   17.87138939  293.26300049    0.64999998    2.69000006
   17.87444496  266.89099121    0.64999998    2.69000006
   17.87777710  225.57099915    0.64999998    2.69000006
   17.88111115  268.75900269    0.64999998    2.71000004
   17.88416672  253.12300110    0.64999998    2.69000006
   17.88750076  262.94000244    0.64999998    2.71000004
   17.89055634  259.40600586    0.64999998    2.67000008
   17.89388847  260.27499390    0.64999998    2.71000004
   17.89722252  244.19000244    0.64999998    2.69000006
   17.90027809  232.05499268    0.64999998    2.69000006
   17.90111160  218.27699280    0.64999998    2.69000006
   17.90666580  218.27699280    0.64999998    2.69000006
   17.91083336  256.64999390    0.64999998    2.69000006
   17.91416550  257.10598755    0.64999998    2.69000006
   17.91749954  239.72300720    0.64999998    2.69000006
   17.92055511  237.74699402    0.64999998    2.71000004
   17.92388916  256.54800415    0.63000000    2.69000006
   17.92722130  236.63499451    0.63000000    2.69000006
   17.93027687  243.08900452    0.63000000    2.71000004
   17.93361092  233.20500183    0.64999998    2.71000004
   17.93444443  260.11199951    0.63000000    2.69000006
   17.93722153  238.34100342    0.63000000    2.69000006
   17.94055557  266.44799805    0.64999998    2.69000006
   17.94361115  237.98500061    0.64999998    2.69000006
   17.94972038  237.98500061    0.63000000    2.69000006
   17.95361137  242.43899536    0.64999998    2.71000004
   17.95694542  248.38400269    0.64999998    2.69000006
   17.96027946  241.38400269    0.63000000    2.69000006
   17.96333504  259.47000122    0.64999998    2.71000004
   17.96666718  235.33999634    0.64999998    2.69000006
   17.96777916  246.01699829    0.64999998    2.69000006
   17.97027779  248.57400513    0.64999998    2.69000006
   17.97361183  230.34800720    0.64999998    2.69000006
   17.97694588  267.25201416    0.64999998    2.69000006
   17.98000145  229.99899292    0.64999998    2.71000004
   17.98333359  243.23300171    0.64999998    2.67000008
   17.98638916  228.38000488    0.64999998    2.69000006
   17.99250031  228.38000488    0.64999998    2.71000004
   17.99666786  233.19099426    0.63000000    2.69000006
   17.99972153  264.51501465    0.63000000    2.69000006
   18.00111198  262.46398926    0.63000000    2.69000006
   18.00333405  267.79598999    0.64999998    2.69000006
   18.00666618  235.00900269    0.64999998    2.69000006
   18.00972176  259.02301025    0.64999998    2.69000006
   18.01305580  228.16499329    0.64999998    2.69000006
   18.01638794  238.53599548    0.64999998    2.69000006
   18.01944351  270.38299561    0.64999998    2.69000006
   18.02277756  250.82099915    0.64999998    2.69000006
   18.02611160  233.15100098    0.64999998    2.69000006
   18.02916718  237.27000427    0.64999998    2.69000006
   18.03527641  237.27000427    0.64999998    2.71000004
   18.03944397  248.79800415    0.64999998    2.67000008
   18.04277802  249.78399658    0.64999998    2.69000006
   18.04583359  239.08700562    0.64999998    2.69000006
   18.04916573  237.88000488    0.64999998    2.69000006
   18.05222130  224.97599792    0.64999998    2.69000006
   18.05555534  232.94999695    0.64999998    2.69000006
   18.05888748  234.30099487    0.64999998    2.69000006
   18.06194305  245.61199951    0.64999998    2.69000006
   18.06527710  246.97799683    0.64999998    2.69000006
   18.06777954  243.04400635    0.64999998    2.67000008
   18.06888962  233.75900269    0.64999998    2.67000008
   18.07222366  242.40899658    0.64999998    2.67000008
   18.07805634  242.40899658    0.64999998    2.71000004
   18.08222389  249.53100586    0.64999998    2.69000006
   18.08555603  232.49400330    0.67000002    2.69000006
   18.08861160  241.88099670    0.64999998    2.67000008
   18.09194565  234.96000671    0.64999998    2.67000008
   18.09527779  247.01100159    0.67000002    2.69000006
   18.09833336  242.11599731    0.67000002    2.67000008
   18.10111237  238.95799255    0.64999998    2.69000006
   18.10194397  222.09300232    0.67000002    2.69000006
   18.10527802  243.10600281    0.64999998    2.69000006
   18.10833359  246.69000244    0.67000002    2.69000006
   18.11166763  225.41000366    0.64999998    2.69000006
   18.11499977  239.38299561    0.67000002    2.67000008
   18.12111092  239.38299561    0.67000002    2.69000006
   18.12500000  225.02299500    0.67000002    2.69000006
   18.12833405  237.70199585    0.67000002    2.67000008
   18.13166618  266.33898926    0.67000002    2.69000006
   18.13444519  227.54400635    0.64999998    2.69000006
   18.13527679  245.52499390    0.64999998    2.69000006
   18.13861084  267.04098511    0.67000002    2.69000006
   18.14194489  257.96499634    0.64999998    2.69000006
   18.14527702  244.97799683    0.67000002    2.67000008
   18.14833260  235.31900024    0.67000002    2.67000008
   18.15166664  250.36500549    0.64999998    2.69000006
   18.15499878  240.91000366    0.64999998    2.69000006
   18.15805435  239.37600708    0.64999998    2.69000006
   18.16388893  239.37600708    0.67000002    2.67000008
   18.16805458  242.67100525    0.64999998    2.69000006
   18.17111015  244.96099854    0.67000002    2.69000006
   18.17444420  254.09599304    0.67000002    2.69000006
   18.17777634  246.69500732    0.67000002    2.67000008
   18.18083191  240.95500183    0.67000002    2.67000008
   18.18416595  249.59700012    0.67000002    2.67000008
   18.18750000  246.82000732    0.67000002    2.69000006
   18.19055557  233.65699768    0.67000002    2.67000008
   18.19388771  226.53900146    0.67000002    2.67000008
   18.19722176  249.89199829    0.69000000    2.67000008
   18.20027924  242.00100708    0.69000000    2.67000008
   18.20111275  238.37800598    0.69000000    2.67000008
   18.20666695  238.37800598    0.67000002    2.67000008
   18.21083450  224.52099609    0.67000002    2.69000006
   18.21389008  223.72300720    0.67000002    2.66000009
   18.21722221  230.65100098    0.67000002    2.69000006
   18.22055626  240.75000000    0.67000002    2.67000008
   18.22361183  228.42300415    0.67000002    2.67000008
   18.22694588  229.10600281    0.67000002    2.67000008
   18.23027802  246.07099915    0.67000002    2.67000008
   18.23333359  220.98100281    0.67000002    2.69000006
   18.23444557  231.50999451    0.67000002    2.69000006
   18.23694420  238.84500122    0.69000000    2.67000008
   18.24027824  249.87600708    0.67000002    2.69000006
   18.24361229  241.83799744    0.67000002    2.69000006
   18.24944496  241.83799744    0.67000002    2.67000008
   18.25361061  243.12100220    0.67000002    2.69000006
   18.25694466  234.42799377    0.67000002    2.67000008
   18.26000023  230.74800110    0.67000002    2.67000008
   18.26333427  255.39399719    0.67000002    2.67000008
   18.26666641  253.58399963    0.67000002    2.67000008
   18.26777840  223.60899353    0.67000002    2.67000008
   18.27000046  242.72300720    0.67000002    2.67000008
   18.27333260  239.55599976    0.67000002    2.67000008
   18.27666664  227.24400330    0.67000002    2.67000008
   18.27972221  251.68600464    0.67000002    2.67000008
   18.28305435  246.90199280    0.67000002    2.67000008
   18.28610992  229.81399536    0.67000002    2.67000008
   18.29249954  229.81399536    0.67000002    2.67000008
   18.29638863  229.49800110    0.67000002    2.69000006
   18.29972076  224.19999695    0.67000002    2.67000008
   18.30111122  224.22700500    0.67000002    2.67000008
   18.30333328  226.22300720    0.67000002    2.67000008
   18.30666542  220.81500244    0.67000002    2.67000008
   18.30999947  229.88800049    0.67000002    2.67000008
   18.31305504  226.32200623    0.67000002    2.67000008
   18.31638718  218.84500122    0.67000002    2.69000006
   18.31944466  216.66700745    0.67000002    2.69000006
   18.32277870  235.99000549    0.67000002    2.67000008
   18.32611275  222.23100281    0.69000000    2.67000008
   18.32916832  216.93499756    0.69000000    2.66000009
   18.33527756  216.93499756    0.67000002    2.67000008
   18.33944511  226.32000732    0.67000002    2.67000008
   18.34250069  231.53399658    0.69000000    2.67000008
   18.34583473  235.65400696    0.67000002    2.67000008
   18.34916687  223.47200012    0.69000000    2.67000008
   18.35222244  242.20100403    0.67000002    2.67000008
   18.35555649  222.23800659    0.67000002    2.67000008
   18.35861206  226.28799438    0.67000002    2.67000008
   18.36194420  231.41999817    0.69000000    2.67000008
   18.36527824  225.67700195    0.67000002    2.67000008
   18.36777878  237.68299866    0.67000002    2.67000008
   18.36888885  231.71099854    0.67000002    2.67000008
   18.37194443  228.07899475    0.67000002    2.67000008
   18.37805557  228.07899475    0.67000002    2.67000008
   18.38222313  237.41099548    0.67000002    2.67000008
   18.38527679  206.00100708    0.67000002    2.67000008
   18.38861084  219.70799255    0.69000000    2.67000008
   18.39194489  217.89100647    0.67000002    2.67000008
   18.39500046  225.21400452    0.67000002    2.67000008
   18.39833260  218.22700500    0.67000002    2.67000008
   18.40111160  216.55599976    0.67000002    2.67000008
   18.40194321  233.01499939    0.67000002    2.67000008
   18.40527725  223.75500488    0.67000002    2.67000008
   18.40861130  230.77400208    0.69000000    2.67000008
   18.41166687  221.38999939    0.69000000    2.67000008
   18.41499901  229.22900391    0.67000002    2.67000008
   18.42083359  229.22900391    0.67000002    2.66000009
   18.42499924  242.48100281    0.69000000    2.67000008
   18.42833328  223.91999817    0.67000002    2.67000008
   18.43138885  213.51100159    0.69000000    2.67000008
   18.43444443  225.61199951    0.67000002    2.67000008
   18.43499947  239.17799377    0.67000002    2.67000008
   18.43833160  230.66999817    0.67000002    2.67000008
   18.44166565  226.00199890    0.67000002    2.67000008
   18.44472122  187.11000061    0.64999998    2.69000006
   18.44805527  226.18299866    0.64999998    2.67000008
   18.45138931  223.14399719    0.64999998    2.67000008
   18.45444489  223.07000732    0.67000002    2.67000008
   18.45777893  212.35299683    0.67000002    2.67000008
   18.46361160  212.35299683    0.64999998    2.66000009
   18.46777916  231.16999817    0.64999998    2.67000008
   18.47111130  206.35899353    0.64999998    2.69000006
   18.47444534  209.27400208    0.64999998    2.67000008
   18.47750092  218.70500183    0.64999998    2.67000008
   18.48083305  214.20399475    0.67000002    2.66000009
   18.48388863  213.95100403    0.64999998    2.67000008
   18.48722267  228.02600098    0.64999998    2.67000008
   18.49055672  216.95899963    0.67000002    2.67000008
   18.49361229  216.82699585    0.64999998    2.69000006
   18.49694443  222.15400696    0.64999998    2.66000009
   18.50027847  209.78999329    0.67000002    2.67000008
   18.50111198  217.45399475    0.64999998    2.66000009
   18.52166557  217.45399475    0.95999998    2.67000008
   18.52583313  213.98800659    1.33000004    2.67000008
   18.52916718  213.13900757    1.34000003    2.66000009
   18.53222275  199.22300720    1.85000002    2.66000009
   18.53444481  206.08399963    2.21000004    2.67000008
   18.53610992  212.92100525    2.21000004    2.67000008
   18.53916550  212.08299255    2.42000008    2.67000008
   18.54249954  206.22599792    0.76999998    2.67000008
   18.54555511  215.22099304    2.36999989    2.67000008
   18.54888916  208.84800720    4.23999977    2.67000008
   18.55222130  230.21699524    4.90999985    2.67000008
   18.55527687  202.43499756    4.90999985    2.46000004
   18.55861092  213.88400269    4.90999985    2.61999989
   18.56444359  213.88400269    1.26999998    2.67000008
   18.56861115  210.57400513    0.88000000    2.67000008
   18.57194519  191.29699707    1.63000000    2.66000009
   18.57500076  202.23300171    1.39999998    2.64000010
   18.57833481  213.07000732    1.38000000    2.67000008
   18.58166695  212.95300293    1.38000000    2.67000008
   18.58472252  200.74099731    1.48000002    2.67000008
   18.58805656  212.98800659    0.75000000    2.67000008
   18.59138870  209.60299683    0.67000002    2.67000008
   18.59444427  216.53999329    0.69000000    2.66000009
   18.59777832  214.14599609    2.17000008    2.67000008
   18.60083389  214.29800415    2.75000000    2.66000009
   18.60138893  215.96200562    2.78999996    2.66000009
   18.60750008  215.96200562    0.79000002    2.67000008
   18.61138916  217.46899414    0.67000002    2.66000009
   18.61472321  215.06599426    0.69000000    2.66000009
   18.61805534  221.28999329    0.67000002    2.67000008
   18.62111092  219.84700012    0.69000000    2.67000008
   18.62444496  219.40499878    0.69000000    2.67000008
   18.62750053  212.08599854    0.67000002    2.66000009
   18.63083267  219.31700134    0.67000002    2.64000010
   18.63416672  212.20399475    0.67000002    2.67000008
   18.63472176  233.84300232    0.67000002    2.67000008
   18.63777733  204.68499756    0.69000000    2.66000009
   18.64111137  222.57000732    0.69000000    2.66000009
   18.64416695  245.67700195    0.67000002    2.66000009
   18.65027809  245.67700195    0.67000002    2.66000009
   18.65444374  232.73899841    0.69000000    2.67000008
   18.65749931  226.94000244    0.67000002    2.66000009
   18.66083336  235.33900452    0.67000002    2.66000009
   18.66416550  235.70399475    0.67000002    2.67000008
   18.66722107  229.16299438    0.67000002    2.67000008
   18.66805458  240.22500610    0.67000002    2.67000008
   18.67083359  224.05900574    0.67000002    2.67000008
   18.67416573  214.70899963    0.67000002    2.66000009
   18.67722130  231.76699829    0.67000002    2.66000009
   18.68055534  221.52799988    0.67000002    2.66000009
   18.68388748  212.51699829    0.67000002    2.67000008
   18.68694305  226.81500244    0.67000002    2.67000008
   18.69305420  226.81500244    0.67000002    2.66000009
   18.69722176  213.73800659    0.67000002    2.66000009
   18.70055580  203.67700195    0.67000002    2.66000009
   18.70138931  210.82000732    0.67000002    2.66000009
   18.70388985  220.27600098    0.67000002    2.66000009
   18.70722389  214.75500488    0.69000000    2.66000009
   18.71027946  210.58599854    0.67000002    2.66000009
   18.71361160  213.60000610    0.69000000    2.67000008
   18.71694565  240.24299622    0.69000000    2.66000009
   18.72000122  242.73399353    0.69000000    2.67000008
   18.72333336  217.57400513    0.69000000    2.66000009
   18.72638893  235.17199707    0.69000000    2.66000009
   18.72972298  201.76400757    0.67000002    2.66000009
   18.73583412  201.76400757    0.69000000    2.66000009
   18.73999977  212.69299316    0.69000000    2.66000009
   18.74333382  230.38499451    0.67000002    2.66000009
   18.74638939  221.69900513    0.67000002    2.66000009
   18.74972153  244.12600708    0.67000002    2.66000009
   18.75305557  222.08700562    0.67000002    2.66000009
   18.75611115  247.93800354    0.69000000    2.66000009
   18.75944519  216.83099365    0.69000000    2.66000009
   18.76277733  242.97500610    0.69000000    2.66000009
   18.76583290  231.56399536    0.69000000    2.66000009
   18.76805496  229.26499939    0.69000000    2.66000009
   18.76944351  229.26199341    0.69000000    2.66000009
   18.77277756  241.57000732    0.67000002    2.66000009
   18.77888870  241.57000732    0.67000002    2.66000009
   18.78277779  217.72700500    0.67000002    2.66000009
   18.78610992  234.95799255    0.69000000    2.67000008
   18.78944397  226.71699524    0.67000002    2.66000009
   18.79249954  211.91400146    0.67000002    2.64000010
   18.79583359  216.99699402    0.67000002    2.66000009
   18.79888916  253.18699646    0.69000000    2.66000009
   18.80166626  257.94100952    0.67000002    2.66000009
   18.80249977  217.64999390    0.67000002    2.66000009
   18.80583191  264.08801270    0.69000000    2.66000009
   18.80888748  236.72500610    0.69000000    2.64000010
   18.81222153  234.64300537    0.69000000    2.66000009
   18.81555557  230.17799377    0.69000000    2.66000009
   18.82166672  230.17799377    0.69000000    2.66000009
   18.82583427  238.94799805    0.69000000    2.66000009
   18.82888985  251.29800415    0.69000000    2.66000009
   18.83222389  240.68499756    0.69000000    2.66000009
   18.83472252  231.43099976    0.69000000    2.67000008
   18.83583450  232.62500000    0.69000000    2.67000008
   18.83916664  215.81199646    0.69000000    2.66000009
   18.84222221  230.97900391    0.69000000    2.66000009
   18.84555626  236.66700745    0.69000000    2.64000010
   18.84889030  242.69000244    0.69000000    2.64000010
   18.85194397  224.32499695    0.69000000    2.66000009
   18.85527802  193.27699280    0.69000000    2.64000010
   18.85861206  232.33799744    0.69000000    2.66000009
   18.86444473  232.33799744    0.69000000    2.64000010
   18.86861038  227.25500488    0.70999998    2.66000009
   18.87166595  235.56399536    0.69000000    2.66000009
   18.87500000  216.72999573    0.69000000    2.66000009
   18.87833405  229.20899963    0.69000000    2.64000010
   18.88138962  214.00999451    0.69000000    2.66000009
   18.88472176  214.27999878    0.69000000    2.66000009
   18.88805580  203.11399841    0.69000000    2.66000009
   18.89111137  218.30099487    0.69000000    2.64000010
   18.89444351  231.15800476    0.70999998    2.64000010
   18.89749908  216.81399536    0.69000000    2.64000010
   18.90083313  237.61900330    0.69000000    2.64000010
   18.90166664  235.97700500    0.69000000    2.64000010
   18.90722275  235.97700500    0.69000000    2.66000009
   18.91138840  236.67599487    0.69000000    2.66000009
   18.91472244  234.70300293    0.69000000    2.64000010
   18.91777802  245.94200134    0.69000000    2.64000010
   18.92111015  265.17599487    0.70999998    2.64000010
   18.92444420  244.41400146    0.69000000    2.64000010
   18.92749977  254.08700562    0.69000000    2.64000010
   18.93083191  255.49000549    0.69000000    2.66000009
   18.93388748  243.03700256    0.69000000    2.66000009
   18.93499947  242.49400330    0.69000000    2.64000010
   18.93750000  257.75698853    0.69000000    2.66000009
   18.94083214  228.12500000    0.69000000    2.64000010
   18.94416618  259.98400879    0.69000000    2.64000010
   18.95000076  259.98400879    0.69000000    2.66000009
   18.95416832  275.66699219    0.69000000    2.64000010
   18.95750046  272.39300537    0.69000000    2.64000010
   18.96083450  245.84700012    0.69000000    2.64000010
   18.96389008  248.48500061    0.69000000    2.64000010
   18.96722221  228.27799988    0.69000000    2.66000009
   18.96833420  226.55999756    0.69000000    2.64000010
   18.97083473  251.83099365    0.69000000    2.64000010
   18.97416687  247.87600708    0.69000000    2.64000010
   18.97722244  241.62500000    0.69000000    2.64000010
   18.98055649  242.53900146    0.69000000    2.64000010
   18.98388863  264.58099365    0.69000000    2.64000010
   18.98694420  262.15399170    0.69000000    2.64000010
   18.99305534  262.15399170    0.69000000    2.64000010
   18.99722290  251.25700378    0.69000000    2.64000010
   19.00027847  274.17300415    0.69000000    2.64000010
   19.00166702  262.30801392    0.69000000    2.64000010
   19.00388908  246.35400391    0.69000000    2.64000010
   19.00722313  270.63198853    0.69000000    2.64000010
   19.01055527  220.08999634    0.69000000    2.64000010
   19.01361084  231.25500488    0.70999998    2.64000010
   19.01694489  238.28599548    0.70999998    2.64000010
   19.02027702  242.13600159    0.69000000    2.64000010
   19.02333260  258.67898560    0.69000000    2.64000010
   19.02666664  287.07901001    0.69000000    2.64000010
   19.02972221  262.45401001    0.70999998    2.64000010
   19.03583336  262.45401001    0.70999998    2.64000010
   19.03999901  236.22599792    0.70999998    2.64000010
   19.04305458  262.67098999    0.70999998    2.64000010
   19.04638863  269.29400635    0.70999998    2.64000010
   19.04972076  242.68899536    0.70999998    2.64000010
   19.05277634  283.98901367    0.70999998    2.64000010
   19.05611038  225.86500549    0.70999998    2.64000010
   19.05944443  264.57299805    0.70999998    2.64000010
   19.06250000  265.42401123    0.70999998    2.64000010
   19.06583214  245.23599243    0.70999998    2.61999989
   19.06833458  261.32101440    0.70999998    2.61999989
   19.06944466  258.97799683    0.70999998    2.64000010
   19.07277870  264.18200684    0.70999998    2.64000010
   19.07861137  264.18200684    0.70999998    2.64000010
   19.08277893  246.03500366    0.73000002    2.64000010
   19.08611107  271.49200439    0.70999998    2.64000010
   19.08916664  256.67098999    0.70999998    2.64000010
   19.09277916  252.57600403    0.70999998    2.64000010
   19.09583473  262.65798950    0.73000002    2.64000010
   19.09916687  250.96800232    0.73000002    2.64000010
   19.10166740  256.41500854    0.73000002    2.61999989
   19.10277748  235.80700684    0.73000002    2.61999989
   19.10611153  255.32200623    0.73000002    2.64000010
   19.10944557  254.57400513    0.73000002    2.64000010
   19.11250114  232.83399963    0.73000002    2.61999989
   19.11583328  231.33999634    0.73000002    2.61999989
   19.12138939  231.33999634    0.73000002    2.61999989
   19.12555504  230.54699707    0.73000002    2.61999989
   19.12888908  266.72299194    0.73000002    2.61999989
   19.13222313  226.06300354    0.73000002    2.61999989
   19.13500023  227.69700623    0.73000002    2.61999989
   19.13555527  223.63900757    0.73000002    2.64000010
   19.13888931  224.20199585    0.73000002    2.64000010
   19.14194489  229.25199890    0.73000002    2.64000010
   19.14527702  250.28700256    0.73000002    2.64000010
   19.14861107  232.39199829    0.73000002    2.64000010
   19.15166664  236.00599670    0.73000002    2.61999989
   19.15499878  233.54299927    0.73000002    2.61999989
   19.15833282  245.89900208    0.73000002    2.61999989
   19.16444397  245.89900208    0.75000000    2.61999989
   19.16860962  211.50900269    0.73000002    2.61999989
   19.17166519  238.49699402    0.73000002    2.61999989
   19.17499924  210.06599426    0.73000002    2.61999989
   19.17805481  230.15299988    0.73000002    2.61999989
   19.18138885  225.66499329    0.73000002    2.61999989
   19.18472099  236.50700378    0.73000002    2.64000010
   19.18777657  210.28300476    0.73000002    2.61999989
   19.19111061  201.61999512    0.73000002    2.61999989
   19.19444275  216.84700012    0.73000002    2.61999989
   19.19749832  222.41799927    0.73000002    2.61999989
   19.20083427  220.41900635    0.73000002    2.64000010
   19.20166779  204.51199341    0.75000000    2.64000010
   19.20722389  204.51199341    0.73000002    2.61999989
   19.21138954  219.58500671    0.75000000    2.64000010
   19.21444511  218.96299744    0.75000000    2.59999990
   19.21777916  215.26499939    0.75000000    2.61999989
   19.22111130  234.58000183    0.75000000    2.61999989
   19.22416687  249.94500732    0.75000000    2.61999989
   19.22750092  252.40199280    0.75000000    2.61999989
   19.23083305  236.96000671    0.75000000    2.61999989
   19.23388863  246.40800476    0.75000000    2.61999989
   19.23500061  237.80999756    0.75000000    2.61999989
   19.23750114  275.23400879    0.75000000    2.61999989
   19.24083328  204.63299561    0.75000000    2.61999989
   19.24416733  258.82800293    0.75000000    2.61999989
   19.25000000  258.82800293    0.73000002    2.61999989
   19.25416756  248.42599487    0.75000000    2.61999989
   19.25749969  223.74699402    0.73000002    2.61999989
   19.26055527  260.92401123    0.73000002    2.61999989
   19.26388931  236.35800171    0.75000000    2.61999989
   19.26722145  280.87298584    0.75000000    2.61999989
   19.26833344  216.67100525    0.75000000    2.61999989
   19.27055550  244.38000488    0.75000000    2.59999990
   19.27388954  285.10699463    0.75000000    2.61999989
   19.27722168  259.24398804    0.75000000    2.59999990
   19.28027725  266.68301392    0.75000000    2.61999989
   19.28361130  248.88600159    0.75000000    2.61999989
   19.28666687  247.02799988    0.75000000    2.61999989
   19.29277802  247.02799988    0.75000000    2.61999989
   19.29694366  246.65499878    0.75000000    2.59999990
   19.30027771  243.96600342    0.75000000    2.61999989
   19.30166626  254.28700256    0.75000000    2.61999989
   19.30388832  274.34600830    0.75000000    2.59999990
   19.30722237  249.69500732    0.75000000    2.59999990
   19.31055450  251.75700378    0.73000002    2.59999990
   19.31361008  248.96200562    0.73000002    2.59999990
   19.31694603  265.27801514    0.75000000    2.61999989
   19.32027817  296.88900757    0.75000000    2.61999989
   19.32333374  267.92599487    0.75000000    2.61999989
   19.32666779  287.70199585    0.75000000    2.59999990
   19.32972336  242.61300659    0.75000000    2.59999990
   19.33583450  242.61300659    0.75000000    2.61999989
   19.34000015  213.97200012    0.75000000    2.59999990
   19.34305573  282.81600952    0.75000000    2.59999990
   19.34638977  228.05900574    0.75000000    2.59999990
   19.34944534  257.14401245    0.75000000    2.59999990
   19.35277748  252.52600098    0.75000000    2.61999989
   19.35611153  219.91700745    0.75000000    2.59999990
   19.35916710  254.97099304    0.75000000    2.59999990
   19.36250114  208.89799500    0.75000000    2.59999990
   19.36583328  267.16400146    0.75000000    2.59999990
   19.36833382  234.77000427    0.73000002    2.57999992
   19.36916733  277.87899780    0.73000002    2.57999992
   19.37249947  277.51599121    0.75000000    2.59999990
   19.37861061  277.51599121    0.75000000    2.61999989
   19.38277817  192.92300415    0.75000000    2.59999990
   19.38583374  220.62800598    0.75000000    2.59999990
   19.38916588  228.64700317    0.75000000    2.59999990
   19.39249992  243.12199402    0.75000000    2.57999992
   19.39555550  228.50500488    0.75000000    2.59999990
   19.39888954  224.02299500    0.75000000    2.59999990
   19.40166664  226.64900208    0.75000000    2.59999990
   19.40250015  211.76800537    0.75000000    2.57999992
   19.40583229  227.53199768    0.75000000    2.57999992
   19.40916634  258.71099854    0.75000000    2.59999990
   19.41222191  254.41499329    0.75000000    2.59999990
   19.41555595  211.03300476    0.75000000    2.59999990
   19.42138863  211.03300476    0.75000000    2.59999990
   19.42555428  219.06900024    0.75000000    2.57999992
   19.42888832  237.52900696    0.75000000    2.57999992
   19.43194389  224.05900574    0.76999998    2.57999992
   19.43499947  248.57600403    0.75000000    2.59999990
   19.43555450  251.49000549    0.75000000    2.59999990
   19.43888855  211.25599670    0.75000000    2.57999992
   19.44222069  211.45300293    0.75000000    2.57999992
   19.44527626  223.20599365    0.75000000    2.59999990
   19.44861031  197.76899719    0.75000000    2.59999990
   19.45194435  194.41099548    0.75000000    2.59999990
   19.45499992  199.29299927    0.75000000    2.59999990
   19.45833397  206.75599670    0.75000000    2.59999990
   19.46416664  206.75599670    0.75000000    2.57999992
   19.46833420  193.17199707    0.75000000    2.59999990
   19.47166634  218.28700256    0.75000000    2.57999992
   19.47500038  195.57299805    0.75000000    2.57999992
   19.47805595  188.14799500    0.75000000    2.57999992
   19.48139000  193.52099609    0.75000000    2.59999990
   19.48444557  208.01600647    0.75000000    2.57999992
   19.48777771  187.68400574    0.75000000    2.57999992
   19.49111176  195.74000549    0.75000000    2.59999990
   19.49416733  192.14599609    0.75000000    2.57999992
   19.49749947  198.20300293    0.75000000    2.57999992
   19.50083351  205.20599365    0.75000000    2.55999994
   19.50166702  214.59599304    0.75000000    2.57999992
   19.50722313  214.59599304    0.75000000    2.55999994
   19.51138878  212.08900452    0.75000000    2.57999992
   19.51444435  258.53698730    0.75000000    2.57999992
   19.51777840  214.85800171    0.75000000    2.59999990
   19.53527641  222.14199829    0.75000000    2.57999992
   19.53777695  165.71800232    0.75000000    2.57999992
   19.54111099  216.07099915    0.76999998    2.57999992
   19.54416656  253.55700684    0.76999998    2.57999992
   19.55027771  253.55700684    0.76999998    2.57999992
   19.55416679  208.66200256    0.76999998    2.57999992
   19.55749893  195.22399902    0.75000000    2.57999992
   19.56083298  198.04800415    0.75000000    2.55999994
   19.56388855  193.79600525    0.75000000    2.55999994
   19.56722260  196.45399475    0.75000000    2.55999994
   19.56861115  181.99099731    0.75000000    2.57999992
   19.57083511  190.45199585    0.75000000    2.57999992
   19.57389069  182.04400635    0.75000000    2.57999992
   19.57722282  187.87399292    0.75000000    2.57999992
   19.58027840  196.94200134    0.75000000    2.55999994
   19.58361244  199.79899597    0.75000000    2.55999994
   19.58694458  207.07000732    0.75000000    2.57999992
   19.59305573  207.07000732    0.76999998    2.55999994
   19.59722328  199.95799255    0.75000000    2.55999994
   19.60027885  191.72999573    0.75000000    2.55999994
   19.60194397  194.76199341    0.75000000    2.55999994
   19.60416794  195.75900269    0.75000000    2.55999994
   19.60722351  202.46899414    0.75000000    2.55999994
   19.61055565  206.82000732    0.75000000    2.55999994
   19.61361122  194.59899902    0.75000000    2.53999996
   19.61694527  203.88999939    0.76999998    2.55999994
   19.62027740  213.52600098    0.75000000    2.55999994
   19.62333298  195.74299622    0.76999998    2.55999994
   19.62666702  203.75700378    0.75000000    2.55999994
   19.63000107  205.24899292    0.75000000    2.55999994
   19.63583374  205.24899292    0.75000000    2.57999992
   19.63999939  190.42900085    0.75000000    2.55999994
   19.64333344  191.25700378    0.75000000    2.55999994
   19.64638901  199.00700378    0.75000000    2.55999994
   19.64972115  195.13600159    0.75000000    2.55999994
   19.65277672  194.03599548    0.75000000    2.55999994
   19.65611076  202.30099487    0.75000000    2.55999994
   19.65944481  194.43400574    0.75000000    2.55999994
   19.66250038  200.10099792    0.75000000    2.55999994
   19.66583252  206.93699646    0.75000000    2.55999994
   19.66860962  182.46600342    0.75000000    2.55999994
   19.66944313  189.73699951    0.75000000    2.55999994
   19.67249870  205.75300598    0.75000000    2.53999996
   19.67888832  205.75300598    0.75000000    2.55999994
   19.68277740  200.96600342    0.75000000    2.55999994
   19.68610954  202.22500610    0.73000002    2.55999994
   19.68944359  188.66099548    0.73000002    2.55999994
   19.69249916  189.91200256    0.73000002    2.55999994
   19.69583321  201.33000183    0.73000002    2.55999994
   19.69916534  169.97500610    0.73000002    2.55999994
   19.70194435  192.37899780    0.73000002    2.55999994
   19.70277786  160.63200378    0.73000002    2.55999994
   19.70583344  185.38200378    0.73000002    2.55999994
   19.70916748  176.10499573    0.73000002    2.53999996
   19.71250153  181.35499573    0.73000002    2.53999996
   19.71555710  180.88299561    0.73000002    2.53999996
   19.72166634  180.88299561    0.73000002    2.53999996
   19.72583389  182.85600281    0.75000000    2.53999996
   19.72888947  181.55799866    0.75000000    2.55999994
   19.73222351  175.79299927    0.75000000    2.55999994
   19.73527718  170.68499756    0.75000000    2.53999996
   19.73583412  184.85299683    0.75000000    2.53999996
   19.73888969  171.62600708    0.75000000    2.53999996
   19.74222183  179.06399536    0.75000000    2.53999996
   19.74527740  180.22200012    0.75000000    2.53999996
   19.74861145  185.92599487    0.76999998    2.53999996
   19.75194359  180.05099487    0.75000000    2.53999996
   19.75499916  176.18600464    0.75000000    2.53999996
   19.75833321  170.80799866    0.75000000    2.53999996
   19.76444435  170.80799866    0.75000000    2.53999996
   19.76861000  177.96200562    0.75000000    2.53999996
   19.76916695  169.37800598    0.75000000    2.53999996
   19.77222252  181.51600647    0.75000000    2.53999996
   19.77555466  176.86500549    0.75000000    2.53999996
   19.77861023  165.09599304    0.75000000    2.53999996
   19.78194427  182.48500061    0.75000000    2.53999996
   19.78527641  184.89700317    0.75000000    2.53999996
   19.78833199  173.53300476    0.75000000    2.53999996
   19.79166603  179.71200562    0.75000000    2.53999996
   19.79500008  182.50999451    0.75000000    2.51999998
   19.79805565  185.87800598    0.75000000    2.53999996
   19.80138779  184.24800110    0.75000000    2.53999996
   19.80194283  177.70500183    0.75000000    2.53999996
   19.80722237  177.70500183    0.75000000    2.51999998
   19.81138802  200.26899719    0.75000000    2.51999998
   19.81472206  192.22099304    0.75000000    2.53999996
   19.81777954  184.57899475    0.75000000    2.53999996
   19.82111168  188.78999329    0.75000000    2.51999998
   19.82416725  187.07299805    0.75000000    2.51999998
   19.82750130  188.27299500    0.75000000    2.51999998
   19.83083344  178.91900635    0.75000000    2.51999998
   19.83388901  193.38400269    0.76999998    2.51999998
   19.83555603  199.45399475    0.76999998    2.53999996
   19.83777809  186.76499939    0.79000002    2.51999998
   19.84111214  180.35899353    0.79000002    2.51999998
   19.84416771  169.71000671    0.79000002    2.51999998
   19.85000038  169.71000671    0.80000001    2.51999998
   19.85416794  239.22399902    0.79000002    2.51999998
   19.85750008  254.72200012    0.76999998    2.51999998
   19.86055565  268.79699707    0.76999998    2.51999998
   19.86388969  179.38900757    0.76999998    2.51999998
   19.86722183  235.84599304    0.75000000    2.53999996
   19.86861038  145.03199768    0.76999998    2.51999998
   19.87083435   -1.00000000    0.76999998    2.51999998
   19.87388992   -1.00000000    0.76999998    2.51999998
   19.87722206   -1.00000000    0.76999998    2.51999998
   19.88055611   -1.00000000    0.76999998    2.51999998
   19.88361168   -1.00000000    0.75000000    2.51999998
   19.88694382   -1.00000000    0.75000000    2.51999998
   19.89694405   -1.00000000    0.76999998    2.51999998
   19.90027809   -1.00000000    0.75000000    2.50000000
   19.90361023   -1.00000000    0.75000000    2.51999998
   19.90694427   -1.00000000    0.75000000    2.51999998
   19.91027832   -1.00000000    0.75000000    2.51999998
   19.91333389   -1.00000000    0.75000000    2.48000002
   19.91666603   -1.00000000    0.75000000    2.51999998
   19.91972160   -1.00000000    0.75000000    2.51999998
   19.92305565   -1.00000000    0.75000000    2.51999998
   19.92638779   -1.00000000    0.75000000    2.51999998
   19.92944336   -1.00000000    0.75000000    2.51999998
   19.93972206   -1.00000000    0.75000000    2.51999998
   19.94305420   -1.00000000    0.75000000    2.51999998
   19.94638824   -1.00000000    0.75000000    2.51999998
   19.94944382   -1.00000000    0.75000000    2.50000000
   19.95277786   -1.00000000    0.75000000    2.50000000
   19.95611191   -1.00000000    0.75000000    2.50000000
   19.95916748   -1.00000000    0.75000000    2.50000000
   19.96250153   -1.00000000    0.76999998    2.50000000
   19.96555710   -1.00000000    0.75000000    2.50000000
   19.96916771   -1.00000000    0.75000000    2.50000000
   19.97249985   -1.00000000    0.75000000    2.50000000
   19.98277855   -1.00000000    0.75000000    2.50000000
   19.98583412   -1.00000000    0.75000000    2.50000000
   19.98916626   -1.00000000    0.75000000    2.50000000
   19.99250031   -1.00000000    0.75000000    2.50000000
   19.99555588   -1.00000000    0.76999998    2.50000000
   19.99888992   -1.00000000    0.76999998    2.50000000
   20.00222206   -1.00000000    0.76999998    2.50000000
   20.00555611   -1.00000000    0.76999998    2.50000000
   20.00916672   -1.00000000    0.76999998    2.50000000
   20.01222229   -1.00000000    0.76999998    2.50000000
   20.01555634   -1.00000000    0.76999998    2.50000000
   20.02555466   -1.00000000    0.75000000    2.50000000
   20.02888870   -1.00000000    0.75000000    2.50000000
   20.03194427   -1.00000000    0.75000000    2.50000000
   20.03555489   -1.00000000    0.75000000    2.50000000
   20.03888893   -1.00000000    0.75000000    2.50000000
   20.04222107   -1.00000000    0.75000000    2.50000000
   20.04527664   -1.00000000    0.75000000    2.50000000
   20.04861069   -1.00000000    0.79000002    2.48000002
   20.05166626   -1.00000000    0.79000002    2.48000002
   20.05499840   -1.00000000    0.79000002    2.50000000
   20.05833244   -1.00000000    0.79000002    2.48000002
   20.06833458   -1.00000000    0.80000001    2.48000002
   20.07194519   -1.00000000    0.80000001    2.46000004
   20.07527924   -1.00000000    0.80000001    2.48000002
   20.07861137   -1.00000000    0.80000001    2.48000002
   20.08166695   -1.00000000    0.80000001    2.48000002
   20.08500099   -1.00000000    0.81999999    2.48000002
   20.08833313   -1.00000000    0.80000001    2.46000004
   20.09138870   -1.00000000    0.81999999    2.46000004
   20.09472275   -1.00000000    0.80000001    2.48000002
   20.09777832   -1.00000000    0.80000001    2.48000002
   20.10111237   -1.00000000    0.81999999    2.46000004
   20.11111069   -1.00000000    0.81999999    2.48000002
   20.11444473   -1.00000000    0.83999997    2.48000002
   20.11777878   -1.00000000    0.83999997    2.48000002
   20.12083435   -1.00000000    0.83999997    2.48000002
   20.12416649   -1.00000000    0.83999997    2.48000002
   20.12750053   -1.00000000    0.81999999    2.48000002
   20.13055611   -1.00000000    0.81999999    2.46000004
   20.13388824   -1.00000000    0.81999999    2.46000004
   20.13722229   -1.00000000    0.83999997    2.46000004
   20.14055634   -1.00000000    0.83999997    2.48000002
   20.14388847   -1.00000000    0.83999997    2.46000004
   20.15416718   -1.00000000    0.83999997    2.46000004
   20.15722275   -1.00000000    0.83999997    2.46000004
   20.16055489   -1.00000000    0.86000001    2.46000004
   20.16388893   -1.00000000    0.86000001    2.46000004
   20.16694450   -1.00000000    0.86000001    2.46000004
   20.17055511   -1.00000000    0.86000001    2.46000004
   20.17388916   -1.00000000    0.86000001    2.46000004
   20.17722130   -1.00000000    0.88000000    2.46000004
   20.18027687   -1.00000000    0.86000001    2.44000006
   20.18361092   -1.00000000    0.88000000    2.44000006
   20.18666649   -1.00000000    0.86000001    2.44000006
   20.19694328   -1.00000000    0.86000001    2.44000006
   20.20000076   -1.00000000    0.86000001    2.44000006
   20.20361137   -1.00000000    0.86000001    2.44000006
   20.20722389   -1.00000000    0.88000000    2.44000006
   20.21055603   -1.00000000    0.88000000    2.44000006
   20.21361160   -1.00000000    0.88000000    2.44000006
   20.21694565   -1.00000000    0.88000000    2.44000006
   20.22027779   -1.00000000    0.88000000    2.44000006
   20.22333336   -1.00000000    0.88000000    2.44000006
   20.22666740   -1.00000000    0.89999998    2.44000006
   20.22972298   -1.00000000    0.88000000    2.42000008
   20.23972321   -1.00000000    0.89999998    2.42000008
   20.24305534   -1.00000000    0.89999998    2.42000008
   20.24611092   -1.00000000    0.89999998    2.42000008
   20.24944496   -1.00000000    0.89999998    2.44000006
   20.25277710   -1.00000000    0.92000002    2.42000008
   20.25583267   -1.00000000    0.92000002    2.42000008
   20.25916672   -1.00000000    0.92000002    2.44000006
   20.26222229   -1.00000000    0.92000002    2.42000008
   20.26555634   -1.00000000    0.92000002    2.42000008
   20.26888847   -1.00000000    0.92000002    2.42000008
   20.27249908   -1.00000000    0.92000002    2.42000008
   20.28249931   -1.00000000    0.92000002    2.42000008
   20.28583336   -1.00000000    0.92000002    2.42000008
   20.28916550   -1.00000000    0.92000002    2.42000008
   20.29222107   -1.00000000    0.92000002    2.42000008
   20.29555511   -1.00000000    0.92000002    2.40000010
   20.29861069   -1.00000000    0.92000002    2.40000010
   20.30194283   -1.00000000    0.92000002    2.42000008
   20.30555534   -1.00000000    0.92000002    2.42000008
   20.30888748   -1.00000000    0.92000002    2.40000010
   20.31194305   -1.00000000    0.92000002    2.40000010
   20.31527710   -1.00000000    0.94000000    2.40000010
   20.32555580   -1.00000000    0.94000000    2.42000008
   20.32861137   -1.00000000    0.94000000    2.42000008
   20.33194542   -1.00000000    0.94000000    2.42000008
   20.33500099   -1.00000000    0.94000000    2.42000008
   20.33861160   -1.00000000    0.94000000    2.42000008
   20.34194565   -1.00000000    0.94000000    2.42000008
   20.34500122   -1.00000000    0.94000000    2.42000008
   20.34833336   -1.00000000    0.94000000    2.42000008
   20.35138893   -1.00000000    0.92000002    2.40000010
   20.35472298   -1.00000000    0.95999998    2.40000010
   20.35805511   -1.00000000    0.95999998    2.40000010
   20.36833382   -1.00000000    0.95999998    2.40000010
   20.37194443   -1.00000000    0.95999998    2.39000010
   20.37527847   -1.00000000    0.95999998    2.39000010
   20.37833405   -1.00000000    0.95999998    2.39000010
   20.38166618   -1.00000000    0.98000002    2.39000010
   20.38472176   -1.00000000    0.95999998    2.39000010
   20.38805580   -1.00000000    0.95999998    2.39000010
   20.39138794   -1.00000000    0.95999998    2.39000010
   20.39444351   -1.00000000    0.95999998    2.39000010
   20.39777756   -1.00000000    0.95999998    2.40000010
   20.40111160   -1.00000000    0.95999998    2.39000010
   20.41110992   -1.00000000    0.95999998    2.39000010
