    HOUR (UT)   FLARE FACTOR    SKY TESTER    SUN TESTER
   11.20666695   -1.00000000   -1.00000000   -1.00000000
   11.24444485  169.49200439    4.00000000    2.40000010
   11.24833393  171.85000610    4.00000000    2.40000010
   11.25333309  167.89900208    4.00000000    2.40000010
   11.25666714  166.41700745    4.00000000    2.40000010
   11.25972176  168.88699341    3.99000001    2.40000010
   11.26305580  183.89199829    3.99000001    2.40000010
   11.26638889  183.59300232    3.99000001    2.42000008
   11.26944447  180.80200195    3.97000003    2.40000010
   11.27277756  192.38099670    3.95000005    2.40000010
   11.27583313  196.16700745    3.95000005    2.42000008
   11.27777767  194.03999329    3.95000005    2.42000008
   11.27944374  165.02200317    3.95000005    2.40000010
   11.28277779  174.64100647    3.95000005    2.40000010
   11.28611183  182.45199585    3.95000005    2.42000008
   11.28916740  181.71899414    3.95000005    2.42000008
   11.29250050  193.11199951    3.93000007    2.42000008
   11.29555607  192.16299438    3.93000007    2.42000008
   11.29888916  188.26600647    3.93000007    2.42000008
   11.30222225  178.01100159    3.93000007    2.42000008
   11.30527782  177.05099487    3.93000007    2.42000008
   11.30861092  189.47300720    3.93000007    2.42000008
   11.31111145  183.93699646    3.93000007    2.42000008
   11.31222248  192.69900513    3.93000007    2.42000008
   11.31555557  187.92500305    3.93000007    2.42000008
   11.31888866  181.69900513    3.91000009    2.42000008
   11.32194424  184.98699951    3.93000007    2.42000008
   11.32527733  186.02299500    3.91000009    2.42000008
   11.32861137  173.89300537    3.91000009    2.42000008
   11.33166695  191.99699402    3.89000010    2.42000008
   11.33500004  180.18200684    3.89000010    2.42000008
   11.33805561  182.64300537    3.86999989    2.44000006
   11.34138870  182.34700012    3.86999989    2.42000008
   11.34444427  175.58500671    3.86999989    2.44000006
   11.34499931  182.11599731    3.86999989    2.44000006
   11.34833336  192.26899719    3.84999990    2.44000006
   11.35166740  185.49800110    3.84999990    2.44000006
   11.35472298  178.41700745    3.84999990    2.44000006
   11.35805607  191.46499634    3.82999992    2.44000006
   11.36111164  187.73899841    3.82999992    2.46000004
   11.36444473  180.40800476    3.82999992    2.44000006
   11.36777782  185.84800720    3.82999992    2.46000004
   11.37083340  180.50199890    3.80999994    2.44000006
   11.37416649  182.11399841    3.80999994    2.46000004
   11.37750053  186.41999817    3.78999996    2.46000004
   11.37777805  177.36799622    3.78999996    2.44000006
   11.38111115  189.68699646    3.78999996    2.46000004
   11.38444424  195.16000366    3.78999996    2.46000004
   11.38749981  184.77699280    3.78999996    2.46000004
   11.39083290  187.11199951    3.76999998    2.46000004
   11.39416695  199.71000671    3.76999998    2.46000004
   11.39722252  191.94900513    3.76999998    2.46000004
   11.40055561  173.10899353    3.75000000    2.46000004
   11.40361118  185.56599426    3.76999998    2.46000004
   11.40722179  185.27999878    3.75000000    2.46000004
   11.41055489  171.22700500    3.73000002    2.46000004
   11.41111088  175.97200012    3.73000002    2.46000004
   11.41416645  176.25599670    3.73000002    2.46000004
   11.41750050  170.80099487    3.73000002    2.46000004
   11.42055607  180.36399841    3.72000003    2.46000004
   11.42388916  183.66400146    3.72000003    2.46000004
   11.42722225  180.05200195    3.72000003    2.46000004
   11.43027782  167.20399475    3.70000005    2.46000004
   11.43361092  159.94999695    3.70000005    2.48000002
   11.43694496  177.60800171    3.68000007    2.46000004
   11.44000053  170.43800354    3.68000007    2.48000002
   11.44333363  181.61099243    3.68000007    2.48000002
   11.44444466  181.23699951    3.68000007    2.48000002
   11.44694424  179.45199585    3.68000007    2.48000002
   11.45027733  175.51800537    3.66000009    2.48000002
   11.45333290  190.18099976    3.66000009    2.48000002
   11.45666695  178.03500366    3.66000009    2.48000002
   11.46000004  176.79600525    3.66000009    2.48000002
   11.46305561  184.20599365    3.64000010    2.48000002
   11.46638870  180.83399963    3.64000010    2.48000002
   11.46972179  169.05299377    3.61999989    2.48000002
   11.47277737  176.30499268    3.61999989    2.48000002
   11.47611046  177.50900269    3.61999989    2.50000000
   11.47805500  171.25599670    3.61999989    2.48000002
   11.47972202  179.60200500    3.59999990    2.50000000
   11.48305511  171.49699402    3.59999990    2.50000000
   11.48611164  174.36399841    3.61999989    2.50000000
   11.48944473  168.00300598    3.59999990    2.48000002
   11.49277782  170.14999390    3.59999990    2.50000000
   11.49583340  169.38600159    3.59999990    2.50000000
   11.49916649  169.82899475    3.57999992    2.50000000
   11.50249958  170.89999390    3.59999990    2.50000000
   11.50555515  163.58299255    3.57999992    2.50000000
   11.50888920  174.68299866    3.57999992    2.50000000
   11.51138878  176.87899780    3.57999992    2.50000000
   11.51249981  176.64399719    3.57999992    2.50000000
   11.51583290  162.80099487    3.55999994    2.50000000
   11.51888847  180.67799377    3.55999994    2.50000000
   11.52222157  168.65199280    3.55999994    2.51999998
   11.52555561  183.46899414    3.53999996    2.50000000
   11.52861118  168.52400208    3.53999996    2.50000000
   11.53194427  165.81700134    3.53999996    2.50000000
   11.53527832  158.66400146    3.51999998    2.50000000
   11.53833389  178.27799988    3.51999998    2.50000000
   11.54166698  159.52900696    3.51999998    2.50000000
   11.54472256  167.35299683    3.51999998    2.50000000
   11.54527855  173.63000488    3.50000000    2.50000000
   11.54861164  162.27799988    3.50000000    2.50000000
   11.55166721  156.92999268    3.51999998    2.50000000
   11.55500031  163.02699280    3.50000000    2.51999998
   11.55833340  169.22099304    3.50000000    2.51999998
   11.56138897  171.79200745    3.50000000    2.51999998
   11.56472206  172.06399536    3.50000000    2.51999998
   11.56805515  176.74600220    3.48000002    2.51999998
   11.57111073  171.82099915    3.48000002    2.51999998
   11.57444477  159.90100098    3.48000002    2.51999998
   11.57750034  169.00799561    3.48000002    2.51999998
   11.57805538  167.65400696    3.48000002    2.51999998
   11.58138847  178.55999756    3.46000004    2.51999998
   11.58472157  167.71800232    3.46000004    2.51999998
   11.58777714  170.22500610    3.45000005    2.53999996
   11.59111118  169.54200745    3.45000005    2.51999998
   11.59444427  172.63999939    3.45000005    2.51999998
   11.59749985  166.67199707    3.45000005    2.51999998
   11.60083389  161.54299927    3.45000005    2.53999996
   11.60388947  171.03300476    3.43000007    2.51999998
   11.60722256  170.86500549    3.43000007    2.51999998
   11.61055565  163.81799316    3.43000007    2.53999996
   11.61138916  157.68099976    3.43000007    2.53999996
   11.61416721  160.36599731    3.41000009    2.53999996
   11.61750031  157.26499939    3.41000009    2.53999996
   11.62055588  199.76400757    3.41000009    2.53999996
   11.62388897  189.46099854    3.41000009    2.53999996
   11.62722206  162.92300415    3.41000009    2.53999996
   11.63027763  166.13800049    3.41000009    2.53999996
   11.63361073  164.17300415    3.41000009    2.53999996
   11.63666630  154.65600586    3.39000010    2.55999994
   11.64000034  163.72000122    3.39000010    2.55999994
   11.64333344  163.52200317    3.39000010    2.53999996
   11.64472198  167.67999268    3.39000010    2.53999996
   11.64694405  180.70300293    3.36999989    2.53999996
   11.65027714  186.55700684    3.36999989    2.53999996
   11.65333271  242.73300171    3.36999989    2.53999996
   11.65666676  261.30099487    3.36999989    2.53999996
   11.65999985  335.87399292    3.36999989    2.53999996
   11.66305542  286.83401489    3.36999989    2.55999994
   11.66638851  343.63400269    3.36999989    2.53999996
   11.66944504  207.39100647    3.34999990    2.55999994
   11.67277813  320.12799072    3.34999990    2.55999994
   11.67611122  258.48098755    3.34999990    2.55999994
   11.67805576  299.97500610    3.32999992    2.55999994
   11.67972279  324.48599243    3.34999990    2.55999994
   11.68305588  317.68701172    3.32999992    2.55999994
   11.68611145  300.60299683    3.30999994    2.55999994
   11.68944454  299.87799072    3.28999996    2.55999994
   11.69277763  320.79199219    3.28999996    2.55999994
   11.69583321  273.23901367    3.30999994    2.57999992
   11.69916630  318.71099854    3.28999996    2.55999994
   11.70222187  308.62500000    3.28999996    2.55999994
   11.70555496  317.59799194    3.28999996    2.55999994
   11.70888901  308.79000854    3.28999996    2.55999994
   11.71138859  312.50500488    3.26999998    2.57999992
   11.71249962  310.20199585    3.26999998    2.57999992
   11.71583271  280.07199097    3.26999998    2.55999994
   11.71888828  296.72399902    3.26999998    2.57999992
   11.72222137  312.17098999    3.25000000    2.57999992
   11.72555542  305.42098999    3.25000000    2.55999994
   11.72861099  284.38900757    3.25000000    2.57999992
   11.73194408  305.00201416    3.25000000    2.57999992
   11.73500061  329.77700806    3.25000000    2.57999992
   11.73833370  292.80599976    3.25000000    2.55999994
   11.74166679  303.45901489    3.25000000    2.57999992
   11.74472237  304.33499146    3.23000002    2.57999992
   11.74527836  306.97399902    3.23000002    2.57999992
   11.74861145  285.53698730    3.23000002    2.57999992
   11.75166702  295.61999512    3.23000002    2.59999990
   11.75500011  279.95498657    3.23000002    2.57999992
   11.75833321  259.10900879    3.23000002    2.59999990
   11.76138878  303.27801514    3.23000002    2.57999992
   11.76472187  280.51599121    3.21000004    2.57999992
   11.76777744  290.44601440    3.21000004    2.59999990
   11.77111053  287.11300659    3.21000004    2.57999992
   11.77444458  307.52099609    3.20000005    2.59999990
   11.77750015  272.19900513    3.20000005    2.59999990
   11.77805519  276.74899292    3.20000005    2.59999990
   11.78111076  252.71499634    3.20000005    2.59999990
   11.78444481  307.61401367    3.20000005    2.57999992
   11.78750038  264.88198853    3.18000007    2.59999990
   11.79083347  264.55899048    3.18000007    2.59999990
   11.79416752  299.38598633    3.18000007    2.57999992
   11.79722309  284.80801392    3.20000005    2.57999992
   11.80055618  281.64898682    3.20000005    2.59999990
   11.80361176  320.30599976    3.20000005    2.59999990
   11.80694485  248.72599792    3.21000004    2.57999992
   11.81027794  262.70700073    3.21000004    2.59999990
   11.81138897  256.38699341    3.21000004    2.59999990
   11.81388950  263.74798584    3.21000004    2.59999990
   11.81722260  258.52301025    3.20000005    2.59999990
   11.82027817  248.49699402    3.20000005    2.57999992
   11.82361126  252.45799255    3.20000005    2.59999990
   11.82694435  249.46800232    3.18000007    2.59999990
   11.82999992  247.43299866    3.18000007    2.59999990
   11.83333302  245.87899780    3.18000007    2.59999990
   11.83666611  263.94799805    3.18000007    2.61999989
   11.83972168  236.71800232    3.18000007    2.59999990
   11.84305477  266.46200562    3.16000009    2.57999992
   11.84472179  249.61799622    3.16000009    2.59999990
   11.84666634  249.81500244    3.14000010    2.59999990
   11.85000038  228.69200134    3.16000009    2.59999990
   11.85305595  224.45500183    3.14000010    2.59999990
   11.85638905  254.28700256    3.11999989    2.59999990
   11.85972214  243.64199829    3.11999989    2.59999990
   11.86277771  235.94200134    3.11999989    2.59999990
   11.86611176  258.88198853    3.11999989    2.59999990
   11.86944485  236.60800171    3.09999990    2.59999990
   11.87250042  246.90400696    3.09999990    2.59999990
   11.87583351  256.08300781    3.09999990    2.59999990
   11.87805557  246.21099854    3.09999990    2.61999989
   11.87944412  235.24400330    3.09999990    2.59999990
   11.88277817  253.59199524    3.07999992    2.59999990
   11.88583279  219.39199829    3.09999990    2.59999990
   11.88916683  262.36801147    3.07999992    2.61999989
   11.89249992  242.45599365    3.05999994    2.61999989
   11.89555550  234.71200562    3.07999992    2.59999990
   11.89888859  231.76699829    3.05999994    2.61999989
   11.90222168  251.71000671    3.05999994    2.61999989
   11.90527725  250.36700439    3.03999996    2.59999990
   11.90861034  231.39900208    3.05999994    2.61999989
   11.91138840  241.77999878    3.03999996    2.61999989
   11.91222191  234.83599854    3.03999996    2.61999989
   11.91555500  239.62100220    3.03999996    2.61999989
   11.91861153  212.55700684    3.03999996    2.64000010
   11.92194462  236.19599915    3.01999998    2.61999989
   11.92527771  251.65400696    3.01999998    2.61999989
   11.92916679  212.51499939    3.01999998    2.61999989
   11.93249989  238.61300659    3.01999998    2.61999989
   11.93555546  241.83099365    3.01999998    2.61999989
   11.93888855  215.96899414    3.00000000    2.61999989
   11.94222260  215.09199524    3.00000000    2.61999989
   11.94499969  209.56199646    2.98000002    2.61999989
   11.94583321  228.32899475    2.98000002    2.64000010
   11.94916630  204.51699829    2.98000002    2.64000010
   11.95222187  216.18099976    3.00000000    2.64000010
   11.95555496  234.39900208    2.98000002    2.64000010
   11.95888901  230.33700562    2.96000004    2.64000010
   11.96194458  223.08500671    2.96000004    2.64000010
   11.96527767  204.41600037    2.96000004    2.64000010
   11.96861076  234.47999573    2.94000006    2.64000010
   11.97166634  236.16799927    2.94000006    2.64000010
   11.97499943  231.81900024    2.94000006    2.64000010
   11.97833252  202.16099548    2.94000006    2.64000010
   11.97861099  204.09500122    2.94000006    2.64000010
   11.98194408  292.01800537    2.93000007    2.64000010
   11.98500061  317.85998535    2.94000006    2.64000010
   11.98833370  337.11199951    2.93000007    2.64000010
   11.99166679  306.34799194    2.94000006    2.64000010
   11.99472237  296.66400146    2.93000007    2.66000009
   11.99805546  301.64599609    2.93000007    2.64000010
   12.00138855  292.99099731    2.91000009    2.64000010
   12.00444412  309.59100342    2.93000007    2.64000010
   12.00777817  239.03900146    2.91000009    2.64000010
   12.01083374  307.00100708    2.93000007    2.66000009
   12.01166630  255.34399414    2.93000007    2.66000009
   12.01444435  276.59500122    2.91000009    2.64000010
   12.01777744  246.81700134    2.89000010    2.66000009
   12.02083302  254.46400452    2.91000009    2.66000009
   12.02416611  212.54699707    2.91000009    2.66000009
   12.02750015  240.16000366    2.89000010    2.66000009
   12.03055573  214.31199646    2.89000010    2.66000009
   12.03388977  185.18299866    2.89000010    2.66000009
   12.03722286  207.99499512    2.89000010    2.66000009
   12.04027843  197.22799683    2.86999989    2.66000009
   12.04361153  184.43299866    2.86999989    2.66000009
   12.04500008  221.54100037    2.86999989    2.66000009
   12.04722309  166.20300293    2.86999989    2.66000009
   12.05055618  200.86300659    2.84999990    2.64000010
   12.05361176  164.50799561    2.84999990    2.66000009
   12.05694485  209.85600281    2.84999990    2.66000009
   12.06027794  194.18600464    2.84999990    2.67000008
   12.06333351  154.38999939    2.84999990    2.67000008
   12.06666660  190.85000610    2.84999990    2.67000008
   12.06999969  200.61799622    2.82999992    2.66000009
   12.07305527  152.13900757    2.82999992    2.66000009
   12.07638836  194.50599670    2.82999992    2.66000009
   12.07833290  175.13400269    2.82999992    2.66000009
   12.07999992  168.59599304    2.82999992    2.66000009
   12.08333302  165.45599365    2.82999992    2.66000009
   12.08666611  181.34700012    2.80999994    2.67000008
   12.08972168  182.64599609    2.80999994    2.66000009
   12.09305477  160.02999878    2.80999994    2.66000009
   12.09611034  171.28900146    2.80999994    2.67000008
   12.09944439  151.54499817    2.80999994    2.66000009
   12.10277843  148.40199280    2.80999994    2.66000009
   12.10583401  165.07800293    2.80999994    2.66000009
   12.10916710  154.42500305    2.78999996    2.66000009
   12.11166668  163.24200439    2.78999996    2.67000008
   12.11277771  155.77200317    2.78999996    2.67000008
   12.11611176  157.65199280    2.78999996    2.67000008
   12.11916637  175.03199768    2.78999996    2.67000008
   12.12250042  165.42399597    2.76999998    2.67000008
   12.12583351  169.78700256    2.76999998    2.67000008
   12.12888908  160.81199646    2.76999998    2.69000006
   12.13222218  178.15499878    2.75000000    2.67000008
   12.13555527  152.82099915    2.76999998    2.67000008
   12.13861084  159.92399597    2.76999998    2.69000006
   12.14194393  163.13299561    2.75000000    2.67000008
   12.14499950  158.80599976    2.75000000    2.67000008
   12.14555550  158.92599487    2.73000002    2.69000006
   12.14888859  145.22300720    2.73000002    2.67000008
   12.15194416  155.20599365    2.73000002    2.67000008
   12.15527725  142.08500671    2.73000002    2.69000006
   12.15861034  134.28799438    2.73000002    2.69000006
   12.16166592  171.93400574    2.73000002    2.67000008
   12.16499996  153.62399292    2.73000002    2.69000006
   12.16833401  155.12800598    2.73000002    2.69000006
   12.17138958  171.43099976    2.73000002    2.69000006
   12.17472267  157.96699524    2.73000002    2.69000006
   12.17777824  134.08299255    2.71000004    2.69000006
   12.17833328  154.71699524    2.71000004    2.69000006
   12.18166733  164.08200073    2.71000004    2.69000006
   12.18500042  139.84599304    2.71000004    2.69000006
   12.18805599  143.32400513    2.71000004    2.69000006
   12.19138908  127.22100067    2.71000004    2.67000008
   12.19444466  154.55999756    2.71000004    2.69000006
   12.19777775  149.46800232    2.71000004    2.71000004
   12.20111084  159.18400574    2.71000004    2.69000006
   12.20416641  148.30099487    2.71000004    2.69000006
   12.20749950  125.44799805    2.69000006    2.69000006
   12.21083355  139.10800171    2.69000006    2.71000004
   12.21166611  164.85600281    2.69000006    2.69000006
   12.21444416  135.55700684    2.69000006    2.69000006
   12.21777725  134.77799988    2.67000008    2.69000006
   12.22083282  139.92100525    2.69000006    2.69000006
   12.22416592  153.57899475    2.67000008    2.71000004
   12.22749996  132.68099976    2.66000009    2.71000004
   12.23055553  134.55099487    2.66000009    2.69000006
   12.23388958  162.97999573    2.66000009    2.69000006
   12.23694515  137.96899414    2.66000009    2.71000004
   12.24027824  141.17500305    2.64000010    2.71000004
   12.24361134  145.13200378    2.66000009    2.71000004
   12.26111126  141.85299683    2.64000010    2.71000004
   12.26333332  134.67599487    2.64000010    2.69000006
   12.26638889  136.99600220    2.61999989    2.69000006
   12.26972198  134.49800110    2.64000010    2.73000002
   12.27305508  136.63699341    2.61999989    2.71000004
   12.27611065  151.69000244    2.61999989    2.71000004
   12.27944374  153.71200562    2.61999989    2.71000004
   12.28249931  136.33099365    2.61999989    2.71000004
   12.28583336  138.72200012    2.59999990    2.71000004
   12.28916740  152.76199341    2.59999990    2.71000004
   12.29222298  141.21899414    2.59999990    2.71000004
   12.29444504  149.80499268    2.59999990    2.71000004
   12.29583359  146.63800049    2.59999990    2.69000006
   12.29916668  149.01800537    2.59999990    2.71000004
   12.30249977  125.27500153    2.59999990    2.73000002
   12.30555534  132.19599915    2.57999992    2.71000004
   12.30888939  169.45500183    2.57999992    2.73000002
   12.31222248  139.41400146    2.57999992    2.71000004
   12.31527805  162.46299744    2.57999992    2.71000004
   12.31861115  149.86000061    2.57999992    2.73000002
   12.32166672  137.57499695    2.55999994    2.71000004
   12.32499981  136.07899475    2.55999994    2.73000002
   12.32777786  155.13299561    2.55999994    2.73000002
   12.32861137  137.86300659    2.55999994    2.73000002
   12.33194447  137.89500427    2.55999994    2.73000002
   12.33527756  140.23399353    2.53999996    2.71000004
   12.33833313  132.07000732    2.55999994    2.73000002
   12.34166622  141.58299255    2.53999996    2.73000002
   12.34472179  127.62899780    2.51999998    2.73000002
   12.34805489  143.25300598    2.53999996    2.73000002
   12.35138893  140.74899292    2.51999998    2.73000002
   12.35444450  131.79899597    2.53999996    2.73000002
   12.35777855  139.26699829    2.51999998    2.73000002
   12.36111164  153.75500488    2.51999998    2.71000004
   12.36138916  146.47500610    2.51999998    2.73000002
   12.36472225  146.71800232    2.51999998    2.73000002
   12.36805534  146.57499695    2.51999998    2.73000002
   12.37111092  144.29800415    2.50000000    2.73000002
   12.37444496  145.47500610    2.50000000    2.75000000
   12.37750053  133.66799927    2.50000000    2.73000002
   12.38083363  141.11700439    2.50000000    2.73000002
   12.38416672  140.19799805    2.50000000    2.75000000
   12.38722229  141.38200378    2.48000002    2.73000002
   12.39055538  141.73800659    2.48000002    2.75000000
   12.39388847  148.85099792    2.48000002    2.73000002
   12.39444447  140.24400330    2.48000002    2.73000002
   12.39750004  143.62600708    2.48000002    2.75000000
   12.40083313  151.61399841    2.46000004    2.73000002
   12.40388870  157.52699280    2.46000004    2.75000000
   12.40722179  147.96899414    2.46000004    2.75000000
   12.41027737  153.77499390    2.46000004    2.73000002
   12.41361046  152.86099243    2.46000004    2.73000002
   12.41694450  138.56500244    2.46000004    2.75000000
   12.42000008  136.79499817    2.46000004    2.73000002
   12.42333412  138.91200256    2.44000006    2.75000000
   12.42666721  144.38400269    2.44000006    2.75000000
   12.42777824  151.68699646    2.44000006    2.73000002
   12.43000031  136.17700195    2.44000006    2.75000000
   12.43333340  140.86300659    2.44000006    2.75000000
   12.43666649  155.25500488    2.42000008    2.75000000
   12.43972206  148.76699829    2.44000006    2.73000002
   12.44305515  163.15100098    2.42000008    2.73000002
   12.44611073  155.78199768    2.42000008    2.75000000
   12.44944477  137.31599426    2.42000008    2.75000000
   12.45277786  144.40299988    2.42000008    2.75000000
   12.45583344  149.51899719    2.42000008    2.75000000
   12.45916653  149.57899475    2.42000008    2.75000000
   12.46111107  144.66400146    2.42000008    2.75000000
   12.46277714  149.43699646    2.42000008    2.75000000
   12.46611118  141.04100037    2.40000010    2.73000002
   12.46944427  128.88299561    2.40000010    2.75000000
   12.47249985  146.99699402    2.40000010    2.75000000
   12.47583294  149.63099670    2.40000010    2.75000000
   12.47888851  137.85899353    2.40000010    2.75000000
   12.48222160  142.44000244    2.40000010    2.75000000
   12.48555565  144.54600525    2.39000010    2.75000000
   12.48861122  153.41799927    2.39000010    2.76999998
   12.49194431  147.32899475    2.39000010    2.76999998
   12.49444485  166.94400024    2.36999989    2.75000000
   12.49555588  139.99000549    2.39000010    2.75000000
   12.49888897  138.37300110    2.36999989    2.75000000
   12.50222206  150.57699585    2.34999990    2.75000000
   12.50527763  142.87399292    2.34999990    2.75000000
   12.50888920  150.00700378    2.36999989    2.75000000
   12.51222229  144.58399963    2.34999990    2.75000000
   12.51527786  160.79299927    2.34999990    2.76999998
   12.51861095  143.01499939    2.34999990    2.75000000
   12.53055573  146.29299927    0.00000000    0.00000000
   12.53111076  137.72999573    2.34999990    2.76999998
   12.53416729  144.29200745    2.34999990    2.76999998
   12.53750038  137.86500549    2.34999990    2.76999998
   12.54055595  163.92999268    2.34999990    2.76999998
   12.54388905  166.44299316    2.34999990    2.76999998
   12.54694462  151.06399536    2.34999990    2.75000000
   12.55027771  147.91000366    2.34999990    2.76999998
   12.55361176  146.66700745    2.32999992    2.76999998
   12.55666733  148.24600220    2.32999992    2.76999998
   12.56000042  155.40299988    2.32999992    2.76999998
   12.56333351  152.45100403    2.32999992    2.76999998
   12.56472206  161.03300476    2.34999990    2.76999998
   12.56694412  143.30700684    2.32999992    2.76999998
   12.57027817  151.41600037    2.32999992    2.76999998
   12.57333374  149.19099426    2.32999992    2.76999998
   12.57666683  148.59800720    2.32999992    2.76999998
   12.57999992  143.44400024    2.32999992    2.76999998
   12.58305550  155.09100342    2.30999994    2.76999998
   12.58638859  157.59800720    2.30999994    2.76999998
   12.58972168  145.34700012    2.30999994    2.78999996
   12.59277725  143.38200378    2.30999994    2.76999998
   12.59611034  136.76899719    2.28999996    2.76999998
   12.59805489  140.56300354    2.28999996    2.78999996
   12.59972191  134.91900635    2.28999996    2.76999998
   12.60305595  116.72399902    2.28999996    2.76999998
   12.60611153  138.65400696    2.28999996    2.76999998
   12.60944462  135.24299622    2.28999996    2.76999998
   12.61277771  149.17300415    2.28999996    2.78999996
   12.61583328  141.72999573    2.28999996    2.76999998
   12.61916637  138.74600220    2.28999996    2.76999998
   12.62250042  139.93800354    2.28999996    2.76999998
   12.62555599  140.21699524    2.26999998    2.76999998
   12.62888908  138.51600647    2.26999998    2.78999996
   12.63138866  133.36199951    2.26999998    2.78999996
   12.63249969  137.11099243    2.26999998    2.76999998
   12.63583279  126.01300049    2.26999998    2.78999996
   12.63888836  126.67099762    2.26999998    2.76999998
   12.64222240  135.78300476    2.25000000    2.76999998
   12.64555550  125.51599884    2.25000000    2.78999996
   12.64861107  141.34100342    2.26999998    2.76999998
   12.65194416  137.73500061    2.26999998    2.78999996
   12.65527725  137.06199646    2.25000000    2.78999996
   12.65833282  138.65299988    2.25000000    2.78999996
   12.66166592  126.32299805    2.25000000    2.78999996
   12.66472149  129.38999939    2.25000000    2.76999998
   12.66527748  125.86599731    2.23000002    2.76999998
   12.66861153  139.13400269    2.23000002    2.78999996
   12.67166710  146.11900330    2.25000000    2.78999996
   12.67500019  141.11700439    2.23000002    2.78999996
   12.67833328  133.46600342    2.23000002    2.78999996
   12.68138885  132.42100525    2.21000004    2.78999996
   12.68472195  126.29699707    2.21000004    2.78999996
   12.68805599  138.37699890    2.23000002    2.78999996
   12.69111156  120.75099945    2.23000002    2.78999996
   12.69444466  131.25599670    2.23000002    2.78999996
   12.69750023  136.17999268    2.23000002    2.78999996
   12.69805527  133.48399353    2.23000002    2.78999996
   12.70138836  133.17100525    2.23000002    2.78999996
   12.70472240  130.15899658    2.23000002    2.78999996
   12.70777798  137.91499329    2.23000002    2.78999996
   12.71111107  140.04200745    2.23000002    2.78999996
   12.71500015  139.03500366    2.25000000    2.80999994
   12.71805477  134.79800415    2.23000002    2.78999996
   12.72138882  135.47300720    2.23000002    2.78999996
   12.72472191  148.64100647    2.25000000    2.78999996
   12.72777748  137.80200195    2.23000002    2.78999996
   12.73111057  144.60400391    2.23000002    2.78999996
   12.73166656  144.02000427    2.23000002    2.78999996
   12.73472214  145.22000122    2.23000002    2.78999996
   12.73777771  151.55400085    2.23000002    2.78999996
   12.74111176  150.19900513    2.21000004    2.78999996
   12.74444485  153.13600159    2.23000002    2.78999996
   12.74750042  142.01199341    2.21000004    2.78999996
   12.75083351  146.39799500    2.21000004    2.78999996
   12.75388908  140.43099976    2.23000002    2.78999996
   12.75722218  134.47500610    2.21000004    2.78999996
   12.76055527  152.09800720    2.21000004    2.78999996
   12.76361084  140.32899475    2.21000004    2.78999996
   12.76500034  141.20399475    2.21000004    2.78999996
   12.76749992  135.44099426    2.21000004    2.78999996
   12.77055550  127.35900116    2.21000004    2.78999996
   12.77388859  151.31500244    2.21000004    2.78999996
   12.77694416  135.49899292    2.21000004    2.78999996
   12.78027725  135.40800476    2.21000004    2.78999996
   12.78361130  145.62600708    2.19000006    2.78999996
   12.78666687  136.82299805    2.19000006    2.78999996
   12.79000092  150.07099915    2.19000006    2.78999996
   12.79333401  146.28399658    2.19000006    2.80999994
   12.79638958  146.27000427    2.19000006    2.78999996
   12.79833412  138.97900391    2.19000006    2.78999996
   12.80027771  135.78199768    2.19000006    2.78999996
   12.80333328  132.73500061    2.19000006    2.80999994
   12.80666733  141.77799988    2.19000006    2.80999994
   12.80972195  136.53799438    2.19000006    2.78999996
   12.81305599  144.92500305    2.19000006    2.78999996
   12.81638908  142.06700134    2.19000006    2.80999994
   12.81944466  145.16999817    2.19000006    2.80999994
   12.82277775  144.43400574    2.17000008    2.78999996
   12.82666683  138.25900269    2.17000008    2.82999992
   12.82999992  131.57400513    2.17000008    2.78999996
   12.83166695  145.42100525    2.17000008    2.80999994
   12.83333302  141.05099487    2.17000008    2.78999996
   12.83666611  148.76899719    2.15000010    2.80999994
   12.84000015  150.24200439    2.15000010    2.78999996
   12.84305477  138.00199890    2.15000010    2.80999994
   12.84638882  142.27499390    2.13000011    2.80999994
   12.84972191  147.50399780    2.13000011    2.80999994
   12.85277843  139.86799622    2.13000011    2.78999996
   12.85611153  147.58999634    2.11999989    2.80999994
   12.85916710  135.06199646    2.13000011    2.80999994
   12.86250019  138.93499756    2.11999989    2.80999994
   12.86500072  147.20700073    2.11999989    2.82999992
   12.86611176  145.46499634    2.11999989    2.82999992
   12.86944485  141.52600098    2.09999990    2.80999994
   12.87277794  143.76800537    2.09999990    2.78999996
   12.87583351  143.44599915    2.09999990    2.82999992
   12.87916660  149.54200745    2.07999992    2.82999992
   12.88249969  146.86999512    2.09999990    2.82999992
   12.88555527  153.12800598    2.07999992    2.82999992
   12.88888836  141.73800659    2.07999992    2.82999992
   12.89222240  140.98800659    2.07999992    2.82999992
   12.89527798  140.52400208    2.05999994    2.80999994
   12.89833355  146.89900208    2.05999994    2.82999992
   12.89888859  152.75700378    2.07999992    2.82999992
   12.90222168  147.98899841    2.05999994    2.82999992
   12.90555477  144.70100403    2.07999992    2.82999992
   12.90861034  141.08299255    2.05999994    2.82999992
   12.91194439  140.12899780    2.05999994    2.82999992
   12.91527748  125.56900024    2.05999994    2.82999992
   12.91833401  132.08999634    2.03999996    2.82999992
   12.92166710  147.14300537    2.03999996    2.82999992
   12.92500019  141.87199402    2.03999996    2.82999992
   12.92861176  147.61500549    2.03999996    2.82999992
   12.93166733  137.91900635    2.03999996    2.82999992
   12.93194485  133.27900696    2.03999996    2.82999992
   12.93527794  145.58599854    2.03999996    2.82999992
   12.93861103  143.19099426    2.03999996    2.82999992
   12.94166660  135.69700623    2.03999996    2.82999992
   12.94499969  135.16000366    2.03999996    2.84999990
   12.94833374  136.96200562    2.03999996    2.82999992
   12.95138836  139.27999878    2.05999994    2.82999992
   12.95472240  132.67999268    2.05999994    2.82999992
   12.95805550  140.12199402    2.05999994    2.82999992
   12.96111107  141.47099304    2.05999994    2.82999992
   12.96444416  140.48899841    2.05999994    2.82999992
   12.96500015  128.01400757    2.05999994    2.82999992
   12.96805477  134.26899719    2.05999994    2.82999992
   12.97111034  133.91499329    2.05999994    2.82999992
   12.97444439  144.28199768    2.05999994    2.82999992
   12.97749996  131.18400574    2.05999994    2.82999992
   12.98083305  137.16900635    2.05999994    2.82999992
   12.98416710  129.34399414    2.05999994    2.82999992
   12.98722267  144.41299438    2.05999994    2.84999990
   12.99055576  133.01199341    2.07999992    2.84999990
   12.99388885  156.17100525    2.05999994    2.84999990
   12.99694443  139.51899719    2.05999994    2.84999990
   12.99833393  128.93800354    2.05999994    2.84999990
   13.00083351  129.88699341    2.03999996    2.84999990
   13.00388908  136.43299866    2.05999994    2.84999990
   13.00722218  125.19499969    2.05999994    2.82999992
   13.01027775  144.39700317    2.05999994    2.82999992
   13.01361084  146.56100464    2.03999996    2.82999992
   13.01694393  133.51199341    2.03999996    2.82999992
   13.01999950  147.41700745    2.03999996    2.82999992
   13.02333355  138.47399902    2.03999996    2.82999992
   13.02666664  132.78999329    2.03999996    2.84999990
   13.02972221  134.78700256    2.01999998    2.84999990
   13.03166676  142.35200500    2.01999998    2.84999990
   13.03361130  144.30599976    2.01999998    2.84999990
   13.03666687  136.68099976    2.01999998    2.84999990
   13.04000092  138.45100403    2.01999998    2.84999990
   13.04333401  135.51600647    2.00000000    2.82999992
   13.04638958  131.57400513    2.01999998    2.84999990
   13.04972267  138.38499451    2.01999998    2.84999990
   13.05277824  141.41299438    2.00000000    2.82999992
   13.05611134  131.23300171    2.00000000    2.84999990
   13.05944443  137.38600159    2.01999998    2.84999990
   13.06250000  141.68099976    2.01999998    2.84999990
   13.06500053  133.53500366    2.01999998    2.84999990
   13.06638908  139.52999878    2.00000000    2.84999990
   13.06944466  138.47099304    2.00000000    2.84999990
   13.07277775  135.32699585    2.00000000    2.84999990
   13.07583332  132.97599792    1.98000002    2.84999990
   13.07916641  131.85899353    2.01999998    2.84999990
   13.08249950  132.71000671    2.03999996    2.86999989
   13.08555508  135.86399841    2.05999994    2.84999990
   13.08888817  143.06900024    2.13000011    2.84999990
   13.09222221  143.39399719    2.13000011    2.84999990
   13.09527779  143.16000366    2.11999989    2.84999990
   13.09833336  144.96800232    2.13000011    2.86999989
   13.09916592  132.83500671    2.13000011    2.86999989
   13.10222244  139.82699585    2.13000011    2.84999990
   13.10555553  141.80799866    2.11999989    2.86999989
   13.10888958  142.24400330    2.11999989    2.84999990
   13.11194515  130.44099426    2.11999989    2.84999990
   13.11527824  149.59800720    2.11999989    2.84999990
   13.11833382  134.64199829    2.11999989    2.84999990
   13.12166691  133.80099487    2.09999990    2.86999989
   13.12500000  129.43299866    2.09999990    2.86999989
   13.12805557  140.62399292    2.09999990    2.84999990
   13.13138866  130.01899719    2.09999990    2.86999989
   13.13194466  139.38499451    2.09999990    2.86999989
   13.13500023  135.23300171    2.09999990    2.84999990
   13.13833332  124.46299744    2.09999990    2.84999990
   13.14166641  134.71600342    2.07999992    2.86999989
   13.14472198  123.03900146    2.07999992    2.86999989
   13.14805508  132.85499573    2.07999992    2.86999989
   13.15138817  134.30700684    2.07999992    2.84999990
   13.15444374  129.54100037    2.07999992    2.86999989
   13.15777779  138.95500183    2.07999992    2.84999990
   13.16083336  132.56100464    2.09999990    2.86999989
   13.16416645  135.86500549    2.07999992    2.86999989
   13.16527748  145.10000610    2.07999992    2.86999989
   13.16777802  130.17100525    2.07999992    2.86999989
   13.17111111  140.20899963    2.09999990    2.86999989
   13.17444515  124.19899750    2.07999992    2.86999989
   13.17750072  128.01400757    2.07999992    2.86999989
   13.18083382  130.30000305    2.07999992    2.86999989
   13.18416691  127.11199951    2.09999990    2.86999989
   13.18722248  129.16099548    2.07999992    2.86999989
   13.19055557  138.48699951    2.09999990    2.84999990
   13.19361115  127.30200195    2.09999990    2.86999989
   13.19694424  136.76699829    2.09999990    2.86999989
   13.19861126  136.73300171    2.09999990    2.89000010
   13.20055580  133.04600525    2.09999990    2.86999989
   13.20388889  134.74899292    2.07999992    2.86999989
   13.20722198  136.77099609    2.07999992    2.86999989
   13.21027756  137.87500000    2.07999992    2.86999989
   13.21361065  137.86500549    2.07999992    2.86999989
   13.21694374  126.71399689    2.07999992    2.84999990
   13.21999931  122.15100098    2.05999994    2.84999990
   13.22333336  129.67700195    2.07999992    2.86999989
   13.22638798  134.96099854    2.05999994    2.86999989
   13.22972202  133.84700012    2.07999992    2.86999989
   13.23194408  135.23800659    2.05999994    2.86999989
   13.23333359  139.30900574    2.05999994    2.86999989
   13.23666668  133.58500671    2.07999992    2.89000010
   13.24000072  131.02099609    2.07999992    2.89000010
   13.24305534  134.07000732    2.03999996    2.86999989
   13.24638939  137.63600159    2.05999994    2.86999989
   13.24972248  139.01699829    2.05999994    2.86999989
   13.25277805  130.27999878    2.05999994    2.86999989
   13.25611115  133.41799927    2.05999994    2.86999989
   13.25916672  137.76899719    2.03999996    2.86999989
   13.27777767  127.19599915    2.03999996    2.89000010
   13.27916622  141.51699829    2.03999996    2.89000010
   13.28249931  137.47799683    2.03999996    2.89000010
   13.28555584  136.15400696    2.03999996    2.86999989
   13.28888893  135.42900085    2.03999996    2.86999989
   13.29222298  126.00299835    2.03999996    2.86999989
   13.29527855  134.46600342    2.01999998    2.89000010
   13.29861164  143.21099854    2.03999996    2.89000010
   13.30194473  132.53199768    2.01999998    2.89000010
   13.30500031  137.62399292    2.01999998    2.86999989
   13.41472149   -1.00000000   -1.00000000   -1.00000000
   13.51111126   -1.00000000   -1.00000000   -1.00000000
   13.62194443   -1.00000000   -1.00000000   -1.00000000
   13.67416668   75.48239899    1.48000002    2.94000006
   13.67750072  157.88800049    1.46000004    2.94000006
   13.68055630  154.47200012    1.48000002    2.94000006
   13.68388939  171.78199768    1.46000004    2.94000006
   13.68694496  160.52099609    1.46000004    2.94000006
   13.69027805  213.69999695    1.48000002    2.94000006
   13.69444466  213.69999695    1.48000002    2.94000006
   13.69861126  299.01000977    1.48000002    2.93000007
   13.70166683  282.51098633    1.48000002    2.94000006
   13.70499992  276.69299316    1.48000002    2.94000006
   13.70749950  298.31698608    1.48000002    2.94000006
   13.70888901  303.70001221    1.48000002    2.94000006
   13.71194458  257.41400146    1.48000002    2.94000006
   13.71527767  245.23199463    1.48000002    2.94000006
   13.71833324  239.70300293    1.48000002    2.94000006
   13.72166634  169.03700256    1.48000002    2.94000006
   13.72499943  188.69000244    1.46000004    2.96000004
   13.72805500  213.31300354    1.46000004    2.94000006
   13.73138809  151.62699890    1.48000002    2.93000007
   13.73722267  151.62699890    1.46000004    2.94000006
   13.74138927  177.93200684    1.48000002    2.94000006
   13.74472237  179.35400391    1.46000004    2.94000006
   13.74777794  164.03900146    1.46000004    2.94000006
   13.75111103  144.60099792    2.23000002    2.91000009
   13.75444412  147.86599731    1.80999994    2.93000007
   13.75749969  171.96400452    1.85000002    2.93000007
   13.76083374  168.39700317    1.86000001    2.93000007
   13.76388931  167.48300171    1.88000000    2.93000007
   13.76722240  165.46699524    1.89999998    2.93000007
   13.77055550  158.74299622    1.91999996    2.93000007
   13.77361107  147.32099915    1.94000006    2.93000007
   13.77416611  162.31199646    1.94000006    2.93000007
   13.77999973  162.31199646    1.98000002    2.93000007
   13.78416729  163.56599426    2.01999998    2.93000007
   13.78750038  137.36399841    2.03999996    2.93000007
   13.79083347  155.48100281    2.05999994    2.93000007
   13.79388905  163.11900330    2.07999992    2.93000007
   13.79722309  172.13999939    2.09999990    2.93000007
   13.80027771  162.25599670    2.11999989    2.93000007
   13.80361176  152.53799438    2.13000011    2.93000007
   13.80694485  162.59800720    2.15000010    2.93000007
   13.80749989  155.86999512    2.15000010    2.93000007
   13.81055546  169.93499756    2.19000006    2.93000007
   13.81388950  177.67999268    2.19000006    2.93000007
   13.81694412  140.14199829    2.21000004    2.93000007
   13.82305527  140.14199829    2.25000000    2.94000006
   13.82722187  144.23399353    2.26999998    2.93000007
   13.83027744  152.59700012    2.28999996    2.94000006
   13.83361053  154.91999817    2.30999994    2.94000006
   13.83666611  162.79800415    2.30999994    2.93000007
   13.84000015  153.40100098    2.32999992    2.94000006
   13.84083271  125.80200195    2.32999992    2.94000006
   13.84361076  145.05900574    2.32999992    2.94000006
   13.84694386  133.77400208    2.32999992    2.94000006
   13.85000038  126.54100037    2.34999990    2.94000006
   13.85333347  154.51199341    2.34999990    2.94000006
   13.85638905  137.25999451    2.34999990    2.94000006
   13.85972214  137.74299622    2.36999989    2.94000006
   13.86583328  137.74299622    2.32999992    2.94000006
   13.86999989  144.82099915    2.32999992    2.94000006
   13.87305546  147.78300476    2.28999996    2.96000004
   13.87416649  128.87800598    2.28999996    2.96000004
   13.87694454  135.04600525    2.26999998    2.94000006
   13.88027763  142.36000061    2.26999998    2.94000006
   13.88333321  141.84599304    2.25000000    2.96000004
   13.88666630  155.21400452    2.21000004    2.96000004
   13.88972187  137.11000061    2.19000006    2.94000006
   13.89305496  152.37100220    2.17000008    2.96000004
   13.89638901  139.65600586    2.15000010    2.96000004
   13.89944458  143.96499634    2.13000011    2.98000002
   13.90277767  131.13200378    2.07999992    2.96000004
   13.90861034  131.13200378    2.01999998    2.96000004
   13.91277695  128.86799622    1.96000004    2.94000006
   13.91611099  131.94999695    1.94000006    2.96000004
   13.91916656  152.14199829    1.88000000    2.96000004
   13.92250061  150.58200073    1.86000001    2.96000004
   13.92583370  135.40400696    1.83000004    2.96000004
   13.92888927  143.99000549    1.78999996    2.98000002
   13.93222237  145.84700012    1.76999998    2.98000002
   13.93527794  137.58500671    1.73000002    2.98000002
   13.93861103  124.66000366    1.69000006    2.98000002
   13.94083309  144.78999329    1.66999996    2.96000004
   13.94222260  143.72200012    1.64999998    2.98000002
   13.94555569  141.43800354    1.63000000    2.98000002
   13.95138836  141.43800354    1.58000004    2.98000002
   13.95555496  145.90899658    1.53999996    2.98000002
   13.95888901  142.67100525    1.51999998    2.96000004
   13.96222210  150.01699829    1.48000002    2.98000002
   13.96527767  151.59599304    1.48000002    2.98000002
   13.96861076  148.62399292    1.69000006    2.96000004
   13.97166634  142.72200012    1.69000006    2.94000006
   13.97416592  150.65699768    1.69000006    2.96000004
   13.97555542  151.64300537    1.69000006    2.96000004
   13.97888851  116.66999817    1.69000006    2.96000004
   13.98194408  141.17199707    1.66999996    2.94000006
   13.98527813  132.83299255    1.66999996    2.96000004
   13.98833370  138.48399353    1.66999996    2.96000004
   13.99444485  138.48399353    1.66999996    2.96000004
   13.99861145  142.50100708    1.66999996    2.96000004
   14.00166702  140.54400635    1.64999998    2.96000004
   14.00500011  145.29200745    1.64999998    2.96000004
   14.00749969  138.79299927    1.64999998    2.96000004
   14.00861073  135.04400635    1.66999996    2.96000004
   14.01194477  132.55599976    1.64999998    2.96000004
   14.01500034  126.57299805    1.64999998    2.98000002
   14.01833344  138.02200317    1.64999998    2.96000004
   14.02138901  143.20799255    1.64999998    2.98000002
   14.02472210  125.63200378    1.63000000    2.96000004
   14.02805519  132.48300171    1.64999998    2.96000004
   14.03111076  155.34899902    1.64999998    2.94000006
   14.03722286  155.34899902    1.64999998    2.96000004
   14.04138947  144.44999695    1.64999998    2.96000004
   14.04444504  139.89100647    1.64999998    2.96000004
   14.04777813  144.91999817    1.64999998    2.96000004
   14.05111122  142.55299377    1.64999998    2.96000004
   14.05416679  131.37600708    1.64999998    2.98000002
   14.05749989  139.50900269    1.66999996    2.96000004
   14.06083393  145.46099854    1.66999996    2.96000004
   14.06388950  140.86700439    1.66999996    2.94000006
   14.06722260  139.99400330    1.66999996    2.96000004
   14.07027817  143.68600464    1.66999996    2.96000004
   14.07361126  133.12300110    1.66999996    2.96000004
   14.07416630  141.97000122    1.66999996    2.96000004
   14.07999992  141.97000122    1.66999996    2.96000004
   14.08416653  135.74600220    1.66999996    2.96000004
   14.08749962  132.02499390    1.66999996    2.96000004
   14.09055519  133.64599609    1.66999996    2.96000004
   14.09388828  135.36700439    1.66999996    2.96000004
   14.09722233  128.95500183    1.66999996    2.96000004
   14.10027790  145.94200134    1.66999996    2.94000006
   14.10361195  133.79899597    1.66999996    2.94000006
   14.10694504  131.52200317    1.66999996    2.96000004
   14.10750008  135.75300598    1.66999996    2.96000004
   14.11055565  134.34800720    1.66999996    2.98000002
   14.11388969  133.15600586    1.64999998    2.96000004
   14.11694431  136.00700378    1.64999998    2.96000004
   14.12277794  136.00700378    1.64999998    2.96000004
   14.12694454  141.14799500    1.64999998    2.96000004
   14.13027763  135.12899780    1.64999998    2.96000004
   14.13361073  144.55799866    1.63000000    2.96000004
   14.13666630  138.69000244    1.63000000    2.96000004
   14.14000034  133.65199280    1.64999998    2.96000004
   14.14083290  134.67900085    1.63000000    2.96000004
   14.14361095  131.92599487    1.63000000    2.96000004
   14.14694405  135.85000610    1.63000000    2.96000004
   14.15055561  128.15899658    1.63000000    2.96000004
   14.15361118  127.36799622    1.61000001    2.96000004
   14.15694427  130.19599915    1.60000002    2.96000004
   14.15999985  141.34800720    1.60000002    2.98000002
   14.16583252  141.34800720    1.61000001    2.96000004
   14.16972256  121.31300354    1.60000002    2.98000002
   14.17305565  128.82400513    1.60000002    2.98000002
   14.17416668  127.37599945    1.60000002    2.96000004
   14.17666721  129.73800659    1.60000002    2.96000004
   14.18000031  126.64299774    1.58000004    2.98000002
   14.18333340  133.00900269    1.58000004    2.98000002
   14.18638897  134.42100525    1.58000004    2.96000004
   14.18972206  121.79299927    1.58000004    2.96000004
   14.19277763  125.45800018    1.58000004    2.98000002
   14.19611073  126.64800262    1.58000004    2.96000004
   14.19944477  136.87100220    1.60000002    2.96000004
   14.20249939  135.60699463    1.58000004    2.96000004
   14.20861053  135.60699463    1.60000002    2.98000002
   14.21277714  127.18000031    1.60000002    2.98000002
   14.21583271  132.99600220    4.90999985    2.84999990
   14.21916580  134.03500366    4.90999985    2.86999989
   14.22249985  134.36900330    4.90999985    2.84999990
   14.22555542  134.02900696    4.90999985    2.84999990
   14.22888851  126.87100220    4.90999985    2.82999992
   14.23222160  127.08999634    4.90999985    2.84999990
   14.23527813  142.60899353    4.90999985    2.84999990
   14.23861122  139.06500244    4.90999985    2.84999990
   14.24083328  145.28900146    4.90999985    2.84999990
   14.24222279  134.46699524    4.90999985    2.84999990
   14.24555588  140.94799805    4.90999985    2.84999990
   14.25138855  140.94799805    4.90999985    2.84999990
   14.25555515  138.71699524    4.90999985    2.84999990
   14.25888920  144.66400146    4.90999985    2.84999990
   14.26194477  128.28799438    4.90999985    2.84999990
   14.26527786  136.11099243    4.90999985    2.84999990
   14.26861095  138.47200012    4.90999985    2.96000004
   14.27166653  137.43299866    0.41999999    0.69000000
   14.27416611  141.83999634    0.19000000    0.25000000
   14.27527714  133.47999573    0.17000000    0.09000000
   14.27861118  134.47399902    0.15000001    0.03000000
   14.28166676  133.59300232    0.15000001    0.03000000
   14.28500080  141.39900208    0.15000001    0.03000000
   14.28833389  130.60400391    0.15000001    0.03000000
   14.29416752  130.60400391    0.15000001    0.03000000
   14.29833412  136.34700012    0.15000001    0.03000000
   14.30166721  145.70500183    0.15000001    0.03000000
   14.30472279  134.68499756    0.15000001    0.03000000
   14.30749989  141.03700256    0.15000001    0.03000000
   14.30833340  130.25799561    0.15000001    0.03000000
   14.31166649  139.44599915    0.15000001    0.03000000
   14.31472206  127.86699677    0.15000001    0.03000000
   14.31805515  131.89300537    0.15000001    0.03000000
   14.32138920  131.71400452    0.15000001    0.03000000
   14.32444477  126.97000122    0.15000001    0.03000000
   14.32777786  128.50799561    0.15000001    0.03000000
   14.33083344  133.25700378    0.15000001    0.03000000
   14.33722210  133.25700378    0.15000001    0.03000000
   14.34138870  136.81799316    0.15000001    0.03000000
   14.34444427  133.04699707    0.15000001    0.03000000
   14.34777737  130.97300720    0.15000001    0.03000000
   14.35083389  129.65100098    0.15000001    0.03000000
   14.35416698  137.15100098    0.15000001    0.03000000
   14.35750008  136.42900085    0.15000001    0.03000000
   14.36055565  136.82600403    0.15000001    0.03000000
   14.36416721  134.82600403    0.15000001    0.03000000
   14.36750031  143.22799683    0.15000001    0.03000000
   14.37055588  133.37600708    0.15000001    0.03000000
   14.37388897  131.95100403    0.15000001    0.03000000
   14.37444496  146.29100037    0.15000001    0.03000000
   14.38000011  146.29100037    0.15000001    0.03000000
   14.38416672  128.09700012    0.15000001    0.03000000
   14.38722229  128.14599609    0.15000001    0.03000000
   14.39055538  147.17900085    0.15000001    0.03000000
   14.39388847  130.74200439    0.15000001    0.03000000
   14.39694405  141.36300659    0.15000001    0.03000000
   14.40027714  136.04299927    0.15000001    0.03000000
   14.40361118  129.92999268    0.15000001    0.03000000
   14.40666676  130.08200073    0.15000001    0.03000000
   14.40777779  125.91999817    0.15000001    0.03000000
   14.41055489  138.42399597    0.15000001    0.03000000
   14.41361046  139.62800598    0.15000001    0.03000000
   14.41694450  135.78799438    0.15000001    0.03000000
   14.42277813  135.78799438    0.15000001    0.03000000
   14.42694473  139.69700623    0.15000001    0.03000000
   14.43027782  134.02499390    0.15000001    0.03000000
   14.43333340  133.49899292    0.15000001    0.03000000
   14.43666649  127.72000122    0.15000001    0.03000000
   14.43972206  132.23800659    0.15000001    0.03000000
   14.44111156  113.39499664    0.15000001    0.03000000
   14.44361115  126.94599915    0.15000001    0.03000000
   14.44666672  126.86699677    0.15000001    0.03000000
   14.44999981  126.90100098    0.15000001    0.03000000
   14.45305538  146.88000488    0.15000001    0.03000000
   14.45638847  137.64500427    0.15000001    0.03000000
   14.45972157  146.93800354    0.15000001    0.03000000
   14.46555519  146.93800354    0.15000001    0.03000000
   14.46972179  126.43599701    0.15000001    0.03000000
   14.47305489  136.50999451    0.15000001    0.03000000
   14.47444439  121.80100250    0.15000001    0.03000000
   14.47666645  136.91799927    0.15000001    0.03000000
   14.47972202  126.38600159    0.15000001    0.03000000
   14.48305511  131.46499634    0.15000001    0.03000000
   14.48611164  131.86599731    0.15000001    0.03000000
   14.48944473  133.90199280    0.15000001    0.03000000
   14.49277782  138.82800293    0.15000001    0.03000000
   14.49583340  133.72000122    0.15000001    0.03000000
   14.49916649  124.51000214    0.15000001    0.03000000
   14.50249958  116.97000122    0.15000001    0.03000000
   14.50861073  116.97000122    0.15000001    0.03000000
   14.51249981  133.75900269    0.15000001    0.03000000
   14.51583290  126.75599670    0.15000001    0.03000000
   14.51916599  143.47599792    0.15000001    0.03000000
   14.52222157  123.94100189    0.15000001    0.03000000
   14.52555561  135.25599670    0.15000001    0.03000000
   14.52888870  127.83300018    0.15000001    0.03000000
   14.53194427  125.10700226    0.15000001    0.03000000
   14.53527832  136.92399597    0.15000001    0.03000000
   14.53833389  140.42199707    0.15000001    0.03000000
   14.54111195  134.95500183    0.15000001    0.03000000
   14.54222298  133.08000183    0.15000001    0.03000000
   14.54527855  131.59199524    0.15000001    0.03000000
   14.55138874  131.59199524    0.15000001    0.03000000
   14.55555534  140.98399353    0.15000001    0.03000000
   14.55861092  123.33499908    0.15000001    0.03000000
   14.56194496  127.31500244    0.15000001    0.03000000
   14.56527805  118.68800354    0.15000001    0.03000000
   14.56833363  129.05799866    0.15000001    0.03000000
   14.57166672  129.30900574    0.15000001    0.03000000
   14.57444477  130.65400696    0.15000001    0.03000000
   14.57527733  129.44400024    0.15000001    0.03000000
   14.57833290  126.61399841    0.15000001    0.03000000
   14.58166695  119.53099823    0.15000001    0.03000000
   14.58472157  142.75599670    0.15000001    0.03000000
   14.58805561  120.54599762    0.15000001    0.03000000
   14.59416676  120.54599762    0.15000001    0.03000000
   14.59833336  160.77099609    0.15000001    0.03000000
   14.60166740  153.71800232    0.15000001    0.03000000
   14.60472298  135.86399841    0.15000001    0.03000000
   14.60777855  128.09199524    0.15000001    0.03000000
   14.60861111  131.19400024    0.15000001    0.03000000
   14.61166668  125.42600250    0.15000001    0.03000000
   14.61500072  123.66799927    0.15000001    0.03000000
   14.61805534  128.24699402    0.15000001    0.03000000
   14.62138939  133.75399780    0.15000001    0.03000000
   14.62472248  122.38300323    0.15000001    0.03000000
   14.62777805  130.15100098    0.15000001    0.03000000
   14.63111115  125.27700043    0.15000001    0.03000000
   14.63694477  125.27700043    0.15000001    0.03000000
   14.64111137  128.58500671    0.15000001    0.03000000
   14.64444447  142.98800659    0.15000001    0.03000000
   14.64750004  135.93899536    0.15000001    0.03000000
   14.65083313  130.13499451    0.15000001    0.03000000
   14.65416622  137.35099792    0.15000001    0.03000000
   14.65722179  137.13900757    0.15000001    0.03000000
   14.66055489  134.13099670    0.15000001    0.03000000
   14.66388893  132.58099365    0.15000001    0.03000000
   14.66694450  137.03300476    0.15000001    0.03000000
   14.67027855  130.30099487    0.15000001    0.03000000
   14.67333412  135.04100037    0.15000001    0.03000000
   14.67444515  132.73899841    0.15000001    0.03000000
   14.69527817  132.73899841    0.15000001    0.03000000
   14.69916630  135.63200378    0.15000001    0.03000000
   14.70249939  128.09899902    0.15000001    0.03000000
   14.70583344  124.21600342    0.15000001    0.03000000
   14.70777798  132.91900635    0.15000001    0.03000000
   14.70944405  129.15100098    0.15000001    0.03000000
   14.71249962  139.39500427    0.15000001    0.03000000
   14.71583271  128.95500183    0.15000001    0.03000000
   14.71916580  134.64399719    0.15000001    0.03000000
   14.72222137  137.79600525    0.15000001    0.03000000
   14.72555542  136.75999451    0.15000001    0.03000000
   14.72861099  138.13600159    0.15000001    0.03000000
   14.73194408  131.09300232    0.15000001    0.03000000
   14.73777771  131.09300232    0.15000001    0.03000000
   14.74194431  140.39999390    0.15000001    0.03000000
   14.74527836  129.06599426    0.15000001    0.03000000
   14.74861145  128.80299377    0.15000001    0.03000000
   14.75166702  133.07699585    0.15000001    0.03000000
   14.75500011  128.43899536    0.15000001    0.03000000
   14.75805569  139.67399597    0.15000001    0.03000000
   14.76138878  126.11599731    0.15000001    0.03000000
   14.76472187  130.40100098    0.15000001    0.03000000
   14.76777744  128.14700317    0.15000001    0.03000000
   14.77111053  126.80100250    0.15000001    0.03000000
   14.77444458  134.72700500    0.15000001    0.03000000
   14.77472210  125.32599640    0.15000001    0.03000000
   14.78083324  125.32599640    0.15000001    0.03000000
   14.78500080  118.75499725    0.15000001    0.03000000
   14.78805637  132.08399963    0.15000001    0.03000000
   14.79138947  134.71000671    0.15000001    0.03000000
   14.79444504  125.05599976    0.15000001    0.03000000
   14.79777813  134.88400269    0.15000001    0.03000000
   14.80111122  124.48200226    0.15000001    0.03000000
   14.80416679  122.46600342    0.15000001    0.03000000
   14.80749989  120.15299988    0.15000001    0.03000000
   14.80805588  131.11000061    0.15000001    0.03000000
   14.81111145  132.09599304    0.15000001    0.03000000
   14.81444454  130.10499573    0.15000001    0.03000000
   14.81750011  131.39500427    0.15000001    0.03000000
   14.82361126  131.39500427    0.15000001    0.03000000
   14.82777786  131.93699646    0.15000001    0.03000000
   14.83083344  132.73500061    0.15000001    0.03000000
   14.83416653  134.42500305    0.15000001    0.03000000
   14.83749962  149.03700256    0.15000001    0.03000000
   14.84055519  160.86799622    0.15000001    0.03000000
   14.84166622  155.47300720    0.15000001    0.03000000
   14.84416676  143.92799377    0.15000001    0.03000000
   14.84749985  164.85299683    0.15000001    0.03000000
   14.85055637  166.22999573    0.15000001    0.03000000
   14.85388947  165.49499512    0.15000001    0.03000000
   14.85722256  175.37100220    0.15000001    0.03000000
   14.86055565  169.52499390    0.15000001    0.03000000
   14.86638927  169.52499390    0.15000001    0.03000000
   14.87055588  157.55099487    0.15000001    0.03000000
   14.87388897  164.58599854    0.15000001    0.03000000
   14.87500000  150.77099609    0.15000001    0.03000000
   14.87750053  159.38099670    0.15000001    0.03000000
   14.88083363  169.21899414    0.15000001    0.03000000
   14.88388920  152.09700012    0.15000001    0.03000000
   14.88722229  162.63400269    0.15000001    0.03000000
   14.89055538  152.58799744    0.15000001    0.03000000
   14.89361095  133.61199951    0.15000001    0.03000000
   14.89694405  131.91700745    0.15000001    0.03000000
   14.90027714  140.58200073    0.15000001    0.03000000
   14.90333271  141.77099609    0.15000001    0.03000000
   14.90916634  141.77099609    0.15000001    0.03000000
   14.91333294  166.66600037    0.15000001    0.03000000
   14.91666698  139.70700073    0.15000001    0.03000000
   14.91972256  145.33700562    0.15000001    0.03000000
   14.92305565  149.37199402    0.15000001    0.03000000
   14.92638874  137.90199280    0.15000001    0.03000000
   14.92944431  142.46200562    0.15000001    0.03000000
   14.93277836  134.46899414    0.15000001    0.03000000
   14.93611145  134.36599731    0.15000001    0.03000000
   14.93916702  143.34399414    0.15000001    0.03000000
   14.94166660  123.33200073    0.15000001    0.03000000
   14.94277763  136.45199585    0.15000001    0.03000000
   14.94611073  142.58399963    0.15000001    0.03000000
   14.95222187  142.58399963    0.15000001    0.03000000
   14.95611095  144.73300171    0.15000001    0.03000000
   14.95944405  131.32699585    0.15000001    0.03000000
   14.96277714  128.06399536    0.15000001    0.03000000
   14.96583271  149.63200378    0.15000001    0.03000000
   14.96916580  139.30599976    0.15000001    0.03000000
   14.97249985  148.31500244    0.15000001    0.03000000
   14.97499943  138.52299500    0.15000001    0.03000000
   14.97583294  128.14300537    0.15000001    0.03000000
   14.97916603  128.68499756    0.15000001    0.03000000
   14.98222160  139.85899353    0.15000001    0.03000000
   14.98555565  125.73300171    0.15000001    0.03000000
   14.98888874  151.24200439    0.15000001    0.03000000
   14.99499989  151.24200439    0.15000001    0.03000000
   14.99916649  107.19699860    0.15000001    0.03000000
   15.00222206  130.91499329    0.15000001    0.03000000
   15.00555515  130.33399963    0.15000001    0.03000000
   15.00833321  126.87999725    0.15000001    0.03000000
   15.00916672  134.60400391    0.15000001    0.03000000
   15.01249981  125.84899902    0.15000001    0.03000000
   15.01555538  128.26100159    0.15000001    0.03000000
   15.01888847  130.46899414    0.15000001    0.03000000
   15.02222157  135.09500122    0.15000001    0.03000000
   15.02527714  128.26300049    0.15000001    0.03000000
   15.02861118  137.52200317    0.15000001    0.03000000
   15.03194427  136.02099609    0.15000001    0.03000000
