    HOUR (UT)   FLARE FACTOR    SKY TESTER    SUN TESTER
   12.13472176   -1.00000000   -1.00000000   -1.00000000
   12.15805531  128.05999756    4.90999985    2.09999990
   12.16138840  134.42300415    4.90999985    2.09999990
   12.16444397  149.02699280    4.90999985    2.09999990
   12.16777802  141.22999573    4.90999985    2.09999990
   12.17083359  138.47599792    4.90999985    2.09999990
   12.17416668  123.24400330    4.90999985    2.09999990
   12.17833328  123.24400330    4.90999985    2.11999989
   12.18249989  120.27799988    4.90999985    2.09999990
   12.18555546  121.50900269    4.90999985    2.09999990
   12.18888855  119.62999725    4.90999985    2.09999990
   12.19111156  118.63700104    4.90999985    2.09999990
   12.19250011  135.48800659    4.90999985    2.09999990
   12.19583321  117.29799652    4.90999985    2.09999990
   12.19916630  122.81099701    4.90999985    2.11999989
   12.20222187  134.92300415    4.90999985    2.11999989
   12.20555496  127.08200073    4.90999985    2.11999989
   12.20888901  120.23000336    4.67999983    2.11999989
   12.21222210  113.88700104    4.32999992    2.11999989
   12.21527767  114.54599762    3.76999998    2.13000011
   12.22111034  114.54599762    2.44000006    2.11999989
   12.22527695  120.89499664    1.83000004    2.11999989
   12.22861099  126.59600067    1.51999998    2.11999989
   12.23166656  115.90100098    1.50000000    2.11999989
   12.23500061  117.38899994    1.14999998    2.11999989
   12.23833370  117.41300201    1.05999994    2.11999989
   12.24138927  113.42700195    0.86000001    2.13000011
   12.24472237  119.66899872    0.73000002    2.13000011
   12.24777794  127.16200256    0.70999998    2.11999989
   12.25138855  131.08900452    0.61000001    2.13000011
   12.25472260  141.70399475    0.58999997    2.13000011
   12.25777817  124.74299622    0.56999999    2.13000011
   12.25833321  132.60899353    0.56999999    2.13000011
   12.26388931  132.60899353    0.55000001    2.13000011
   12.26805496  129.85400391    0.55000001    2.13000011
   12.27138901  121.47100067    0.55000001    2.13000011
   12.27444458  118.55100250    0.52999997    2.13000011
   12.27777767  126.16799927    0.51999998    2.13000011
   12.28083324  123.46700287    0.51999998    2.13000011
   12.28416729  126.11299896    0.51999998    2.13000011
   12.28750038  124.70999908    0.51999998    2.13000011
   12.29083347  132.20100403    0.51999998    2.13000011
   12.29333401  127.96700287    0.51999998    2.13000011
   12.29638958  127.06099701    0.51999998    2.13000011
   12.29972267  128.83000183    0.51999998    2.15000010
   12.30277824  123.92500305    0.50000000    2.15000010
   12.30694485  123.92500305    0.50000000    2.15000010
   12.31111145  130.96699524    0.50000000    2.15000010
   12.31444454  124.07299805    0.50000000    2.15000010
   12.31750011  121.82800293    0.47999999    2.15000010
   12.32083321  127.97799683    0.50000000    2.15000010
   12.32416630  117.88500214    0.50000000    2.17000008
   12.32472229  128.68200684    0.47999999    2.15000010
   12.32777786  118.17400360    0.47999999    2.15000010
   12.33083344  119.78199768    0.47999999    2.15000010
   12.33416653  126.40699768    0.47999999    2.15000010
   12.33749962  126.09500122    0.47999999    2.15000010
   12.34055519  120.36399841    0.47999999    2.17000008
   12.34388828  115.85299683    0.46000001    2.17000008
   12.35000038  115.85299683    0.46000001    2.17000008
   12.35388947  113.76699829    0.47999999    2.17000008
   12.35722256  125.63400269    0.47999999    2.17000008
   12.35805607  121.64299774    0.46000001    2.17000008
   12.36111164  120.97100067    0.46000001    2.17000008
   12.36416721  113.75900269    0.46000001    2.19000006
   12.36750031  119.87200165    0.46000001    2.19000006
   12.37083340  119.42400360    0.46000001    2.19000006
   12.37388897  127.60500336    0.46000001    2.19000006
   12.37722206  106.81500244    0.46000001    2.19000006
   12.38055611  125.01599884    0.46000001    2.19000006
   12.38361073  119.37000275    0.46000001    2.21000004
   12.38694477  116.90000153    0.46000001    2.21000004
   12.39277744  116.90000153    0.46000001    2.19000006
   12.39694405  112.69300079    0.46000001    2.19000006
   12.39999962  115.44400024    0.44000000    2.19000006
   12.40333271  113.39700317    0.46000001    2.21000004
   12.40666676  117.58899689    0.44000000    2.21000004
   12.40972137  122.35099792    0.44000000    2.21000004
   12.41305542  115.05100250    0.46000001    2.21000004
   12.41638851  125.57599640    0.44000000    2.21000004
   12.41944504  118.52300262    0.44000000    2.23000002
   12.42277813  123.65699768    0.44000000    2.21000004
   12.42472267  115.78299713    0.44000000    2.21000004
   12.42638874  112.12999725    0.46000001    2.21000004
   12.42944431  105.36799622    0.44000000    2.23000002
   12.43583298  105.36799622    0.44000000    2.23000002
   12.44000053  126.00900269    0.46000001    2.23000002
   12.44305515  122.57599640    0.44000000    2.23000002
   12.44638920  126.34500122    0.44000000    2.23000002
   12.44972229  122.26999664    0.44000000    2.23000002
   12.45305538  117.86100006    0.46000001    2.23000002
   12.45611095  119.04000092    0.46000001    2.23000002
   12.45805550  115.51399994    0.44000000    2.23000002
   12.46000004  110.60399628    0.44000000    2.23000002
   12.46333313  117.58599854    0.41999999    2.23000002
   12.46638870  116.04299927    0.41999999    2.23000002
   12.46972179  115.09400177    0.41999999    2.25000000
   12.47305489  114.75199890    0.41999999    2.25000000
   12.47861099  114.75199890    0.41999999    2.23000002
   12.48277760  126.77400208    0.44000000    2.23000002
   12.48583317  119.15100098    0.41999999    2.25000000
   12.48916721  133.43299866    0.41999999    2.25000000
   12.49138927  122.60199738    0.41999999    2.25000000
   12.49277782  129.73800659    0.41999999    2.25000000
   12.49583340  118.33799744    0.41999999    2.25000000
   12.49916649  118.83599854    0.44000000    2.25000000
   12.50222206  124.81600189    0.44000000    2.25000000
   12.50555515  118.32299805    0.41999999    2.25000000
   12.50888920  123.67600250    0.44000000    2.25000000
   12.51194477  115.29299927    0.44000000    2.25000000
   12.51527786  113.12300110    0.44000000    2.26999998
   12.52138901  113.12300110    0.44000000    2.26999998
   12.52527714  108.82800293    0.41999999    2.26999998
   12.52861118  122.20700073    0.41999999    2.26999998
   12.53194427  123.84999847    0.41999999    2.26999998
   12.53500080  117.46399689    0.41999999    2.26999998
   12.53833389  116.56700134    0.41999999    2.26999998
   12.54166698  117.03900146    0.41999999    2.26999998
   12.54472256  112.93900299    0.41999999    2.26999998
   12.54805565  119.42700195    0.40000001    2.26999998
   12.55138874  113.30799866    0.40000001    2.28999996
   12.55444431  120.18299866    0.40000001    2.28999996
   12.55777836  115.73899841    0.40000001    2.28999996
   12.55833340  121.72000122    0.40000001    2.28999996
   12.56416702  121.72000122    0.40000001    2.28999996
   12.56833363  108.67700195    0.40000001    2.28999996
   12.57138920  115.77400208    0.40000001    2.28999996
   12.57472229  116.29199982    0.40000001    2.28999996
   12.57777786  118.02100372    0.40000001    2.28999996
   12.58111095  119.59300232    0.40000001    2.28999996
   12.58416653  112.27500153    0.40000001    2.30999994
   12.58749962  116.77899933    0.40000001    2.30999994
   12.59083271  108.62000275    0.40000001    2.30999994
   12.59166622  113.10399628    0.40000001    2.30999994
   12.59444427  124.34600067    0.40000001    2.30999994
   12.59749985  113.54100037    0.40000001    2.30999994
   12.60083389  119.09999847    0.40000001    2.30999994
   12.60694504  119.09999847    0.40000001    2.30999994
   12.61111164  120.33799744    0.40000001    2.30999994
   12.61416721  114.85600281    0.40000001    2.30999994
   12.61750031  114.99199677    0.38000000    2.30999994
   12.62083340  121.99700165    0.40000001    2.30999994
   12.62388897  114.95700073    0.40000001    2.30999994
   12.62500000  111.42500305    0.40000001    2.30999994
   12.62777805  114.28600311    0.38000000    2.32999992
   12.63083363  117.50499725    0.38000000    2.32999992
   12.63416672  120.43599701    0.38000000    2.32999992
   12.63722229  118.05000305    0.38000000    2.32999992
   12.64055538  110.44300079    0.38000000    2.30999994
   12.64361095  122.81500244    0.40000001    2.32999992
   12.64972210  122.81500244    0.38000000    2.32999992
   12.65388870  104.58699799    0.38000000    2.32999992
   12.65722179  106.08699799    0.38000000    2.32999992
   12.65833282  105.58000183    0.38000000    2.32999992
   12.66083336  113.75199890    0.40000001    2.32999992
   12.66388893  109.72100067    0.38000000    2.32999992
   12.66722298  107.35099792    0.38000000    2.34999990
   12.67027855  109.42500305    0.38000000    2.34999990
   12.67361164  110.84899902    0.38000000    2.34999990
   12.67666721  115.20099640    0.38000000    2.32999992
   12.68000031  113.45800018    0.38000000    2.34999990
   12.68333340  118.28199768    0.38000000    2.32999992
   12.68638897  122.15000153    0.40000001    2.34999990
   12.69250011  122.15000153    0.38000000    2.34999990
   12.69666672  120.98200226    0.38000000    2.34999990
   12.69999981  108.38800049    0.40000001    2.34999990
   12.70305538  115.31500244    0.38000000    2.34999990
   12.70638847  121.14600372    0.38000000    2.36999989
   12.70972157  114.00399780    0.38000000    2.34999990
   12.71277714  118.59300232    0.38000000    2.34999990
   12.71611118  117.86299896    0.38000000    2.34999990
   12.71916580  114.96099854    0.38000000    2.34999990
   12.72249985  117.66300201    0.38000000    2.34999990
   12.72499943  124.03800201    0.38000000    2.34999990
   12.72611046  122.90000153    0.38000000    2.34999990
   12.72916603  120.78199768    0.38000000    2.36999989
   12.73555565  120.78199768    0.36000001    2.36999989
   12.73972225  123.37899780    0.38000000    2.36999989
   12.74277782  123.59600067    0.38000000    2.36999989
   12.74611092  115.39299774    0.36000001    2.36999989
   12.74916649  114.28900146    0.36000001    2.36999989
   12.75249958  113.44200134    0.36000001    2.36999989
   12.75555515  121.33699799    0.36000001    2.36999989
   12.75833321  127.26799774    0.36000001    2.36999989
   12.75944424  112.43099976    0.36000001    2.39000010
   12.76277733  113.37599945    0.38000000    2.36999989
   12.76583290  124.69400024    0.36000001    2.39000010
   12.76916599  116.01899719    0.38000000    2.39000010
   12.77222157  122.69000244    0.36000001    2.39000010
   12.77833271  122.69000244    0.36000001    2.39000010
   12.78249931  117.88600159    0.36000001    2.39000010
   12.78555584  115.51799774    0.36000001    2.39000010
   12.78888893  119.17199707    0.36000001    2.39000010
   12.79166698  115.28399658    0.38000000    2.39000010
   12.79250050  110.27700043    0.38000000    2.39000010
   12.79555607  107.62000275    0.38000000    2.39000010
   12.79888916  114.84300232    0.36000001    2.39000010
   12.80194473  108.26300049    0.36000001    2.39000010
   12.80527782  106.94899750    0.36000001    2.39000010
   12.80861092  108.03500366    0.36000001    2.39000010
   12.81166649  110.15299988    0.36000001    2.39000010
   12.81500053  113.80599976    0.36000001    2.39000010
   12.82111073  113.80599976    0.36000001    2.39000010
   12.82527733  113.24600220    0.36000001    2.39000010
   12.82861137  109.80000305    0.36000001    2.40000010
   12.83166695  111.21499634    0.36000001    2.40000010
   12.83500004  115.85199738    0.36000001    2.39000010
   12.83805561  112.36000061    0.34000000    2.40000010
   12.84138870  119.86399841    0.36000001    2.40000010
   12.84444427  117.51399994    0.34000000    2.40000010
   12.84777737  115.01799774    0.34000000    2.40000010
   12.85111141  114.43099976    0.36000001    2.40000010
   12.85416698  114.50399780    0.34000000    2.40000010
   12.85750008  111.52999878    0.34000000    2.40000010
   12.85833359  117.56400299    0.34000000    2.40000010
   12.86388969  117.56400299    0.36000001    2.40000010
   12.86805534  110.81300354    0.34000000    2.40000010
   12.87138939  113.92600250    0.34000000    2.40000010
   12.87444496  113.35800171    0.34000000    2.40000010
   12.87777805  112.97699738    0.34000000    2.40000010
   12.88111115  108.44899750    0.34000000    2.42000008
   12.88416672  105.43800354    0.36000001    2.40000010
   12.88749981  112.51399994    0.34000000    2.42000008
   12.89055538  112.16200256    0.36000001    2.42000008
   12.89166641  115.38200378    0.36000001    2.42000008
   12.89444447  109.02200317    0.36000001    2.42000008
   12.89750004  111.81600189    0.36000001    2.42000008
   12.90083313  112.54599762    0.34000000    2.42000008
   12.90694427  112.54599762    0.34000000    2.42000008
   12.91111088  109.18000031    0.34000000    2.42000008
   12.91416645  107.74500275    0.34000000    2.42000008
   12.92277813  108.74199677    0.34000000    2.42000008
   12.92500019  106.13099670    0.34000000    2.42000008
   12.92638874  109.10199738    0.34000000    2.42000008
   12.92944431  110.83200073    0.34000000    2.44000006
   12.93277836  113.39499664    0.34000000    2.44000006
   12.93611145  109.40000153    0.34000000    2.42000008
   12.94000053  109.40000153    0.34000000    2.44000006
   12.94416714  109.94599915    0.34000000    2.42000008
   12.94750023  102.56099701    0.34000000    2.44000006
   12.95055580  112.54499817    0.31999999    2.44000006
   12.95388889  106.67400360    0.31999999    2.44000006
   12.95694447  110.22000122    0.34000000    2.44000006
   12.95833302  113.33599854    0.34000000    2.44000006
   12.96083355  109.26499939    0.34000000    2.44000006
   12.96388912  108.59899902    0.34000000    2.44000006
   12.96722221  104.81999969    0.34000000    2.44000006
   12.97055531   99.28399658    0.34000000    2.44000006
   12.97361088  106.82399750    0.34000000    2.44000006
   12.97694397  107.89499664    0.34000000    2.44000006
   12.98305511  107.89499664    0.34000000    2.44000006
   12.98694515  104.27200317    0.34000000    2.46000004
   12.99027824  108.08699799    0.34000000    2.46000004
   12.99166679  108.56400299    0.34000000    2.46000004
   12.99388885  103.40299988    0.34000000    2.46000004
   12.99694443  110.11100006    0.34000000    2.46000004
   13.00027752  101.25099945    0.34000000    2.46000004
   13.00361156  102.39099884    0.31999999    2.46000004
   13.00666714  109.98899841    0.34000000    2.44000006
   13.01000023  109.49099731    0.31999999    2.46000004
   13.01305580  111.12000275    0.31999999    2.46000004
   13.01638889  106.79199982    0.31999999    2.44000006
   13.01944447  113.06500244    0.31999999    2.46000004
   13.02583313  113.06500244    0.31999999    2.46000004
   13.02999973  106.80799866    0.31999999    2.46000004
   13.03305531  109.38500214    0.31999999    2.46000004
   13.03638935  107.37300110    0.31999999    2.46000004
   13.03944492  114.09899902    0.30000001    2.46000004
   13.04277802  109.16899872    0.30000001    2.46000004
   13.04611111  108.13099670    0.30000001    2.46000004
   13.04916668  106.56800079    0.31999999    2.46000004
   13.05249977  107.50399780    0.31999999    2.46000004
   13.05555534  104.89700317    0.30000001    2.46000004
   13.05833340  105.50299835    0.31999999    2.46000004
   13.05916691  102.74199677    0.31999999    2.46000004
   13.06250000  108.34999847    0.31999999    2.46000004
   13.06861115  108.34999847    0.31999999    2.46000004
   13.07277775  102.66200256    0.31999999    2.46000004
   13.07611084  106.40399933    0.31999999    2.46000004
   13.07916641  110.02400208    0.30000001    2.46000004
   13.08249950  107.38500214    0.30000001    2.46000004
   13.08555508  103.12200165    0.30000001    2.46000004
   13.08888817  104.75299835    0.30000001    2.48000002
   13.09166622  111.48500061    0.30000001    2.48000002
   13.09249973  102.86900330    0.30000001    2.48000002
   13.09583282  105.88500214    0.31999999    2.48000002
   13.09888840  107.53399658    0.30000001    2.48000002
   13.10222244  100.87599945    0.30000001    2.48000002
   13.10527802  107.62500000    0.30000001    2.48000002
   13.11138916  107.62500000    0.30000001    2.48000002
   13.11555576  103.83899689    0.30000001    2.48000002
   13.11888885  110.65899658    0.30000001    2.48000002
   13.12194443  106.46900177    0.30000001    2.48000002
   13.12500000  109.24900055    0.30000001    2.48000002
   13.12555599  111.77999878    0.30000001    2.48000002
   13.12888908  107.86199951    0.30000001    2.48000002
   13.13194466  109.29399872    0.30000001    2.50000000
   13.13527775  105.08999634    0.30000001    2.48000002
   13.13833332  109.93000031    0.30000001    2.48000002
   13.14166641  111.95700073    0.30000001    2.50000000
   13.14472198  105.73300171    0.30000001    2.50000000
   13.14805508  109.79199982    0.30000001    2.50000000
   13.15444374  109.79199982    0.30000001    2.50000000
   13.15861034  107.63999939    0.30000001    2.48000002
   13.16194439  108.68800354    0.30000001    2.50000000
   13.16499996  107.81999969    0.30000001    2.50000000
   13.16833401  104.23100281    0.30000001    2.50000000
   13.17138958  104.94100189    0.30000001    2.50000000
   13.17472267  104.68900299    0.30000001    2.50000000
   13.17777824  103.03299713    0.30000001    2.50000000
   13.18111134  103.68299866    0.30000001    2.50000000
   13.18444443  107.69599915    0.30000001    2.50000000
   13.18750000  106.12599945    0.30000001    2.50000000
   13.19083309  104.00099945    0.28000000    2.50000000
   13.19166660  103.68199921    0.28000000    2.50000000
   13.19722271  103.68199921    0.30000001    2.50000000
   13.20138836  108.36499786    0.30000001    2.50000000
   13.20444393  106.38999939    0.30000001    2.51999998
   13.20777798  104.37300110    0.30000001    2.50000000
   13.21083355  111.42600250    0.28000000    2.51999998
   13.21416664  107.35900116    0.28000000    2.51999998
   13.21749973  102.68499756    0.28000000    2.50000000
   13.22055531  104.82599640    0.30000001    2.50000000
   13.22388840  103.30300140    0.30000001    2.50000000
   13.22499943  104.18599701    0.30000001    2.51999998
   13.22749996  106.63600159    0.28000000    2.50000000
   13.23083305  104.10399628    0.28000000    2.50000000
   13.23388958  107.32099915    0.28000000    2.50000000
   13.24000072  107.32099915    0.28000000    2.50000000
   13.24416733  104.73300171    0.30000001    2.51999998
   13.24750042   97.29029846    0.30000001    2.51999998
   13.25055599  104.19499969    0.28000000    2.51999998
   13.25388908  104.23000336    0.28000000    2.51999998
   13.25694466  106.56099701    0.28000000    2.51999998
   13.25833321  107.65899658    0.28000000    2.51999998
   13.26055527  107.20400238    0.28000000    2.51999998
   13.26388931  111.02300262    0.28000000    2.51999998
   13.26694393  105.80100250    0.28000000    2.51999998
   13.27027798  107.00800323    0.28000000    2.51999998
   13.27333355  108.00399780    0.28000000    2.51999998
   13.27666664  101.09600067    0.28000000    2.51999998
   13.28277779  101.09600067    0.28000000    2.51999998
   13.28694534  106.25499725    0.28000000    2.51999998
   13.29027843  106.00000000    0.28000000    2.51999998
   13.29194450  104.37699890    0.28000000    2.51999998
   13.29388905  110.14199829    0.28000000    2.51999998
   13.29722309  103.51499939    0.28000000    2.51999998
   13.30027771  100.63899994    0.28000000    2.51999998
   13.30361176  101.94499969    0.28000000    2.51999998
   13.30666733  101.90699768    0.28000000    2.51999998
   13.31000042  100.57900238    0.28000000    2.51999998
   13.31305599  101.31500244    0.28000000    2.53999996
   13.31638908  107.42600250    0.30000001    2.53999996
   13.31972218  106.23899841    0.30000001    2.53999996
   13.32583332  106.23899841    0.30000001    2.53999996
   13.32999992  105.55500031    0.31999999    2.53999996
   13.33305550  103.35600281    0.31999999    2.53999996
   13.33638859   98.15380096    0.34000000    2.53999996
   13.33944416   96.27519989    0.34000000    2.53999996
   13.34277725   94.52649689    0.34000000    2.53999996
   13.34583282  104.73699951    0.34000000    2.53999996
   13.34916592  100.54000092    0.34000000    2.53999996
   13.35222244   98.41290283    0.34000000    2.53999996
   13.35555553   98.60399628    0.34000000    2.53999996
   13.35833359   98.40419769    0.34000000    2.53999996
   13.35916710  102.02899933    0.34000000    2.53999996
   13.36250019  102.35099792    0.34000000    2.53999996
   13.36861134  102.35099792    0.38000000    2.53999996
   13.37277794  101.44499969    0.36000001    2.53999996
   13.37611103  102.55200195    0.36000001    2.53999996
   13.37916660   94.98159790    0.38000000    2.53999996
   13.38249969  103.00700378    0.36000001    2.53999996
   13.38583279   99.68579865    0.36000001    2.53999996
   13.38888836  100.12100220    0.36000001    2.53999996
   13.39194393   98.64610291    0.38000000    2.53999996
   13.39249992  104.30699921    0.38000000    2.53999996
   13.39583302  104.82299805    0.38000000    2.55999994
   13.39888859  105.72599792    0.36000001    2.53999996
   13.40222168  102.77100372    0.36000001    2.53999996
   13.40527725  104.97799683    0.34000000    2.53999996
   13.41138840  104.97799683    0.36000001    2.53999996
   13.41555500   99.91419983    0.40000001    2.53999996
   13.41888905  101.76499939    0.44000000    2.55999994
   13.42194462  102.90100098    0.44000000    2.55999994
   13.42527771   98.50489807    0.44000000    2.55999994
   13.42555618  102.76599884    0.44000000    2.55999994
   13.42888927   98.34300232    0.41999999    2.53999996
   13.43194485  103.95099640    0.41999999    2.55999994
   13.43527794  104.99199677    0.41999999    2.55999994
   13.43861103  100.32900238    0.40000001    2.55999994
   13.44166660   98.29399872    0.36000001    2.55999994
   13.44499969  103.65100098    0.36000001    2.55999994
   13.44805527   91.75119781    0.36000001    2.55999994
   13.45444393   91.75119781    0.36000001    2.55999994
   13.45861053  107.75800323    0.41999999    2.55999994
   13.45888901  100.04799652    0.41999999    2.55999994
   13.46222210  102.50399780    0.41999999    2.55999994
   13.46527767   99.88240051    0.40000001    2.55999994
   13.46861076  102.53500366    0.38000000    2.55999994
   13.47166634   98.44960022    0.38000000    2.55999994
   13.47499943  100.60900116    0.34000000    2.55999994
   13.47805500  100.60800171    0.34000000    2.55999994
   13.48138809  103.61299896    0.34000000    2.55999994
   13.48472214  105.98600006    0.31999999    2.55999994
   13.48777771  100.13099670    0.34000000    2.55999994
   13.49111176   97.54750061    0.38000000    2.55999994
   13.49194431  101.32199860    0.38000000    2.55999994
   13.49722290  101.32199860    0.40000001    2.57999992
   13.50138855  100.49800110    0.41999999    2.55999994
   13.50444412  101.39700317    0.40000001    2.55999994
   13.50777817  102.60800171    0.36000001    2.55999994
   13.51083374   97.03559875    0.34000000    2.55999994
   13.51416683  101.27400208    0.36000001    2.55999994
   13.51722240  103.31900024    0.36000001    2.57999992
   13.52055550  100.30500031    0.36000001    2.57999992
   13.52388859   99.50579834    0.36000001    2.57999992
   13.52527714  110.40299988    0.36000001    2.57999992
   13.52722168   97.49240112    0.36000001    2.57999992
   13.53055573  109.88500214    0.36000001    2.57999992
   13.53361130  101.22899628    0.34000000    2.57999992
   13.54000092  101.22899628    0.34000000    2.57999992
   13.54416752  102.70400238    0.34000000    2.57999992
   13.54722309  103.57700348    0.34000000    2.57999992
   13.55055618  101.58300018    0.34000000    2.57999992
   13.55388927  100.16899872    0.34000000    2.57999992
   13.55694485   95.68360138    0.31999999    2.57999992
   13.55861092   95.91979980    0.31999999    2.57999992
   13.56055546   96.05970001    0.31999999    2.57999992
   13.56388950   98.29509735    0.31999999    2.57999992
   13.56694412   99.82810211    0.31999999    2.57999992
   13.57027817   98.48059845    0.31999999    2.57999992
   13.57333374   98.56729889    0.31999999    2.57999992
   13.57666683   97.43280029    0.30000001    2.57999992
   13.58277798   97.43280029    0.28000000    2.57999992
   13.58694458  102.42500305    0.30000001    2.59999990
   13.59027767   99.30979919    0.31999999    2.59999990
   13.59194374  100.80200195    0.31999999    2.59999990
   13.59361076  101.01799774    0.31999999    2.59999990
   13.59694386   99.56210327    0.31999999    2.57999992
   13.60000038   98.45510101    0.28000000    2.57999992
   13.60333347   96.38659668    0.28000000    2.57999992
   13.60666752   98.46880341    0.25999999    2.57999992
   13.60972214   96.61370087    0.25999999    2.57999992
   13.61305618   96.64830017    0.25999999    2.57999992
   13.61611176   93.55120087    0.25999999    2.57999992
   13.61944485   93.80239868    0.28000000    2.57999992
   13.62583351   93.80239868    0.28000000    2.59999990
   13.62972260   95.94300079    0.28000000    2.59999990
   13.63305569   97.26190186    0.28000000    2.57999992
   13.63611126   94.36090088    0.28000000    2.57999992
   13.63944435  103.43699646    0.25999999    2.59999990
   13.64277744   94.48110199    0.25999999    2.59999990
   13.64583302   96.68329620    0.25999999    2.57999992
   13.64916611   90.33290100    0.25999999    2.59999990
   13.65222168   92.20729828    0.25999999    2.59999990
   13.65555477   97.84839630    0.28000000    2.59999990
   13.65861034   94.34149933    0.28000000    2.59999990
   13.65916634   94.43859863    0.28000000    2.59999990
   13.66249943  106.00000000    0.30000001    2.59999990
   13.66861153  106.00000000    0.30000001    2.59999990
   13.67277813   94.44290161    0.28000000    2.59999990
   13.67583370  100.50700378    0.25999999    2.59999990
   13.67916679   92.97640228    0.25999999    2.59999990
   13.68222237   94.83319855    0.25999999    2.59999990
   13.68555546   92.97889709    0.25999999    2.59999990
   13.68861103   91.53140259    0.25999999    2.59999990
   13.69194412   89.74199677    0.28000000    2.59999990
   13.69222260   88.28379822    0.28000000    2.59999990
   13.69555569   96.50080109    0.30000001    2.59999990
   13.69861126  121.42900085    0.28000000    2.59999990
   13.70194435  134.61300659    0.28000000    2.59999990
   13.70499992  142.63999939    0.28000000    2.59999990
   13.71138859  142.63999939    0.28000000    2.59999990
   13.71555519  126.11199951    0.28000000    2.59999990
   13.71861076  138.65199280    0.28000000    2.59999990
   13.72194386  120.76100159    0.28000000    2.59999990
   13.72527695  130.71800232    0.30000001    2.59999990
   13.72555542  126.46099854    0.30000001    2.59999990
   13.72888851  131.67100525    0.34000000    2.59999990
   13.73194408  103.16999817    0.34000000    2.61999989
   13.73527813  113.96900177    0.34000000    2.61999989
   13.73861122  115.99299622    0.34000000    2.59999990
   13.74166679  107.66100311    0.34000000    2.59999990
   13.74499989  106.15499878    0.34000000    2.59999990
   13.74805546  103.23699951    0.38000000    2.61999989
   13.75416660  103.23699951    0.40000001    2.61999989
   13.75833321  115.04299927    0.40000001    2.61999989
   13.75888920  117.06900024    0.40000001    2.61999989
   13.76222229   97.52290344    0.40000001    2.61999989
   13.76527786  118.39199829    0.34000000    2.61999989
   13.76861095  117.44300079    0.31999999    2.61999989
   13.77166653  125.88200378    0.31999999    2.61999989
   13.77499962  110.36699677    0.28000000    2.61999989
   13.77833271  101.64299774    0.28000000    2.61999989
   13.78138828  125.76999664    0.28000000    2.61999989
   13.78472233  112.49700165    0.25999999    2.61999989
   13.78777790  115.11000061    0.25999999    2.61999989
   13.79111195  127.59500122    0.25999999    2.61999989
   13.79222298  111.62200165    0.25999999    2.61999989
   13.79722309  111.62200165    0.25999999    2.61999989
   13.80111122   99.71050262    0.25999999    2.61999989
   13.80444431  108.52300262    0.25999999    2.61999989
   13.80777836  106.96800232    0.25999999    2.61999989
   13.81083393  109.53700256    0.25999999    2.61999989
   13.81416702   91.18910217    0.25999999    2.61999989
   13.81722260   86.91750336    0.25999999    2.61999989
   13.82055569   89.55539703    0.25999999    2.61999989
   13.82361126   90.16259766    0.25000000    2.61999989
   13.82555580   95.21170044    0.25000000    2.61999989
   13.82750034   93.31490326    0.25000000    2.61999989
   13.83055592   91.32260132    0.25000000    2.61999989
   13.83388901   90.93540192    0.25000000    2.61999989
   13.84000015   90.93540192    0.25000000    2.64000010
   13.84416676   91.88569641    0.25000000    2.64000010
   13.84722233   93.91780090    0.25000000    2.64000010
   13.85055637   90.96209717    0.25000000    2.61999989
   13.85361195   93.02950287    0.25000000    2.61999989
   13.85694504   91.70089722    0.25000000    2.61999989
   13.85888958   88.94799805    0.25000000    2.64000010
   13.86055565   91.52999878    0.25000000    2.64000010
   13.86361122   91.25820160    0.25000000    2.61999989
   13.86694431   96.35839844    0.25000000    2.61999989
   13.86999989   93.83360291    0.25000000    2.61999989
   13.87333393   91.60849762    0.25000000    2.64000010
   13.87638855   88.61579895    0.25000000    2.64000010
   13.88277817   88.61579895    0.25000000    2.61999989
   13.88694477   84.02469635    0.25000000    2.64000010
   13.89000034   84.79380035    0.25000000    2.64000010
   13.89222240   83.77970123    0.23000000    2.64000010
   13.89388847   85.44640350    0.23000000    2.64000010
   13.89694405   87.07009888    0.23000000    2.64000010
   13.90027714   89.51010132    0.25000000    2.64000010
   13.90333271   89.76059723    0.25000000    2.64000010
   13.90666676   90.72049713    0.25000000    2.64000010
   13.90972137   88.90920258    0.25000000    2.64000010
   13.91305542   89.57140350    0.25000000    2.64000010
   13.91638851   87.98719788    0.25000000    2.64000010
   13.91944504   90.72940063    0.23000000    2.64000010
   13.94083309   90.72940063    0.25000000    2.64000010
   13.94472218   96.07469940    0.25000000    2.64000010
   13.94805527   95.00540161    0.25000000    2.64000010
   13.95138836   94.52929688    0.23000000    2.64000010
   13.95444393  100.32800293    0.25000000    2.64000010
   13.95777798  102.19200134    0.25000000    2.64000010
   13.96083355   96.43139648    0.25000000    2.64000010
   13.96416664   96.09179688    0.25000000    2.64000010
   13.96749973   98.50730133    0.25000000    2.64000010
   13.97055531   96.51989746    0.25000000    2.64000010
   13.97166634   95.35469818    0.25000000    2.64000010
   13.97416592   95.76119995    0.25000000    2.64000010
   13.97749996  101.11799622    0.25000000    2.64000010
   13.98361111  101.11799622    0.25000000    2.64000010
   13.98750019   99.12609863    0.25999999    2.64000010
   13.99083328   95.97640228    0.25000000    2.64000010
   13.99416733   95.65049744    0.25000000    2.64000010
   13.99722290   90.66780090    0.25000000    2.64000010
   14.00055599   96.09490204    0.25999999    2.64000010
   14.00361156   91.30370331    0.25000000    2.64000010
   14.00500011   97.77909851    0.25000000    2.64000010
   14.00722218   93.83260345    0.25000000    2.66000009
   14.01055527   91.98370361    0.25999999    2.64000010
   14.01361084   93.05799866    0.28000000    2.64000010
   14.01694393   94.08750153    0.28000000    2.64000010
   14.02027798   94.59179688    0.25999999    2.64000010
   14.02638817   94.59179688    0.25999999    2.64000010
   14.03055573   93.30889893    0.28000000    2.64000010
   14.03361130   95.30300140    0.28000000    2.64000010
   14.03694534   91.52860260    0.25999999    2.64000010
   14.03833389   94.19940186    0.25999999    2.64000010
   14.04055595   93.36599731    0.25999999    2.64000010
   14.04388905   96.33719635    0.25000000    2.64000010
   14.04694462   95.88130188    0.25999999    2.64000010
   14.05027771   92.68720245    0.25999999    2.64000010
   14.05333328   97.02189636    0.25999999    2.64000010
   14.05666733   97.02919769    0.25999999    2.66000009
   14.05972195  105.20899963    0.25999999    2.66000009
   14.06305599   99.02749634    0.25000000    2.66000009
   14.06916618   99.02749634    0.25000000    2.66000009
   14.07333374  100.50499725    0.25000000    2.66000009
   14.07666683   93.79869843    0.25000000    2.64000010
   14.07972240   97.80079651    0.25000000    2.66000009
   14.08305550   97.53859711    0.25000000    2.66000009
   14.08611107  104.58899689    0.25000000    2.66000009
   14.08944416   99.84420013    0.25000000    2.66000009
   14.09249973  101.39399719    0.25000000    2.66000009
   14.09583282   98.23249817    0.25000000    2.66000009
   14.09916592   99.81900024    0.25000000    2.66000009
   14.10222244   99.36000061    0.25000000    2.66000009
   14.10500050   99.95729828    0.25000000    2.66000009
   14.10583401  100.57900238    0.25000000    2.66000009
   14.11194515  100.57900238    0.25000000    2.66000009
   14.11611176  109.10900116    0.25000000    2.66000009
   14.11944485  105.68800354    0.25000000    2.66000009
   14.12250042  106.40399933    0.25000000    2.66000009
   14.12583351   99.87249756    0.25000000    2.66000009
   14.12916660   98.59380341    0.25000000    2.66000009
   14.13222218  102.63200378    0.25000000    2.66000009
   14.13555527   92.86299896    0.25000000    2.66000009
   14.13833332   99.14060211    0.25000000    2.66000009
   14.13916683   99.13790131    0.25000000    2.66000009
   14.14249992   98.26360321    0.25000000    2.66000009
   14.14555550   98.93759918    0.25000000    2.66000009
   14.14888859  102.80300140    0.25000000    2.67000008
   14.15499973  102.80300140    0.25000000    2.67000008
   14.15888882  101.80599976    0.25000000    2.66000009
   14.16222191  103.90399933    0.25000000    2.66000009
   14.16555500  103.24800110    0.25000000    2.66000009
   14.16861153  102.36599731    0.23000000    2.66000009
   14.17166710   98.62400055    0.25000000    2.66000009
   14.17222214  103.67400360    0.25000000    2.66000009
   14.17555618  102.98100281    0.25000000    2.66000009
   14.17861176  104.49099731    0.25000000    2.67000008
   14.18194485  103.12799835    0.23000000    2.67000008
   14.18500042  106.08200073    0.23000000    2.67000008
   14.18833351  105.97599792    0.23000000    2.67000008
   14.19138908  100.91799927    0.25000000    2.66000009
   14.19777775  100.91799927    0.25000000    2.66000009
   14.20194435  100.63099670    0.23000000    2.67000008
   14.20527744   99.68599701    0.23000000    2.66000009
   14.20555496  102.83100128    0.23000000    2.66000009
   14.20888901  111.18900299    0.25000000    2.67000008
   14.21194458  112.13200378    0.25000000    2.66000009
   14.21527767  101.05100250    0.25000000    2.66000009
   14.21833324  104.01000214    0.25000000    2.66000009
   14.22166634   98.45200348    0.25000000    2.67000008
   14.22499943  101.95700073    0.25000000    2.67000008
   14.22805500  104.88600159    0.23000000    2.67000008
   14.23138809  103.34799957    0.23000000    2.67000008
   14.23444462  101.65100098    0.23000000    2.66000009
   14.24055576  101.65100098    0.23000000    2.67000008
   14.24472237  102.15699768    0.25000000    2.67000008
   14.24805546  103.12799835    0.25000000    2.67000008
   14.25111103  103.85399628    0.23000000    2.66000009
   14.25444412  111.66100311    0.23000000    2.67000008
   14.25749969  106.74500275    0.25000000    2.66000009
   14.26083374  105.66400146    0.23000000    2.67000008
   14.26388931  110.75800323    0.23000000    2.66000009
   14.26722240  100.82800293    0.23000000    2.67000008
   14.27027798  105.00800323    0.23000000    2.67000008
   14.27166653  109.21099854    0.23000000    2.67000008
   14.27388859  108.25800323    0.23000000    2.67000008
   14.27722168  109.60099792    0.23000000    2.67000008
   14.28333378  109.60099792    0.23000000    2.67000008
   14.28750038  106.42099762    0.23000000    2.67000008
   14.29083347  102.52300262    0.23000000    2.67000008
   14.29416752   99.78549957    0.23000000    2.67000008
   14.29722309  100.88999939    0.25000000    2.67000008
   14.30055618  105.17600250    0.23000000    2.67000008
   14.30388927  103.82700348    0.23000000    2.67000008
   14.30500031  105.03900146    0.23000000    2.67000008
   14.30749989  106.85399628    0.23000000    2.67000008
   14.31083393  103.50800323    0.23000000    2.67000008
   14.31388950  105.40399933    0.23000000    2.67000008
   14.31722260  106.80699921    0.23000000    2.67000008
   14.32027817  105.53500366    0.23000000    2.67000008
   14.32638836  105.53500366    0.23000000    2.67000008
   14.33027744  105.93399811    0.25000000    2.67000008
   14.33361053  108.47599792    0.23000000    2.67000008
   14.33694458  101.60900116    0.23000000    2.67000008
   14.33861065  109.08899689    0.23000000    2.67000008
   14.34055519  108.37100220    0.23000000    2.67000008
   14.34388828  109.07700348    0.25000000    2.67000008
   14.34694386  102.51999664    0.23000000    2.67000008
   14.35027790  108.93699646    0.23000000    2.67000008
   14.35333347  105.59200287    0.23000000    2.67000008
   14.35666752  101.41200256    0.25000000    2.69000006
   14.35972214  106.66300201    0.25000000    2.67000008
   14.36305618  105.03099823    0.23000000    2.67000008
   14.36916637  105.03099823    0.25000000    2.67000008
   14.37333393  113.02500153    0.23000000    2.69000006
   14.37638855  107.69400024    0.23000000    2.67000008
   14.37972260  110.13700104    0.23000000    2.67000008
   14.38277817  101.84200287    0.23000000    2.67000008
   14.38611126  110.84300232    0.23000000    2.67000008
   14.38944435  113.70099640    0.23000000    2.67000008
   14.39249992  109.86499786    0.23000000    2.67000008
   14.39583302  117.37799835    0.23000000    2.69000006
   14.39888859  107.93800354    0.23000000    2.69000006
   14.40222168  110.10500336    0.23000000    2.67000008
   14.40527725  108.84899902    0.23000000    2.67000008
   14.40583324  109.51100159    0.23000000    2.67000008
   14.41194439  109.51100159    0.23000000    2.67000008
   14.41611099  116.44999695    0.23000000    2.67000008
   14.41916656  113.26100159    0.23000000    2.69000006
   14.42250061  110.42900085    0.23000000    2.67000008
   14.42583370  107.18800354    0.23000000    2.67000008
   14.42888927  107.94699860    0.23000000    2.69000006
   14.43222237  104.85399628    0.23000000    2.69000006
   14.43527794  112.51100159    0.23000000    2.67000008
   14.43861103  109.72299957    0.23000000    2.69000006
   14.43916702  110.40599823    0.23000000    2.69000006
   14.44222260  105.15299988    0.23000000    2.69000006
   14.44555569  107.13800049    0.23000000    2.69000006
   14.44888878  110.73500061    0.23000000    2.69000006
   14.45472240  110.73500061    0.23000000    2.67000008
   14.45888901  106.78900146    0.23000000    2.69000006
   14.46222210  113.48400116    0.23000000    2.67000008
   14.46527767  109.73899841    0.23000000    2.69000006
   14.46861076  108.05699921    0.23000000    2.69000006
   14.47166634  105.86699677    0.23000000    2.69000006
   14.47249985  111.25399780    0.23000000    2.69000006
   14.47527695  116.66799927    0.23000000    2.69000006
   14.47861099  107.90399933    0.23000000    2.69000006
   14.48194408  109.25599670    0.23000000    2.69000006
   14.48500061  113.36100006    0.25000000    2.69000006
   14.48833370  107.92299652    0.25000000    2.69000006
   14.49138927  108.02700043    0.23000000    2.69000006
   14.49777794  108.02700043    0.25000000    2.69000006
   14.50166702  112.36499786    0.25000000    2.69000006
   14.50500011  108.00900269    0.25000000    2.69000006
   14.50583363  108.76399994    0.25000000    2.69000006
   14.50861073  116.43099976    0.23000000    2.69000006
   14.51166630  109.33399963    0.23000000    2.69000006
   14.51500034  111.16600037    0.23000000    2.69000006
   14.51805496  109.57399750    0.23000000    2.69000006
   14.52138901  103.89199829    0.23000000    2.69000006
   14.52444458  103.70600128    0.23000000    2.69000006
   14.52777767  114.72599792    0.25000000    2.69000006
   14.53111076  109.41999817    0.23000000    2.69000006
   14.53416729  108.11000061    0.25000000    2.69000006
   14.54055595  108.11000061    0.23000000    2.69000006
   14.54472256  114.19699860    0.23000000    2.69000006
   14.54777813  104.88099670    0.23000000    2.69000006
   14.55111122  108.27100372    0.25000000    2.69000006
   14.55416679  111.89800262    0.23000000    2.69000006
   14.55749989  107.04699707    0.23000000    2.71000004
   14.56055546  107.47299957    0.23000000    2.69000006
   14.56388950  105.46900177    0.23000000    2.69000006
   14.56694412  102.23500061    0.23000000    2.69000006
   14.57027817  106.22599792    0.23000000    2.69000006
   14.57250023  101.42500305    0.23000000    2.69000006
   14.57416630  100.29199982    0.23000000    2.69000006
   14.57722187  104.96399689    0.23000000    2.69000006
   14.58333302  104.96399689    0.23000000    2.69000006
   14.58749962  104.86699677    0.23000000    2.69000006
   14.59083271  107.89900208    0.23000000    2.69000006
   14.59388828  105.66600037    0.23000000    2.69000006
   14.59722233  111.79599762    0.23000000    2.69000006
   14.60027790  112.06199646    0.23000000    2.69000006
   14.60361195  114.29499817    0.23000000    2.69000006
   14.60583401  109.19000244    0.23000000    2.69000006
   14.60722256  108.94699860    0.23000000    2.69000006
   14.61027813  107.62799835    0.23000000    2.69000006
   14.61361122  108.12300110    0.23000000    2.69000006
   14.61666679  104.94000244    0.23000000    2.69000006
   14.61999989  109.31600189    0.23000000    2.69000006
   14.62611103  109.31600189    0.23000000    2.71000004
   14.63027763  105.92700195    0.23000000    2.71000004
   14.63361073  108.64499664    0.23000000    2.71000004
   14.63666630  107.54900360    0.23000000    2.71000004
   14.63916683  103.76899719    0.23000000    2.71000004
   14.64055538  110.70300293    0.23000000    2.69000006
   14.64361095  100.19499969    0.23000000    2.69000006
   14.64694405  106.74299622    0.23000000    2.69000006
   14.64999962  108.72799683    0.23000000    2.71000004
   14.65333271  108.21600342    0.23000000    2.69000006
   14.65638828  108.06600189    0.23000000    2.69000006
   14.65972137  114.19699860    0.23000000    2.69000006
   14.66277695  114.26599884    0.23000000    2.69000006
   14.66916656  114.26599884    0.23000000    2.69000006
   14.67305565  110.68900299    0.23000000    2.69000006
   14.67638874  107.15599823    0.23000000    2.69000006
   14.67972279  105.27700043    0.23000000    2.71000004
   14.68277836  110.26999664    0.23000000    2.71000004
   14.68611145  111.92900085    0.23000000    2.69000006
   14.68916702  110.10900116    0.23000000    2.71000004
   14.69250011  115.12200165    0.23000000    2.69000006
   14.69555569  108.62699890    0.23000000    2.71000004
   14.69888878  108.61399841    0.23000000    2.71000004
   14.70194435  105.53800201    0.23000000    2.71000004
   14.70527744  109.14399719    0.23000000    2.69000006
   14.70583344  109.28700256    0.23000000    2.71000004
   14.71194458  109.28700256    0.23000000    2.69000006
   14.71611118  106.59200287    0.23000000    2.69000006
   14.71944427  106.83699799    0.23000000    2.69000006
   14.72249985  102.18299866    0.23000000    2.69000006
   14.72583294  103.37899780    0.25000000    2.69000006
   14.72916603  106.74400330    0.23000000    2.71000004
   14.73249912  107.99900055    0.23000000    2.71000004
   14.73555565  110.20700073    0.23000000    2.71000004
   14.73888874  108.01100159    0.23000000    2.71000004
   14.73944473  117.75000000    0.23000000    2.71000004
   14.74277782  103.60199738    0.23000000    2.71000004
   14.74583340  114.61799622    0.23000000    2.71000004
   14.74916649  110.84799957    0.23000000    2.71000004
   14.75472260  110.84799957    0.23000000    2.71000004
   14.75888920  103.24299622    0.23000000    2.69000006
   14.76194477  107.78600311    0.23000000    2.71000004
   14.76527786  112.34799957    0.23000000    2.69000006
   14.76861095  106.01300049    0.23000000    2.71000004
   14.77166653  108.43299866    0.23000000    2.71000004
   14.77277756  108.93699646    0.23000000    2.71000004
   14.77555561  111.84899902    0.23000000    2.71000004
   14.77861118  104.51399994    0.23000000    2.71000004
   14.78194427  108.07099915    0.23000000    2.71000004
   14.78500080  110.88999939    0.23000000    2.71000004
   14.78833389  112.61399841    0.23000000    2.71000004
   14.79138947  104.51499939    0.23000000    2.71000004
   14.79750061  104.51499939    0.23000000    2.71000004
   14.80166721  106.82900238    0.23000000    2.71000004
   14.80500031  108.22299957    0.23000000    2.71000004
   14.80611134  102.25299835    0.23000000    2.71000004
   14.80833340  108.27999878    0.20999999    2.71000004
   14.81166649  102.41100311    0.20999999    2.71000004
   14.81500053  102.87000275    0.20999999    2.71000004
   14.81805515  108.37200165    0.23000000    2.71000004
   14.82138920   99.89929962    0.20999999    2.71000004
   14.82444477  100.86000061    0.23000000    2.71000004
   14.82777786  103.36299896    0.20999999    2.71000004
   14.83083344  101.08000183    0.23000000    2.71000004
   14.83416653  100.67199707    0.20999999    2.71000004
   14.84055519  100.67199707    0.23000000    2.71000004
   14.84444427  104.11799622    0.20999999    2.71000004
   14.84777737  111.91400146    0.20999999    2.71000004
   14.85111141  108.35600281    0.20999999    2.71000004
   14.85416698  108.89399719    0.23000000    2.71000004
   14.85750008  104.36199951    0.23000000    2.71000004
   14.86055565  105.82700348    0.20999999    2.71000004
   14.86388969  107.26999664    0.20999999    2.71000004
   14.86694431  100.35299683    0.23000000    2.71000004
   14.87027836  106.55799866    0.23000000    2.71000004
   14.87277794   99.99079895    0.23000000    2.71000004
   14.87361145  106.60199738    0.23000000    2.71000004
   14.87694454  104.01699829    0.23000000    2.71000004
   14.88333321  104.01699829    0.23000000    2.71000004
   14.88749981  101.65699768    0.23000000    2.71000004
   14.89055538   98.86750031    0.23000000    2.71000004
   14.89388847  101.21900177    0.23000000    2.73000002
   14.89694405  103.81099701    0.23000000    2.71000004
   14.90027714  105.30899811    0.23000000    2.71000004
   14.90333271   99.76589966    0.23000000    2.71000004
   14.90611076  101.78800201    0.23000000    2.71000004
   14.90722179  105.05300140    0.23000000    2.71000004
   14.91027737  101.30999756    0.23000000    2.71000004
   14.91361046  103.58899689    0.23000000    2.71000004
   14.91666698   99.79979706    0.23000000    2.71000004
   14.92000008  104.29599762    0.23000000    2.71000004
   14.92611122  104.29599762    0.23000000    2.71000004
   14.93027782   99.73000336    0.23000000    2.69000006
   14.93333340  105.09899902    0.23000000    2.69000006
   14.93666649  103.86699677    0.25000000    2.71000004
   14.95444393  114.87000275    0.20999999    2.71000004
   14.95638847  116.25700378    0.23000000    2.71000004
   14.95972157  110.78299713    0.23000000    2.71000004
   14.96277714  108.96499634    0.20999999    2.71000004
   14.96916580  108.96499634    0.20999999    2.73000002
   14.97333336  114.72899628    0.20999999    2.71000004
   14.97638798  111.02300262    0.20999999    2.71000004
   14.97972202  116.35099792    0.23000000    2.71000004
   14.98277760  110.25299835    0.23000000    2.73000002
   14.98611164  116.69899750    0.23000000    2.73000002
   14.98750019  114.27400208    0.20999999    2.71000004
   14.98972225  119.30899811    0.20999999    2.71000004
   14.99277782  112.46199799    0.23000000    2.73000002
   14.99611092  114.51000214    0.23000000    2.71000004
   14.99944496  114.10500336    0.23000000    2.71000004
   15.00249958  113.08399963    0.23000000    2.73000002
   15.00583363  115.81400299    0.23000000    2.71000004
   15.01194477  115.81400299    0.23000000    2.71000004
   15.01611137  111.25299835    0.23000000    2.73000002
   15.01944447  118.67099762    0.23000000    2.73000002
   15.02083302  112.09100342    0.23000000    2.73000002
   15.02305508  107.94999695    0.23000000    2.73000002
   15.02611065  112.87400055    0.23000000    2.71000004
   15.02944374  107.02899933    0.23000000    2.71000004
   15.03277779  106.34600067    0.23000000    2.71000004
   15.03583336  112.13300323    0.20999999    2.71000004
   15.03916740  117.14900208    0.23000000    2.71000004
   15.04222298  121.17800140    0.23000000    2.73000002
   15.04555607  117.40299988    0.25000000    2.73000002
   15.04861164  110.27100372    0.23000000    2.73000002
   15.05472279  110.27100372    0.20999999    2.73000002
   15.05888939  118.82399750    0.23000000    2.71000004
   15.06222248  119.38999939    0.20999999    2.73000002
   15.06527805  112.52700043    0.23000000    2.73000002
   15.06861115  114.81099701    0.20999999    2.73000002
   15.07166672  114.51799774    0.20999999    2.73000002
   15.07499981  115.55300140    0.23000000    2.71000004
   15.07833290  115.58999634    0.23000000    2.73000002
   15.08138847  116.42199707    0.20999999    2.73000002
   15.08472157  113.07800293    0.20999999    2.73000002
   15.08749962   87.52339935    0.20999999    2.73000002
   15.08833313  121.58200073    0.20999999    2.73000002
   15.09138870  117.63400269    0.20999999    2.71000004
   15.09777737  117.63400269    0.20999999    2.73000002
   15.10194492  115.71900177    0.23000000    2.73000002
   15.10500050  108.82299805    0.23000000    2.73000002
   15.10833359  116.18900299    0.23000000    2.73000002
   15.11138916  112.94100189    0.20999999    2.73000002
   15.11472225  108.60299683    0.20999999    2.73000002
   15.11777782  114.57700348    0.20999999    2.73000002
   15.12083340  108.90799713    0.23000000    2.73000002
   15.12138939  110.09999847    0.23000000    2.73000002
   15.12472248  113.76699829    0.23000000    2.73000002
   15.12777805  107.98699951    0.23000000    2.73000002
   15.13111115  111.79199982    0.20999999    2.73000002
   15.13416672  118.83899689    0.23000000    2.73000002
   15.14055538  118.83899689    0.20999999    2.73000002
   15.14472198  109.97100067    0.20999999    2.73000002
   15.14777756  111.99199677    0.23000000    2.73000002
   15.15111065  115.77100372    0.23000000    2.73000002
   15.15416622  111.52200317    0.23000000    2.73000002
   15.15472221  116.39800262    0.23000000    2.73000002
   15.15805531  123.60299683    0.20999999    2.73000002
   15.16138840  112.02100372    0.20999999    2.73000002
   15.16444397  115.41100311    0.23000000    2.73000002
   15.16777802  118.95999908    0.23000000    2.73000002
   15.17083359  113.06099701    0.23000000    2.73000002
   15.27472210   -1.00000000   -1.00000000   -1.00000000
   15.36138916   -1.00000000   -1.00000000   -1.00000000
   15.45194435   -1.00000000   -1.00000000   -1.00000000
   15.54944515   -1.00000000   -1.00000000   -1.00000000
   15.68194485   -1.00000000   -1.00000000   -1.00000000
   15.78138828   -1.00000000   -1.00000000   -1.00000000
   15.86833382   -1.00000000   -1.00000000   -1.00000000
   15.90111065  146.86000061    0.25000000    2.75000000
   15.90416622  142.36099243    0.25000000    2.76999998
   15.90749931  146.26199341    0.23000000    2.76999998
   15.91083336  137.98399353    0.25000000    2.76999998
   15.91388893  126.52899933    0.25999999    2.75000000
   15.91722298  140.74600220    0.20999999    2.76999998
   15.92138958  140.74600220    0.23000000    2.76999998
   15.92527771  131.56500244    0.23000000    2.76999998
   15.92861176  135.81199646    0.23000000    2.75000000
   15.93166733  145.06300354    0.23000000    2.76999998
   15.93416691  151.83099365    0.25000000    2.76999998
   15.93527794  144.58000183    0.23000000    2.75000000
   15.93861103  148.10200500    0.25999999    2.76999998
   15.94166660  127.84400177    0.28000000    2.75000000
   15.94499969  120.79299927    0.28000000    2.75000000
   15.94805527  127.48699951    0.30000001    2.75000000
   15.95138836  121.25099945    0.30000001    2.75000000
   15.95444393  127.83300018    0.28000000    2.75000000
   15.95777798  123.98699951    0.25999999    2.76999998
   15.96416664  123.98699951    0.25000000    2.76999998
   15.96833324  139.13000488    0.25000000    2.76999998
   15.97166634  135.43299866    0.25000000    2.75000000
   15.97472191  138.10200500    0.25000000    2.75000000
   15.97805500  127.42700195    0.23000000    2.75000000
   15.98111057  113.76300049    0.25000000    2.75000000
   15.98444462  124.08999634    0.25000000    2.75000000
   15.98750019  129.03300476    0.23000000    2.76999998
   15.99083328  117.81099701    0.23000000    2.76999998
   15.99388885  117.08899689    0.23000000    2.75000000
   15.99722290  125.98300171    0.23000000    2.75000000
   16.00055504  116.04299927    0.23000000    2.75000000
   16.00111198  121.36199951    0.25000000    2.76999998
   16.00694466  121.36199951    0.25000000    2.76999998
   16.01111031  125.45600128    0.23000000    2.76999998
   16.01416588  123.06900024    0.25000000    2.76999998
   16.01749992  128.07499695    0.23000000    2.75000000
   16.02083397  117.42700195    0.23000000    2.75000000
   16.02388954  113.43599701    0.23000000    2.75000000
   16.02722168  112.97899628    0.23000000    2.75000000
   16.03027725  118.68699646    0.25000000    2.75000000
   16.03361130  109.07099915    0.23000000    2.76999998
   16.03444481  111.15499878    0.23000000    2.76999998
   16.03722191  110.25499725    0.23000000    2.76999998
   16.04055595  116.59300232    0.23000000    2.75000000
   16.04361153  114.34899902    0.23000000    2.76999998
   16.04972076  114.34899902    0.23000000    2.75000000
   16.05388832  108.57299805    0.23000000    2.75000000
   16.05722237  113.11699677    0.23000000    2.75000000
   16.06027794  105.92700195    0.23000000    2.75000000
   16.06361008  102.09400177    0.23000000    2.76999998
   16.06694603  102.79599762    0.25000000    2.76999998
   16.06777954   99.86370087    0.25000000    2.76999998
   16.07027817  112.54699707    0.23000000    2.75000000
   16.07361221  103.66300201    0.20999999    2.75000000
   16.07666779  107.43800354    0.20999999    2.76999998
   16.08000183  109.70099640    0.20999999    2.76999998
   16.08305550  106.29000092    0.23000000    2.76999998
   16.08638954  104.88500214    0.20999999    2.76999998
   16.09250069  104.88500214    0.20999999    2.76999998
   16.09666824  103.27300262    0.25000000    2.76999998
   16.10000038  104.32599640    0.20999999    2.76999998
   16.10111237  108.65699768    0.20999999    2.76999998
   16.10361099  104.19899750    0.20999999    2.76999998
   16.10694504   99.39890289    0.20999999    2.76999998
   16.11000061  111.96800232    0.23000000    2.75000000
   16.11333466  103.80699921    0.20999999    2.75000000
   16.11638832  105.80000305    0.23000000    2.75000000
   16.11972237  106.80100250    0.25000000    2.76999998
   16.12305641  105.30799866    0.25999999    2.76999998
   16.12611198  100.44499969    0.25999999    2.75000000
   16.12944412  106.84300232    0.25999999    2.75000000
   16.13555527  106.84300232    0.25000000    2.75000000
   16.13972282  102.78700256    0.25999999    2.75000000
   16.14277840  107.25599670    0.25999999    2.76999998
   16.14611053  102.17800140    0.25999999    2.76999998
   16.14916611  103.78199768    0.31999999    2.75000000
   16.15250015   93.93219757    0.34000000    2.76999998
   16.15555573  101.06099701    0.31999999    2.76999998
   16.15888786  101.81099701    0.25999999    2.76999998
   16.16222191  101.49700165    0.25999999    2.76999998
   16.16527748   99.86820221    0.30000001    2.76999998
   16.16777802   99.60700226    0.25999999    2.76999998
   16.16888809  100.15899658    0.25999999    2.76999998
   16.17222214   99.79029846    0.25000000    2.76999998
   16.17833328   99.79029846    0.23000000    2.76999998
   16.18249893  105.19499969    0.23000000    2.76999998
   16.18555450  110.70999908    0.23000000    2.75000000
   16.18888855  102.83699799    0.23000000    2.76999998
   16.19222069  107.86900330    0.20999999    2.76999998
   16.19527626  105.97000122    0.20999999    2.76999998
   16.19861031  106.46499634    0.20999999    2.76999998
   16.20111275   93.87270355    0.20999999    2.76999998
   16.20194435  108.56700134    0.20999999    2.76999998
   16.20527840  106.63500214    0.20999999    2.76999998
   16.20833397   99.82440186    0.20999999    2.76999998
   16.21166801  101.50399780    0.23000000    2.75000000
   16.21472359  101.13099670    0.23000000    2.76999998
   16.22111130  101.13099670    0.23000000    2.76999998
   16.22527885   96.71739960    0.20999999    2.76999998
   16.22861099   96.96829987    0.23000000    2.76999998
   16.23166656   96.24250031    0.20999999    2.76999998
   16.23444557   95.21040344    0.23000000    2.75000000
   16.23527718  101.90399933    0.23000000    2.75000000
   16.23861122   99.51979828    0.20999999    2.76999998
   16.24166679  101.44499969    0.20999999    2.76999998
   16.24500084   98.28479767    0.23000000    2.76999998
   16.24805641   99.45749664    0.20999999    2.76999998
   16.25138855   98.25360107    0.20999999    2.76999998
   16.25472260   98.46520233    0.23000000    2.76999998
   16.25777817   97.25630188    0.23000000    2.75000000
   16.26416588   97.25630188    0.25000000    2.76999998
   16.26805496   94.70950317    0.25000000    2.76999998
   16.27138901   98.65480042    0.25999999    2.76999998
   16.27444458   94.68730164    0.25999999    2.76999998
   16.27777672  103.79299927    0.52999997    2.75000000
   16.28111076   94.41120148    0.41999999    2.75000000
   16.28416634   96.88980103    0.36000001    2.76999998
   16.28750038   96.53250122    0.31999999    2.76999998
   16.29055595   95.14340210    0.25999999    2.75000000
   16.29388809   95.54730225    0.25999999    2.76999998
   16.29694366  101.59200287    0.28000000    2.76999998
   16.30027771   93.27159882    0.25000000    2.76999998
   16.30111122   99.07060242    0.25000000    2.76999998
   16.30694389   99.07060242    0.25000000    2.76999998
   16.31110954   95.89890289    0.25000000    2.76999998
   16.31416512   93.27320099    0.25000000    2.76999998
   16.31750107   95.79229736    0.25000000    2.76999998
   16.32055664   92.68270111    0.23000000    2.76999998
   16.32389069   99.80139923    0.23000000    2.76999998
   16.32694626   97.84799957    0.23000000    2.76999998
   16.33027840   95.90570068    0.20999999    2.76999998
   16.33361244   97.29979706    0.25000000    2.75000000
   16.33444595   95.28040314    0.23000000    2.76999998
   16.33694458   97.39499664    0.23000000    2.76999998
   16.34027863  103.60800171    0.23000000    2.76999998
   16.34333420   92.65720367    0.25000000    2.75000000
   16.34972191   92.65720367    0.23000000    2.76999998
   16.35388947   95.22930145    0.23000000    2.76999998
   16.35694504   95.44730377    0.23000000    2.76999998
   16.36027908   95.15760040    0.23000000    2.76999998
   16.36361122   95.44989777    0.23000000    2.76999998
   16.36666679   95.68990326    0.20999999    2.76999998
   16.36777878   95.47080231    0.20999999    2.76999998
   16.37027740   99.95639801    0.23000000    2.76999998
   16.37361145   97.11440277    0.23000000    2.76999998
   16.37666702   94.71869659    0.23000000    2.76999998
   16.38000107   98.37069702    0.23000000    2.76999998
   16.38333321   91.73220062    0.23000000    2.76999998
   16.38638878  101.70999908    0.23000000    2.76999998
   16.39249992  101.70999908    0.25000000    2.75000000
   16.39666748  101.43599701    0.25000000    2.75000000
   16.39999962   99.69370270    0.25000000    2.76999998
   16.40111160   99.44909668    0.25000000    2.76999998
   16.40333366  104.12100220    0.25000000    2.75000000
   16.40666580   98.47109985    0.25000000    2.75000000
   16.40972137   97.81700134    0.25999999    2.76999998
   16.41305542  102.49600220    0.25999999    2.75000000
   16.41638756  101.93199921    0.25999999    2.76999998
   16.41944313   98.58039856    0.63000000    2.75000000
   16.42277718   99.87339783    0.64999998    2.75000000
   16.42583275  103.06300354    0.64999998    2.75000000
   16.42916679   95.65190125    0.64999998    2.75000000
   16.43527603   95.65190125    0.28000000    2.76999998
   16.43944359   98.50759888    0.25000000    2.76999998
   16.44277763  102.15699768    0.25000000    2.76999998
   16.44610977  100.37100220    0.28000000    2.76999998
   16.44916534   96.53839874    0.28000000    2.76999998
   16.45250130   97.07920074    0.28000000    2.76999998
   16.45555687   99.89479828    0.25999999    2.76999998
   16.45888901  101.29199982    0.25000000    2.76999998
   16.46194458  101.62200165    0.30000001    2.76999998
   16.46527863  100.66500092    0.31999999    2.76999998
   16.46777916  104.15000153    0.30000001    2.76999998
   16.46888924   99.77089691    0.30000001    2.76999998
   16.47222328   97.58319855    0.30000001    2.75000000
   16.47833443   97.58319855    0.28000000    2.76999998
   16.48250008   97.37930298    0.28000000    2.76999998
   16.48555565  101.29299927    0.28000000    2.76999998
   16.48888969  100.21199799    0.25999999    2.76999998
   16.49194527   93.47949982    0.25999999    2.76999998
   16.49527740   89.13919830    0.25999999    2.76999998
   16.49861145   98.05049896    0.25999999    2.78999996
   16.50111198   94.29479980    0.25999999    2.76999998
   16.50194359   95.44329834    0.25999999    2.76999998
   16.50527763   97.28520203    0.25999999    2.75000000
   16.50833321   94.33709717    0.25999999    2.75000000
   16.51166725   96.81390381    0.25999999    2.76999998
   16.51499939   96.80090332    0.25999999    2.76999998
   16.52111053   96.80090332    0.25999999    2.75000000
   16.52527809   93.25450134    0.25999999    2.76999998
   16.52833366   92.15809631    0.25999999    2.76999998
   16.53166580   91.33339691    0.28000000    2.76999998
   16.53444481   89.54119873    0.25999999    2.76999998
   16.53527641   89.95680237    0.25999999    2.76999998
   16.53861046   96.55850220    0.25999999    2.75000000
   16.54194450   90.80650330    0.25999999    2.76999998
   16.54500008   90.35880280    0.25000000    2.76999998
   16.54833221   90.52410126    0.25000000    2.76999998
   16.55138779   92.85359955    0.25000000    2.76999998
   16.55472183   93.18930054    0.25000000    2.75000000
   16.55777740   92.63400269    0.25999999    2.76999998
   16.56388855   92.63400269    0.25999999    2.76999998
   16.56805611   91.95179749    0.25999999    2.76999998
   16.57139015   95.07540131    0.25999999    2.76999998
   16.57444572   98.62640381    0.25999999    2.76999998
   16.57777786   88.11589813    0.28000000    2.76999998
   16.58083344   93.44110107    0.30000001    2.76999998
   16.58416748   90.08110046    0.30000001    2.75000000
   16.58722305   92.06749725    0.30000001    2.78999996
   16.59055710   92.95860291    0.28000000    2.76999998
   16.59361267   97.03790283    0.28000000    2.76999998
   16.59694481   95.51159668    0.28000000    2.76999998
   16.60027885   94.13849640    0.28000000    2.76999998
   16.60111237   95.81510162    0.28000000    2.76999998
   16.60694504   95.81510162    0.28000000    2.78999996
   16.61083412   89.35209656    0.28000000    2.76999998
   16.61416626   92.01190186    0.28000000    2.76999998
   16.61750031   89.75530243    0.28000000    2.76999998
   16.62055588   89.54370117    0.28000000    2.76999998
   16.62388992   93.96389771    0.25999999    2.76999998
   16.62694550   94.46859741    0.25999999    2.76999998
   16.63027763   89.50080109    0.25000000    2.76999998
   16.63333321   90.61029816    0.23000000    2.76999998
   16.63444519   87.32879639    0.25000000    2.76999998
   16.63694382   91.51149750    0.25000000    2.76999998
   16.64027786   94.11229706    0.25000000    2.78999996
   16.64361191   91.64980316    0.25000000    2.76999998
   16.64972115   91.64980316    0.25000000    2.76999998
   16.65388870   91.72100067    0.25000000    2.76999998
   16.65694427   91.28530121    0.25999999    2.76999998
   16.66027832   90.82499695    0.25999999    2.76999998
   16.66333389   94.40049744    0.25999999    2.76999998
   16.66666603   91.56929779    0.25999999    2.76999998
   16.66777802   91.11150360    0.25999999    2.76999998
   16.67000008   85.87229919    0.25999999    2.76999998
   16.67333221   88.82140350    0.25999999    2.76999998
   16.67666626   87.71369934    0.28000000    2.76999998
   16.67972183   88.26999664    0.28000000    2.76999998
   16.68305397   83.49810028    0.28000000    2.76999998
   16.68610954   89.82350159    0.28000000    2.76999998
   16.69249916   89.82350159    0.25999999    2.76999998
   16.69666672   88.75099945    0.25999999    2.76999998
   16.69972038   89.67710114    0.25999999    2.76999998
   16.70111275   86.95259857    0.28000000    2.76999998
   16.70333481   84.53489685    0.25999999    2.76999998
   16.70666695   90.56169891    0.25999999    2.76999998
   16.71000099   87.30370331    0.25999999    2.76999998
   16.71305656   87.04709625    0.25000000    2.76999998
   16.71638870   88.86470032    0.25000000    2.76999998
   16.71944427   84.71910095    0.25000000    2.76999998
   16.72277832   90.26159668    0.25000000    2.76999998
   16.72583389   91.30049896    0.25000000    2.76999998
   16.72916794   90.91300201    0.25000000    2.76999998
   16.73527718   90.91300201    0.23000000    2.76999998
   16.73944473   79.71219635    0.25000000    2.76999998
   16.74277878   82.66010284    0.23000000    2.76999998
   16.74583435   84.49050140    0.23000000    2.78999996
   16.74916649   85.37200165    0.23000000    2.78999996
   16.75222206   80.23960114    0.23000000    2.76999998
   16.75555611   82.75610352    0.25000000    2.76999998
   16.75888824   82.27950287    0.25000000    2.76999998
   16.76194382   85.16770172    0.25000000    2.78999996
   16.76527786   87.05210114    0.25000000    2.76999998
   16.76777840   83.31880188    0.25000000    2.76999998
   16.76888847   86.62899780    0.25000000    2.76999998
   16.77194405   89.67299652    0.25000000    2.76999998
   16.77805519   89.67299652    0.25000000    2.78999996
   16.78222275   84.44560242    0.25999999    2.76999998
   16.78555489   85.49569702    0.25999999    2.76999998
   16.78861046   84.99990082    0.25000000    2.76999998
   16.79194450   87.72139740    0.25999999    2.76999998
   16.79527664   84.11199951    0.25999999    2.76999998
   16.79833221   87.43119812    0.25999999    2.76999998
   16.80111122   85.14029694    0.25999999    2.76999998
   16.80222130   85.09649658    0.25999999    2.76999998
   16.80527687   88.40570068    0.25999999    2.76999998
   16.80861092   81.93869781    0.25000000    2.76999998
   16.81166649   82.30529785    0.25000000    2.76999998
   16.81499863   83.50839996    0.25999999    2.78999996
   16.82111168   83.50839996    0.25000000    2.76999998
   16.82527924   79.89929962    0.25000000    2.76999998
   16.82833481   79.77570343    0.25000000    2.76999998
   16.83166695   77.35050201    0.23000000    2.76999998
   16.83444595   84.56890106    0.23000000    2.76999998
   16.83500099   78.55210114    0.23000000    2.76999998
   16.83833313   84.88050079    0.20999999    2.76999998
   16.84166718   86.68060303    0.20999999    2.76999998
   16.84472275   81.77760315    0.20999999    2.76999998
   16.84805679   78.89550018    0.20999999    2.78999996
   16.85111237   78.68090057    0.20999999    2.78999996
   16.85444450   83.46829987    0.23000000    2.76999998
   16.85750008   78.09130096    0.23000000    2.78999996
   16.86388969   78.09130096    0.23000000    2.76999998
   16.86805534   81.14949799    0.23000000    2.76999998
   16.87111092   76.18750000    0.23000000    2.76999998
   16.87444496   78.97019958    0.25000000    2.76999998
   16.87750053   80.70890045    0.25999999    2.76999998
   16.88083267   78.38770294    0.25000000    2.76999998
   16.88416672   80.33699799    0.25000000    2.76999998
   16.88722229   76.97450256    0.25000000    2.76999998
   16.89055634   77.55229950    0.25000000    2.76999998
   16.89361191   77.90100098    0.25999999    2.76999998
   16.89694405   78.64369965    0.25000000    2.76999998
   16.89999962   81.44609833    0.25000000    2.76999998
   16.90111160   81.79599762    0.23000000    2.76999998
   16.92194366   81.79599762    0.23000000    2.76999998
   16.92611122   98.85240173    0.23000000    2.76999998
   16.92916679  104.50399780    0.23000000    2.76999998
   16.93249893   98.14939880    0.23000000    2.76999998
   16.93444443  102.51499939    0.23000000    2.76999998
   16.93610954  106.24600220    0.25000000    2.76999998
   16.93916512  103.16799927    0.25000000    2.76999998
   16.94249916   97.64610291    0.23000000    2.76999998
   16.94555473  106.05699921    0.25000000    2.76999998
   16.94888878  106.56600189    0.23000000    2.76999998
   16.95194435  101.02500153    0.23000000    2.76999998
   16.95527840  105.97299957    0.23000000    2.76999998
   16.95861244  105.94999695    0.25000000    2.78999996
   16.96472359  105.94999695    0.25000000    2.76999998
   16.96861076  100.51399994    0.25000000    2.76999998
   16.97194481   98.73400116    0.25000000    2.76999998
   16.97527885   97.98840332    0.23000000    2.76999998
   16.97833443  104.68699646    0.25000000    2.76999998
   16.98166656  103.19599915    0.25000000    2.76999998
   16.98472214  100.65499878    0.25000000    2.76999998
   16.98805618   95.21549988    0.25000000    2.76999998
   16.99111176  111.88400269    0.25999999    2.76999998
   16.99444389  105.98200226    0.25999999    2.76999998
   16.99777794  106.87100220    0.25999999    2.76999998
   17.00083351  106.58799744    0.25999999    2.76999998
   17.00138855  107.40100098    0.25999999    2.76999998
   17.00749969  107.40100098    0.25999999    2.76999998
   17.01166725  101.97599792    0.28000000    2.76999998
   17.01472282  110.38099670    0.28000000    2.76999998
   17.01805496  100.17900085    0.28000000    2.76999998
   17.02111053  107.53299713    0.30000001    2.76999998
   17.02444458  103.96199799    0.30000001    2.76999998
   17.02750015  111.05000305    0.28000000    2.76999998
   17.03083229  103.18499756    0.25999999    2.76999998
   17.03416634   99.88749695    0.30000001    2.76999998
   17.03472137  103.56600189    0.30000001    2.76999998
   17.03777695  100.21700287    0.31999999    2.75000000
   17.04083252  105.65499878    0.31999999    2.75000000
   17.04416656  110.38800049    0.30000001    2.76999998
   17.05027771  110.38800049    0.31999999    2.76999998
   17.05444336   96.90090179    0.31999999    2.76999998
   17.05749893  106.95700073    0.31999999    2.76999998
   17.06083298   99.03009796    0.31999999    2.76999998
   17.06416512  108.83499908    0.34000000    2.76999998
   17.06722260  104.40599823    0.34000000    2.76999998
   17.06805611  100.67500305    0.34000000    2.76999998
   17.07083511  108.80899811    0.38000000    2.76999998
   17.07389069  108.80699921    0.36000001    2.75000000
   17.07722282  104.15699768    0.36000001    2.76999998
   17.08027840  106.34500122    0.34000000    2.76999998
   17.08361244  102.11100006    0.31999999    2.75000000
   17.08694458  105.46499634    0.31999999    2.76999998
   17.09305573  105.46499634    0.31999999    2.76999998
   17.09722328  113.98300171    0.31999999    2.76999998
   17.10055542  110.51799774    0.31999999    2.76999998
   17.10138893  109.41899872    0.31999999    2.76999998
   17.10416794  107.03600311    0.31999999    2.76999998
   17.10722351  113.49700165    0.30000001    2.76999998
   17.11055565  116.54100037    0.31999999    2.75000000
   17.11361122  109.38200378    0.31999999    2.75000000
   17.11694527  106.88700104    0.30000001    2.76999998
   17.12027740  110.95899963    0.30000001    2.76999998
   17.12333298  107.75700378    0.30000001    2.76999998
   17.12666702  106.46199799    0.30000001    2.76999998
   17.12972260  109.17500305    0.31999999    2.76999998
   17.13611031  109.17500305    0.30000001    2.76999998
   17.13999939  107.00399780    0.30000001    2.76999998
   17.14333344  114.24099731    0.30000001    2.76999998
   17.14666748  108.76799774    0.30000001    2.76999998
   17.14972115  113.23699951    0.30000001    2.76999998
   17.15305519  117.02300262    0.28000000    2.76999998
   17.15611076  112.30000305    0.28000000    2.76999998
   17.15944481  112.29499817    0.28000000    2.78999996
   17.16250038  103.22299957    0.28000000    2.76999998
   17.16583252  107.78700256    0.28000000    2.76999998
   17.16805458  109.14600372    0.28000000    2.76999998
   17.16944313  113.23500061    0.28000000    2.76999998
   17.17249870  107.29599762    0.28000000    2.76999998
   17.17888832  107.29599762    0.28000000    2.76999998
   17.18305397  109.23999786    0.28000000    2.76999998
   17.18610954  111.58599854    0.28000000    2.76999998
   17.18944359  115.99400330    0.28000000    2.76999998
   17.19249916  107.80999756    0.28000000    2.76999998
   17.19583321  118.09100342    0.28000000    2.76999998
   17.19888878  113.09100342    0.28000000    2.76999998
   17.20138931  109.66600037    0.28000000    2.76999998
   17.20277786  112.25599670    0.28000000    2.76999998
   17.20583344  105.87899780    0.28000000    2.76999998
   17.20916748  111.33000183    0.30000001    2.76999998
   17.21222305  108.86199951    0.30000001    2.76999998
   17.21555710  113.32299805    0.30000001    2.76999998
   17.22166634  113.32299805    0.30000001    2.76999998
   17.22583389  102.22399902    0.30000001    2.76999998
   17.22888947  107.90299988    0.30000001    2.76999998
   17.23222351  100.73600006    0.30000001    2.76999998
   17.23472214  101.44799805    0.28000000    2.76999998
   17.23583412   99.29840088    0.28000000    2.76999998
   17.23888969  105.41100311    0.30000001    2.76999998
   17.24222183  108.01599884    0.30000001    2.76999998
   17.24527740  105.59400177    0.30000001    2.76999998
   17.24861145  104.26300049    0.30000001    2.76999998
   17.25194359  104.55500031    0.30000001    2.76999998
   17.25499916  105.86900330    0.30000001    2.76999998
   17.25833321  106.85299683    0.30000001    2.75000000
   17.26444435  106.85299683    0.31999999    2.76999998
   17.26861000  106.95999908    0.31999999    2.76999998
   17.27194405  111.73600006    0.31999999    2.76999998
   17.27499962  109.01100159    0.31999999    2.76999998
   17.27833366  101.24900055    0.31999999    2.76999998
   17.28138924  104.38899994    0.34000000    2.75000000
   17.28472137  102.92700195    0.34000000    2.75000000
   17.28805542  109.92099762    0.31999999    2.75000000
   17.29111099  102.98699951    0.31999999    2.76999998
   17.29444313  105.01300049    0.28000000    2.75000000
   17.29749870   99.03130341    0.28000000    2.76999998
   17.30083275  110.09300232    0.28000000    2.76999998
   17.30138779  103.66100311    0.25999999    2.76999998
   17.30749893  103.66100311    0.25999999    2.76999998
   17.31138802  109.22699738    0.25999999    2.75000000
   17.31472206  114.02600098    0.25999999    2.75000000
   17.31805611  108.94699860    0.25999999    2.75000000
   17.32111168  103.32099915    0.25999999    2.76999998
   17.32444572  106.92800140    0.25999999    2.75000000
   17.32750130  110.21299744    0.25999999    2.75000000
   17.33083344  106.21299744    0.25999999    2.75000000
   17.33388901  109.05500031    0.25999999    2.76999998
   17.33472252  109.66400146    0.25999999    2.76999998
   17.33750153  108.14800262    0.25999999    2.76999998
   17.34083366  107.62400055    0.25999999    2.76999998
   17.34388924  108.50000000    0.25999999    2.76999998
   17.35027885  108.50000000    0.28000000    2.76999998
   17.35444450  109.99400330    0.25999999    2.76999998
   17.35750008  104.51999664    0.28000000    2.76999998
   17.36083412  103.48000336    0.28000000    2.76999998
   17.36388969   99.16780090    0.28000000    2.76999998
   17.36722183   99.95880127    0.28000000    2.76999998
   17.36805534  104.91999817    0.28000000    2.76999998
   17.37083435   97.05699921    0.28000000    2.76999998
   17.37416649  105.35299683    0.28000000    2.75000000
   17.37722206   99.21790314    0.28000000    2.75000000
   17.38055611  110.70500183    0.28000000    2.76999998
   17.38361168   99.99369812    0.28000000    2.75000000
   17.38694382  102.27400208    0.28000000    2.75000000
   17.39305496  102.27400208    0.25999999    2.76999998
   17.39722252  104.00000000    0.25999999    2.76999998
   17.40055466  106.23100281    0.25999999    2.76999998
   17.40138817  105.83799744    0.25999999    2.76999998
   17.40416718   99.93460083    0.25999999    2.76999998
   17.40749931  101.19899750    0.25999999    2.76999998
   17.41055489  104.38200378    0.25999999    2.76999998
   17.41388893  103.24299622    0.25999999    2.76999998
   17.41694450   97.19879913    0.25999999    2.76999998
   17.42027664   98.60590363    0.28000000    2.76999998
   17.42361069   99.61270142    0.28000000    2.76999998
   17.42666626   99.06639862    0.28000000    2.76999998
   17.43000031   99.50869751    0.28000000    2.76999998
   17.43583298   99.50869751    0.28000000    2.76999998
   17.43999863  103.20500183    0.28000000    2.76999998
   17.44333267  103.39199829    0.28000000    2.76999998
   17.44638824  104.64299774    0.28000000    2.75000000
   17.44972038  102.45999908    0.30000001    2.75000000
   17.45277786  105.92400360    0.30000001    2.76999998
   17.45611191  108.31099701    0.28000000    2.76999998
   17.45944595  105.27700043    0.30000001    2.76999998
   17.46250153  104.31099701    0.30000001    2.75000000
   17.46583366  107.93099976    0.30000001    2.75000000
   17.46805573  103.49700165    0.30000001    2.76999998
   17.46944427  105.28299713    0.30000001    2.75000000
   17.47277832  103.14099884    0.30000001    2.76999998
   17.47888947  103.14099884    0.30000001    2.76999998
   17.48277855  100.91000366    0.30000001    2.76999998
   17.48611069  106.67299652    0.30000001    2.76999998
   17.48944473  108.75199890    0.30000001    2.76999998
   17.49250031  100.81999969    0.31999999    2.75000000
   17.49583435  100.12999725    0.31999999    2.75000000
   17.49888992  101.06900024    0.31999999    2.76999998
   17.50138855  104.88600159    0.31999999    2.75000000
   17.50250053  104.63400269    0.31999999    2.75000000
   17.50583267  103.69100189    0.31999999    2.76999998
   17.50888824  100.87400055    0.31999999    2.75000000
   17.51222229   98.22440338    0.31999999    2.75000000
   17.51527786  101.86399841    0.34000000    2.76999998
   17.52166557  101.86399841    0.36000001    2.76999998
   17.52583313  103.99700165    0.38000000    2.75000000
   17.52888870  100.15399933    0.38000000    2.76999998
   17.53222275   92.42669678    0.38000000    2.75000000
   17.53472137   94.79740143    0.38000000    2.75000000
   17.53583336   95.38469696    0.40000001    2.76999998
   17.53916550   98.19339752    0.40000001    2.75000000
   17.54222107   97.47019958    0.40000001    2.75000000
   17.54555511   98.47139740    0.40000001    2.75000000
   17.54861069  102.70600128    0.40000001    2.75000000
   17.55194283   97.44339752    0.40000001    2.76999998
   17.55499840   98.23480225    0.40000001    2.76999998
   17.55833244   97.55380249    0.41999999    2.75000000
   17.56444359   97.55380249    0.40000001    2.75000000
   17.56861115   93.28399658    0.40000001    2.75000000
   17.57194519   96.59889984    0.38000000    2.75000000
   17.57500076   93.70839691    0.38000000    2.75000000
   17.57833481   95.83630371    0.38000000    2.75000000
   17.58139038   95.35009766    0.38000000    2.75000000
   17.58472252   97.83090210    0.36000001    2.76999998
   17.58805656   96.68530273    0.36000001    2.75000000
   17.59111214   97.41110229    0.36000001    2.75000000
   17.59444427   99.74919891    0.36000001    2.75000000
   17.59749985   96.82820129    0.36000001    2.76999998
   17.60083389   95.55429840    0.34000000    2.76999998
   17.60166740   97.06880188    0.34000000    2.75000000
   17.60722351   97.06880188    0.36000001    2.75000000
   17.61138916   95.60009766    0.40000001    2.75000000
   17.61472321   87.37000275    0.38000000    2.75000000
   17.61777878   93.19879913    0.40000001    2.75000000
   17.62111092   96.53880310    0.40000001    2.75000000
   17.62416649   94.65339661    0.40000001    2.75000000
   17.62750053   96.42269897    0.40000001    2.75000000
   17.63083267   90.59770203    0.40000001    2.75000000
   17.63388824   97.87449646    0.40000001    2.75000000
   17.63500023  100.13200378    0.40000001    2.75000000
   17.63750076   93.38659668    0.40000001    2.75000000
   17.64083290  102.73799896    0.40000001    2.75000000
   17.64388847   94.96420288    0.40000001    2.75000000
   17.65027809   94.96420288    0.40000001    2.75000000
   17.65416718   98.15910339    0.36000001    2.75000000
   17.65749931   91.34410095    0.36000001    2.75000000
   17.66055489   93.25700378    0.36000001    2.76999998
   17.66388893   90.89610291    0.36000001    2.75000000
   17.66722107   98.96569824    0.36000001    2.76999998
   17.66833305   93.18620300    0.36000001    2.76999998
   17.67083359   92.40110016    0.36000001    2.76999998
   17.67416573   91.39469910    0.36000001    2.76999998
   17.67722130  101.13899994    0.34000000    2.75000000
   17.68055534  102.10099792    0.36000001    2.76999998
   17.68361092   93.21869659    0.36000001    2.75000000
   17.68694305   99.39969635    0.36000001    2.75000000
   17.69305420   99.39969635    0.36000001    2.76999998
   17.69722176   96.66870117    0.31999999    2.75000000
   17.70027924   92.37380219    0.31999999    2.75000000
   17.70166779   91.31109619    0.31999999    2.75000000
   17.70388985   90.92549896    0.31999999    2.75000000
   17.70722389   99.05200195    0.30000001    2.75000000
   17.71027946   96.92169952    0.30000001    2.75000000
   17.71361160   97.08129883    0.30000001    2.75000000
   17.71666718   93.57070160    0.31999999    2.75000000
   17.72000122   98.99710083    0.31999999    2.75000000
   17.72333336   89.82920074    0.31999999    2.75000000
   17.72638893   93.15779877    0.31999999    2.76999998
   17.72972298   89.61630249    0.30000001    2.75000000
   17.73583412   89.61630249    0.28000000    2.76999998
   17.73999977   94.93890381    0.28000000    2.75000000
   17.74305534   94.13069916    0.28000000    2.75000000
   17.74638939   95.05549622    0.30000001    2.75000000
   17.74972153   87.65329742    0.30000001    2.75000000
   17.75277710   85.04620361    0.40000001    2.75000000
   17.75611115   83.97450256    0.40000001    2.75000000
   17.75916672   96.27069855    0.41999999    2.75000000
   17.76250076   96.48809814    0.44000000    2.75000000
   17.76583290   94.56670380    0.44000000    2.75000000
   17.76833344   93.13870239    0.44000000    2.75000000
   17.76916695   95.42240143    0.44000000    2.75000000
   17.77249908   96.32060242    0.44000000    2.75000000
   17.77861023   96.32060242    0.44000000    2.75000000
   17.78277779   87.66439819    0.41999999    2.75000000
   17.78610992   92.83950043    0.40000001    2.75000000
   17.78916550   92.06430054    0.40000001    2.75000000
   17.79249954   91.31620026    0.44000000    2.76999998
   17.79555511   92.26139832    0.41999999    2.75000000
   17.79888916   95.13800049    0.40000001    2.75000000
   17.80166626   93.04250336    0.40000001    2.75000000
   17.80249977   85.19719696    0.40000001    2.75000000
   17.80583191   99.18650055    0.40000001    2.75000000
   17.80888748   94.75109863    0.40000001    2.75000000
   17.81222153  106.32199860    0.44000000    2.75000000
   17.81527710   97.42160034    0.46000001    2.75000000
   17.82166672   97.42160034    0.50000000    2.75000000
   17.82555580   94.22360229    0.50000000    2.75000000
   17.82888985   92.60939789    0.47999999    2.75000000
   17.83194542   90.11479950    0.46000001    2.75000000
   17.83500099   88.77989960    0.46000001    2.75000000
   17.83555603   89.59230042    0.47999999    2.75000000
   17.83889008   94.20320129    0.55000001    2.75000000
   17.84222221   91.90589905    0.50000000    2.75000000
   17.84527779   89.63809967    0.51999998    2.75000000
   17.84861183   87.14730072    0.51999998    2.75000000
   17.85166740   88.64440155    0.51999998    2.75000000
   17.85499954   90.47920227    0.51999998    2.75000000
   17.85805511   87.45259857    0.55000001    2.75000000
   17.86444473   87.45259857    0.55000001    2.75000000
   17.86861038   78.34700012    0.56999999    2.75000000
   17.87166595   86.70520020    0.55000001    2.75000000
   17.87500000   87.61550140    0.55000001    2.75000000
   17.87805557   95.99960327    0.55000001    2.75000000
   17.88138962   91.91010284    0.55000001    2.75000000
   17.88444519   88.31259918    0.55000001    2.75000000
   17.88777733   88.38500214    0.61000001    2.75000000
   17.89111137   91.86129761    0.61000001    2.75000000
   17.89416695   86.51470184    0.69000000    2.75000000
   17.89749908   88.86160278    0.70999998    2.75000000
   17.90055466   91.81739807    0.70999998    2.75000000
   17.90166664   89.87830353    0.73000002    2.75000000
   17.90722275   89.87830353    0.67000002    2.75000000
   17.91138840   88.41539764    0.63000000    2.75000000
   17.91444397   90.68800354    0.61000001    2.75000000
   17.91777802   89.79650116    0.56999999    2.75000000
   17.93555450   94.41889954    0.47999999    2.75000000
   17.93750000   97.84819794    0.46000001    2.75000000
   17.94083214   95.83769989    0.46000001    2.75000000
   17.94388771   97.20159912    0.44000000    2.75000000
   17.95027924   97.20159912    0.44000000    2.75000000
   17.95444489   95.24729919    0.44000000    2.75000000
   17.95750046   93.46029663    0.40000001    2.75000000
   17.96083450   97.87159729    0.38000000    2.75000000
   17.96389008   96.09860229    0.38000000    2.75000000
   17.96722221   86.61779785    0.36000001    2.76999998
   17.96861076   99.19360352    0.36000001    2.75000000
   17.97083473   90.74369812    0.36000001    2.75000000
   17.97389030   94.51750183    0.34000000    2.75000000
   17.97722244   99.76080322    0.38000000    2.75000000
   17.98055649   95.57710266    0.44000000    2.75000000
   17.98361206   98.85330200    0.40000001    2.75000000
   17.98694420   91.58249664    0.44000000    2.75000000
   17.99305534   91.58249664    0.47999999    2.75000000
   17.99722290   93.72039795    0.41999999    2.75000000
   18.00055504   93.95149994    0.41999999    2.75000000
   18.00194359   95.88009644    0.36000001    2.75000000
   18.00416756   73.68199921    0.34000000    2.76999998
   18.00722313   94.84089661    0.36000001    2.75000000
   18.01055527   97.58049774    0.34000000    2.75000000
   18.01388931   91.68019867    0.38000000    2.75000000
   18.01694489   89.45559692    0.36000001    2.75000000
   18.02027702   95.55220032    0.36000001    2.75000000
   18.02333260   93.90419769    0.40000001    2.75000000
   18.02666664   90.63439941    0.40000001    2.75000000
   18.02972221   93.13719940    0.52999997    2.75000000
   18.03583336   93.13719940    0.51999998    2.75000000
   18.03999901   98.88200378    0.56999999    2.75000000
   18.04333305   89.76899719    0.50000000    2.75000000
   18.04638863   89.02729797    0.70999998    2.75000000
   18.04972076   92.64800262    0.70999998    2.75000000
   18.05277634   97.65529633    0.88000000    2.75000000
   18.05611038  101.00599670    0.69000000    2.75000000
   18.05944443   95.98470306    0.41999999    2.75000000
   18.06250000   88.58750153    0.55000001    2.75000000
   18.06583214   93.94339752    0.55000001    2.75000000
   18.06861115   98.27580261    0.61000001    2.75000000
   18.06944466   95.53990173    0.52999997    2.75000000
   18.07250023   91.25830078    0.44000000    2.75000000
   18.07888985   91.25830078    0.38000000    2.75000000
   18.08277893   87.77249908    0.40000001    2.75000000
   18.08611107   90.62229919    0.41999999    2.75000000
   18.08944511   89.75180054    0.46000001    2.75000000
   18.09250069   93.05349731    0.47999999    2.75000000
   18.09583473   98.67330170    0.47999999    2.75000000
   18.09889030   91.81040192    0.58999997    2.75000000
   18.10194397   94.14089966    0.69000000    2.75000000
   18.10250092  106.79399872    0.69000000    2.75000000
   18.10583305   96.86720276    0.70999998    2.75000000
   18.10888863   91.84459686    0.70999998    2.75000000
   18.11222267   93.19840240    0.69000000    2.75000000
   18.11527824   94.53589630    0.70999998    2.75000000
   18.12166595   94.53589630    0.58999997    2.75000000
   18.12583351   87.77860260    0.51999998    2.75000000
   18.12888908   89.76740265    0.44000000    2.75000000
   18.13222313   90.61519623    0.47999999    2.73000002
   18.13527679   95.50080109    0.47999999    2.73000002
   18.13583374   93.32869720    0.47999999    2.73000002
   18.13888931   97.76689911    0.58999997    2.75000000
   18.14222145   92.14260101    1.07000005    2.75000000
   18.14555550   94.01360321    1.25000000    2.73000002
   18.14861107   95.16870117    1.25000000    2.73000002
   18.15194321   96.21150208    1.13000000    2.73000002
   18.15499878   84.56140137    1.14999998    2.75000000
   18.15833282   96.30030060    1.19000006    2.73000002
   18.16444397   96.30030060    1.26999998    2.73000002
   18.16860962   86.93039703    1.13000000    2.75000000
   18.16916656   92.13189697    1.05999994    2.75000000
   18.17222214   96.50859833    0.83999997    2.75000000
   18.17555428   93.96520233    0.76999998    2.75000000
   18.17888832   92.34559631    0.69000000    2.75000000
   18.18194389   94.08399963    0.69000000    2.75000000
   18.18527603   95.73310089    0.69000000    2.75000000
   18.18833160   97.30310059    0.70999998    2.75000000
   18.19166565   99.49349976    0.76999998    2.75000000
   18.19499969   99.17079926    0.88000000    2.73000002
   18.19805527  106.71700287    0.79000002    2.75000000
   18.20138931   92.22219849    0.79000002    2.75000000
   18.20250130   95.07360077    0.70999998    2.75000000
   18.20722389   95.07360077    0.63000000    2.75000000
   18.21138954   97.29010010    0.52999997    2.75000000
   18.21472359   94.57749939    0.50000000    2.75000000
   18.21777916   95.46109772    0.56999999    2.73000002
   18.22111130   98.97160339    0.58999997    2.73000002
   18.22444534   94.68160248    0.61000001    2.73000002
   18.22750092   98.83850098    0.63000000    2.75000000
   18.23083305  103.22200012    0.64999998    2.75000000
   18.23388863   82.87169647    0.67000002    2.73000002
   18.23583412   91.82839966    0.67000002    2.75000000
   18.23750114   94.06649780    0.69000000    2.75000000
   18.24083328   96.15049744    0.67000002    2.75000000
   18.24416733   96.48709869    0.61000001    2.75000000
   18.25027847   96.48709869    0.56999999    2.75000000
   18.25416756   94.77089691    0.56999999    2.73000002
   18.25749969   92.20760345    0.56999999    2.73000002
   18.26083374   93.71759796    0.58999997    2.75000000
   18.26388931  103.10199738    0.58999997    2.73000002
   18.26722145   93.71040344    0.56999999    2.75000000
   18.26916695   95.24490356    0.56999999    2.75000000
   18.27083397   91.65869904    0.52999997    2.75000000
   18.27388954   94.20850372    0.47999999    2.75000000
   18.27722168   93.68389893    0.47999999    2.75000000
   18.28027725   97.90989685    0.44000000    2.75000000
   18.28361130  102.02400208    0.38000000    2.75000000
   18.28666687  103.66899872    0.46000001    2.75000000
   18.29305458  103.66899872    0.51999998    2.73000002
   18.29722214   95.61080170    0.46000001    2.73000002
   18.30027771   96.20719910    0.41999999    2.75000000
   18.30249977   97.32430267    0.38000000    2.73000002
   18.30416679   97.85530090    0.36000001    2.75000000
   18.30722237   99.75589752    0.31999999    2.75000000
   18.31055450   94.34030151    0.31999999    2.75000000
   18.31361008   98.68219757    0.25999999    2.75000000
   18.31694603   92.49040222    0.25999999    2.75000000
   18.32000160   97.52320099    0.25999999    2.75000000
   18.32333374   94.51930237    0.25000000    2.75000000
   18.32638931  100.72899628    0.25000000    2.75000000
   18.32972336   97.02680206    0.25999999    2.75000000
   18.33583450   97.02680206    0.25999999    2.75000000
   18.34000015   93.55090332    0.28000000    2.75000000
   18.34305573   93.40209961    0.31999999    2.75000000
   18.34638977   88.98819733    0.31999999    2.75000000
   18.34972191   95.86550140    0.31999999    2.75000000
   18.35277748   96.17230225    0.34000000    2.75000000
   18.35611153   93.44899750    0.31999999    2.75000000
   18.35916710   96.15249634    0.31999999    2.75000000
   18.36250114   95.43959808    0.34000000    2.73000002
   18.36555672   93.39559937    0.31999999    2.73000002
   18.36888885   83.65709686    0.38000000    2.73000002
   18.36944389   81.67350006    0.38000000    2.73000002
   18.37277794   92.46779633    0.40000001    2.75000000
   18.37861061   92.46779633    0.41999999    2.73000002
   18.38277817   87.51550293    0.41999999    2.73000002
   18.38611031   86.37079620    0.44000000    2.73000002
   18.38916588   91.92220306    0.50000000    2.75000000
   18.39249992   93.48449707    0.47999999    2.75000000
   18.39555550   89.67569733    0.50000000    2.73000002
   18.39888954   89.27249908    0.47999999    2.73000002
   18.40222168   96.82820129    0.47999999    2.73000002
   18.40277672   94.54779816    0.47999999    2.73000002
   18.40583229   92.49659729    0.47999999    2.73000002
   18.40888786   94.97599792    0.50000000    2.73000002
   18.41222191   98.39119720    0.51999998    2.73000002
   18.41527748   95.92209625    0.51999998    2.73000002
   18.42166519   95.92209625    0.47999999    2.73000002
   18.42555428   98.55570221    0.55000001    2.75000000
   18.42888832   96.49359894    0.61000001    2.75000000
   18.43222237   92.82730103    0.58999997    2.73000002
   18.43527603   92.19840240    0.58999997    2.73000002
   18.43610954   92.52539825    0.58999997    2.73000002
   18.43916512   87.72380066    0.51999998    2.75000000
   18.44222069   97.48410034    0.61000001    2.73000002
   18.44555473   92.11009979    0.56999999    2.73000002
   18.44861031   93.21720123    0.63000000    2.73000002
   18.45194435   94.55599976    0.61000001    2.75000000
   18.45499992   93.82510376    0.58999997    2.75000000
   18.45833397   90.34510040    0.61000001    2.75000000
   18.46444511   90.34510040    0.52999997    2.75000000
   18.46861076   97.09449768    0.40000001    2.75000000
   18.46944427  104.30599976    0.40000001    2.73000002
   18.47222328   95.16130066    0.38000000    2.73000002
   18.47527885   89.72550201    0.38000000    2.73000002
   18.47861099   90.63510132    0.38000000    2.73000002
   18.48166656   97.36949921    0.47999999    2.73000002
   18.48500061   93.31880188    0.46000001    2.75000000
   18.48805618   82.74510193    0.46000001    2.75000000
   18.49138832   91.39880371    0.51999998    2.73000002
   18.49472237   90.72650146    0.38000000    2.73000002
   18.49777794   89.90229797    0.38000000    2.73000002
   18.50111198   97.09310150    0.56999999    2.73000002
   18.50277710   92.11930084    0.56999999    2.73000002
   18.50722313   92.11930084    0.38000000    2.73000002
   18.51138878   93.54280090    0.41999999    2.73000002
   18.51472282   94.18900299    0.41999999    2.73000002
   18.51777840   89.58360291    0.44000000    2.73000002
   18.52111053   92.19709778    0.61000001    2.73000002
   18.52416611   90.15910339    0.58999997    2.73000002
   18.52750015   90.14360046    0.58999997    2.73000002
   18.53083229   91.36260223    0.58999997    2.75000000
   18.53388786   88.37319946    0.58999997    2.73000002
   18.53610992   93.54280090    0.58999997    2.73000002
   18.53777695   89.86669922    0.58999997    2.73000002
   18.54083252   93.37539673    0.40000001    2.73000002
   18.54416656   88.78019714    0.38000000    2.73000002
   18.54999924   88.78019714    0.40000001    2.73000002
   18.55416679   93.04730225    0.44000000    2.75000000
   18.55749893   90.37180328    0.46000001    2.73000002
   18.56055450   94.31150055    0.40000001    2.73000002
   18.56388855   92.52559662    0.40000001    2.73000002
   18.56694603   88.87979889    0.38000000    2.73000002
   18.56944466   99.57820129    0.44000000    2.73000002
   18.57083511   94.55290222    0.40000001    2.73000002
   18.57389069   86.24839783    0.46000001    2.73000002
   18.57722282   91.33439636    0.46000001    2.73000002
   18.58027840   90.42489624    0.46000001    2.73000002
   18.58361244   92.18520355    0.47999999    2.73000002
   18.58694458   92.57980347    0.50000000    2.73000002
   18.59305573   92.57980347    0.56999999    2.73000002
   18.59694481   92.84089661    0.56999999    2.73000002
   18.60027885   95.90339661    0.61000001    2.73000002
   18.60277748   98.05789948    0.67000002    2.73000002
   18.60388947   98.81729889    0.67000002    2.73000002
   18.60694504   92.40840149    0.56999999    2.73000002
   18.61027908   97.11759949    0.52999997    2.73000002
   18.61333466   91.10910034    0.50000000    2.73000002
   18.61666679   95.22470093    0.50000000    2.73000002
   18.62000084   98.90589905    0.46000001    2.73000002
   18.62305641   88.27839661    0.40000001    2.73000002
   18.62638855   94.83670044    0.41999999    2.73000002
   18.62944412   96.96260071    0.47999999    2.73000002
   18.63583374   96.96260071    0.51999998    2.73000002
   18.63999939   92.96099854    0.55000001    2.73000002
   18.64305496   90.90229797    0.56999999    2.73000002
   18.64638901   93.85610199    0.55000001    2.73000002
   18.64944458   95.55940247    0.52999997    2.73000002
   18.65277672   92.10430145    0.52999997    2.73000002
   18.65611076   95.12779999    0.55000001    2.71000004
   18.65916634   98.36170197    0.51999998    2.73000002
   18.66250038   95.80010223    0.50000000    2.73000002
   18.66555595   95.35890198    0.50000000    2.73000002
   18.66888809   92.91970062    0.47999999    2.73000002
   18.67083359   95.87539673    0.47999999    2.73000002
   18.67249870   91.11170197    0.47999999    2.73000002
   18.67860985   91.11170197    0.41999999    2.73000002
   18.68277740   94.90869904    0.44000000    2.73000002
   18.68610954   92.05120087    0.41999999    2.73000002
   18.68916512   97.42910004    0.41999999    2.73000002
   18.69249916   99.52850342    0.40000001    2.73000002
   18.69555473   97.48840332    0.50000000    2.73000002
   18.69888878   97.33450317    0.58999997    2.73000002
   18.70194435   97.81929779    0.58999997    2.73000002
   18.70416832  100.93299866    0.75000000    2.73000002
   18.70583344   96.69360352    0.81999999    2.71000004
   18.70888901   95.80570221    0.73000002    2.71000004
   18.71222305   95.94840240    0.63000000    2.71000004
   18.71527863   96.26930237    0.67000002    2.71000004
   18.72138977   96.26930237    0.55000001    2.71000004
   18.72555542  100.76999664    0.44000000    2.73000002
   18.72888947   94.45939636    0.41999999    2.73000002
   18.73194504   91.24700165    0.41999999    2.73000002
   18.73527718   96.96029663    0.36000001    2.71000004
   18.73777771   94.42559814    0.36000001    2.73000002
   18.73861122   98.44210052    0.31999999    2.73000002
   18.74194527   93.31739807    0.30000001    2.73000002
   18.74500084   85.35510254    0.30000001    2.71000004
   18.74833298   97.04989624    0.30000001    2.71000004
   18.75166702   92.59120178    0.34000000    2.73000002
   18.75472260   87.82659912    0.34000000    2.73000002
   18.75805473   95.04440308    0.34000000    2.71000004
   18.76444435   95.04440308    0.34000000    2.73000002
   18.76833344   94.65010071    0.31999999    2.71000004
   18.77111053   88.39489746    0.34000000    2.71000004
   18.77194405   91.84510040    0.34000000    2.71000004
   18.77527809   85.39610291    0.46000001    2.71000004
   18.77861023   94.35639954    0.44000000    2.71000004
   18.78166580   83.12370300    0.44000000    2.71000004
   18.78499985   93.59660339    0.46000001    2.71000004
   18.78805542  100.85299683    0.40000001    2.71000004
   18.79138756   91.70339966    0.36000001    2.71000004
   18.79444313   91.30879974    0.34000000    2.71000004
   18.79777718   91.55960083    0.31999999    2.73000002
   18.80083275   99.65350342    0.30000001    2.71000004
   18.80722237   99.65350342    0.28000000    2.71000004
   18.81138802   95.25910187    0.28000000    2.71000004
   18.81444359   91.99520111    0.25999999    2.73000002
   18.81777954   91.19409943    0.25999999    2.71000004
   18.82083511   84.32820129    0.30000001    2.71000004
   18.82416725   85.61810303    0.30000001    2.71000004
   18.82722282   80.61129761    0.31999999    2.71000004
   18.83055687   93.29910278    0.34000000    2.71000004
   18.83388901   89.55290222    0.34000000    2.71000004
   18.83694458   81.15390015    0.36000001    2.71000004
   18.83805656   89.45639801    0.38000000    2.71000004
   18.84055710   90.68470001    0.38000000    2.71000004
   18.84361267   93.40730286    0.44000000    2.71000004
   18.85000038   93.40730286    0.47999999    2.71000004
   18.85416794   93.96569824    0.47999999    2.71000004
   18.85750008   93.53479767    0.47999999    2.71000004
   18.86055565   96.27050018    0.47999999    2.69000006
   18.86388969   95.44180298    0.47999999    2.69000006
   18.86694527   97.32369995    0.46000001    2.71000004
   18.87027740   93.21810150    0.41999999    2.71000004
   18.87138939   97.73310089    0.44000000    2.71000004
   18.87388992   95.73310089    0.41999999    2.71000004
   18.87694550   97.55249786    0.36000001    2.71000004
   18.88027763   99.14589691    0.36000001    2.71000004
   18.88333321   97.26540375    0.34000000    2.71000004
   18.88666725   94.07060242    0.36000001    2.71000004
   18.89277840   94.07060242    0.38000000    2.71000004
   18.89694405   96.47760010    0.40000001    2.71000004
   18.90027809   97.06900024    0.41999999    2.71000004
   18.90333366   93.59320068    0.41999999    2.71000004
   18.90499878   94.10829926    0.41999999    2.71000004
   18.90694427   95.71150208    0.44000000    2.71000004
   18.91027832   96.53690338    0.44000000    2.71000004
   18.91361046   92.96009827    0.50000000    2.71000004
   18.91666603  100.20500183    0.55000001    2.71000004
   18.92000008   96.97109985    0.55000001    2.69000006
   18.92305565   95.89330292    0.55000001    2.71000004
   18.92638779   92.26660156    0.55000001    2.71000004
   18.92944336   97.29959869    0.51999998    2.71000004
   18.93583298   97.29959869    0.38000000    2.69000006
   18.95416832   95.59169769    0.52999997    2.69000006
   18.95722389   91.24449921    0.51999998    2.71000004
   18.96055603   95.02249908    0.52999997    2.71000004
   18.96389008  102.07099915    0.47999999    2.71000004
   18.96694565   95.47389984    0.50000000    2.71000004
   18.97027779   89.03469849    0.47999999    2.71000004
   18.97333336   95.92539978    0.51999998    2.71000004
   18.97888947   95.92539978    0.51999998    2.69000006
   18.98305511   91.81050110    0.51999998    2.71000004
   18.98611069   99.60590363    0.52999997    2.69000006
   18.98722267   95.35289764    0.52999997    2.71000004
   18.98972321   89.38539886    0.51999998    2.69000006
   18.99305534   93.45520020    0.52999997    2.69000006
   18.99638939   89.37439728    0.51999998    2.69000006
   18.99944496   92.94629669    0.51999998    2.69000006
   19.00277710   87.05130005    0.47999999    2.69000006
   19.00583267   99.46959686    0.41999999    2.69000006
   19.00916672   90.60099792    0.44000000    2.69000006
   19.01222229   90.07369995    0.44000000    2.69000006
   19.01555634   94.42520142    0.41999999    2.69000006
   19.02166557   94.42520142    0.44000000    2.71000004
   19.02583313   95.87049866    0.46000001    2.71000004
   19.02888870   91.11869812    0.51999998    2.69000006
   19.03222275   98.83309937    0.58999997    2.69000006
   19.03555489   94.89230347    0.75000000    2.69000006
   19.03861046  102.61199951    0.79000002    2.71000004
   19.04194450   94.26029968    0.75000000    2.71000004
   19.04500008   86.23149872    0.70999998    2.71000004
   19.04833221   92.14749908    0.69000000    2.69000006
   19.05138779   94.72760010    0.69000000    2.69000006
   19.05388832   96.11000061    0.64999998    2.69000006
   19.05499840   88.62090302    0.64999998    2.69000006
   19.05833244   93.77829742    0.63000000    2.69000006
   19.06444359   93.77829742    0.75000000    2.69000006
   19.06861115   96.11820221    0.79000002    2.69000006
   19.07194519   92.87129974    0.83999997    2.69000006
   19.07500076   96.70379639    0.89999998    2.69000006
   19.07833481   97.29589844    0.88000000    2.69000006
   19.08139038   95.35910034    0.88000000    2.69000006
   19.08472252   94.04170227    0.86000001    2.69000006
   19.08722305   95.84790039    0.88000000    2.69000006
   19.08805656   92.43579865    0.88000000    2.69000006
   19.09138870   91.10119629    0.89999998    2.69000006
   19.09472275   92.77069855    0.95999998    2.69000006
   19.09777832   90.09619904    0.98000002    2.69000006
   19.10111237   92.51560211    0.94000000    2.69000006
   19.10750008   92.51560211    0.88000000    2.69000006
   19.11138916   91.32070160    0.75000000    2.69000006
   19.11472321   91.35700226    0.75000000    2.69000006
   19.11777878   92.46479797    0.70999998    2.69000006
   19.12055588   95.25199890    0.73000002    2.69000006
   19.12166595   91.96269989    0.70999998    2.69000006
   19.12472153   93.78959656    0.73000002    2.69000006
   19.12805557   97.71269989    0.69000000    2.69000006
   19.13111115   91.67089844    0.69000000    2.67000008
   19.13444519   87.75550079    0.67000002    2.69000006
   19.13750076   94.03220367    0.67000002    2.69000006
   19.14083290   92.18720245    0.75000000    2.69000006
   19.14416695   87.98010254    0.83999997    2.69000006
   19.15027809   87.98010254    0.81999999    2.69000006
   19.15444374   89.17769623    0.80000001    2.69000006
   19.15749931   92.06929779    0.76999998    2.69000006
   19.16083336  100.48400116    0.79000002    2.69000006
   19.16388893   91.64990234    0.79000002    2.69000006
   19.16722107   88.05329895    0.80000001    2.69000006
   19.17027664   94.80709839    0.80000001    2.69000006
   19.17361069   93.88849640    0.80000001    2.69000006
   19.17694473   76.62020111    0.67000002    2.69000006
   19.18000031   89.35620117    0.63000000    2.69000006
   19.18333244   92.82089996    0.61000001    2.69000006
   19.18638802   90.56330109    0.61000001    2.69000006
   19.18722153   92.60030365    0.58999997    2.69000006
   19.19305420   92.60030365    0.61000001    2.69000006
   19.19722176   93.05860138    0.56999999    2.69000006
   19.20027924   85.97560120    0.55000001    2.69000006
   19.20361137   94.41660309    0.56999999    2.69000006
   19.20694542   92.49349976    0.56999999    2.69000006
   19.21000099   92.79019928    0.63000000    2.69000006
   19.21333504   93.77230072    0.63000000    2.69000006
   19.21638870   92.62760162    0.61000001    2.69000006
   19.21972275   93.14240265    0.63000000    2.69000006
   19.22055626   96.15329742    0.64999998    2.69000006
   19.22333336   89.96669769    0.64999998    2.69000006
   19.22638893   92.38919830    0.95999998    2.67000008
   19.22972298   95.14959717    1.05999994    2.67000008
   19.23583412   95.14959717    0.86000001    2.69000006
   19.23999977   91.29460144    0.67000002    2.69000006
   19.24333382   91.87950134    0.52999997    2.69000006
   19.24638939   93.25289917    0.56999999    2.69000006
   19.24972153   90.15440369    0.50000000    2.67000008
   19.25277710   86.13960266    0.50000000    2.67000008
   19.25388908   96.10009766    0.50000000    2.67000008
   19.25666618   90.75959778    0.47999999    2.69000006
   19.25972176   90.60790253    0.50000000    2.67000008
   19.26305580   88.54129791    0.41999999    2.69000006
   19.26611137   89.84329987    0.44000000    2.67000008
   19.26944351   95.12560272    0.44000000    2.67000008
   19.27249908   89.37300110    0.47999999    2.67000008
   19.27888870   89.37300110    0.38000000    2.67000008
   19.28277779   80.16280365    0.40000001    2.67000008
   19.28610992   94.73290253    0.41999999    2.67000008
   19.28722191   91.96099854    0.41999999    2.67000008
   19.28972244   95.87310028    0.40000001    2.69000006
   19.29277802   94.82890320    0.40000001    2.67000008
   19.29611015   92.38249969    0.47999999    2.67000008
   19.29916573   91.86689758    0.51999998    2.67000008
   19.30249977   93.50160217    0.55000001    2.67000008
   19.30555534   90.59539795    0.55000001    2.67000008
   19.30888748   92.43800354    0.56999999    2.67000008
   19.31222153   97.05449677    0.55000001    2.67000008
   19.31527710   97.54820251    0.55000001    2.67000008
   19.32166672   97.54820251    0.47999999    2.67000008
   19.32583427   88.60449982    0.52999997    2.67000008
   19.32888985   92.45819855    0.58999997    2.67000008
   19.33222389   92.67939758    0.56999999    2.67000008
   19.33527756   91.99919891    0.56999999    2.67000008
   19.33861160   90.06600189    0.56999999    2.67000008
   19.34194565   93.22360229    0.55000001    2.67000008
   19.34500122   91.82620239    0.52999997    2.67000008
   19.34833336   93.80970001    0.52999997    2.67000008
   19.35138893   87.46140289    0.55000001    2.66000009
   19.35388947   91.01490021    0.63000000    2.67000008
   19.35527802   89.02839661    0.63000000    2.67000008
   19.35833359   90.95449829    0.69000000    2.67000008
   19.36444473   90.95449829    0.73000002    2.66000009
   19.36861038   89.65450287    1.00000000    2.66000009
   19.37166595   88.06749725    0.80000001    2.66000009
   19.37500000   91.36190033    0.76999998    2.66000009
   19.37833405   89.12550354    0.70999998    2.66000009
   19.38138962   90.05049896    0.67000002    2.66000009
   19.38472176   90.66159821    0.64999998    2.66000009
   19.38722229   95.17420197    0.67000002    2.66000009
   19.38833237   95.85559845    0.58999997    2.66000009
   19.39138794   92.36309814    0.56999999    2.66000009
   19.39472198   89.43109894    0.56999999    2.66000009
   19.39777756   90.45269775    0.51999998    2.67000008
   19.40111160   91.95490265    0.52999997    2.66000009
   19.40722275   91.95490265    0.52999997    2.66000009
   19.41138840   87.42780304    0.52999997    2.66000009
   19.41472244   90.01609802    0.51999998    2.66000009
   19.41777802   88.38059998    0.55000001    2.66000009
   19.42055511   88.97779846    0.56999999    2.67000008
   19.42166519   92.15589905    0.56999999    2.67000008
   19.42472076   88.51290131    0.56999999    2.66000009
   19.42805481   83.62719727    0.52999997    2.66000009
   19.43111038   88.82679749    0.51999998    2.66000009
   19.43444443   88.64949799    0.51999998    2.66000009
   19.43777657   88.25060272    0.51999998    2.66000009
   19.44083214   96.56870270    0.50000000    2.67000008
   19.44416618   90.30719757    0.47999999    2.66000009
   19.45027924   90.30719757    0.46000001    2.66000009
   19.45416832   93.09130096    0.51999998    2.66000009
   19.45750046   90.96279907    0.52999997    2.66000009
   19.46083450   93.54440308    0.55000001    2.66000009
   19.46389008   95.14790344    0.75000000    2.66000009
   19.46722221   93.69589996    0.67000002    2.66000009
   19.47027779   93.46499634    0.44000000    2.67000008
   19.47361183   92.58280182    0.41999999    2.66000009
   19.47694588   85.19989777    0.41999999    2.66000009
   19.48000145   92.08879852    0.41999999    2.66000009
   19.48333359   87.86370087    0.47999999    2.66000009
   19.48638916   90.56459808    0.41999999    2.66000009
   19.48722267   92.84349823    0.41999999    2.66000009
   19.49305534   92.84349823    0.40000001    2.66000009
   19.49722290   97.46150208    0.40000001    2.66000009
   19.50027847   88.81919861    0.41999999    2.66000009
   19.50361061   91.45240021    0.40000001    2.66000009
   19.50666618   88.68620300    0.40000001    2.66000009
   19.51000023   95.36299896    0.40000001    2.66000009
   19.51333427   92.09420013    0.41999999    2.66000009
   19.51638794   95.86009979    0.41999999    2.66000009
   19.51972198   89.60030365    0.41999999    2.66000009
   19.52055550   90.36150360    0.40000001    2.66000009
   19.52333260   88.82669830    0.40000001    2.66000009
   19.52638817   87.25839996    0.40000001    2.66000009
   19.52972221   87.93979645    0.41999999    2.66000009
   19.53583336   87.93979645    0.46000001    2.66000009
   19.53999901   93.54850006    0.46000001    2.66000009
   19.54305458   95.25160217    0.46000001    2.66000009
   19.54638863   88.96549988    0.46000001    2.66000009
   19.54972076   88.77950287    0.44000000    2.64000010
   19.55277634   87.50129700    0.41999999    2.66000009
   19.55416679   85.74400330    0.41999999    2.66000009
   19.55638885   88.88749695    0.40000001    2.66000009
   19.55972099   89.57199860    0.41999999    2.66000009
   19.56277657   87.87560272    0.40000001    2.66000009
   19.56611061   87.49909973    0.40000001    2.66000009
   19.56916809   92.82460022    0.40000001    2.64000010
   19.57250023   88.64730072    0.38000000    2.66000009
   19.57861137   88.64730072    0.38000000    2.64000010
   19.58277893   94.05670166    0.38000000    2.66000009
   19.58611107   92.14579773    0.40000001    2.66000009
   19.58722305   85.74810028    0.40000001    2.66000009
   19.58972359   90.72049713    0.40000001    2.64000010
   19.59277916   85.88379669    0.38000000    2.66000009
   19.59611130   90.80249786    0.38000000    2.66000009
   19.59916687   92.39920044    0.36000001    2.64000010
   19.60250092   93.60639954    0.34000000    2.64000010
   19.60583305   91.63369751    0.34000000    2.64000010
   19.60888863   94.32520294    0.34000000    2.66000009
   19.61222267   92.56469727    0.34000000    2.66000009
   19.61527824   91.46219635    0.34000000    2.64000010
   19.62166595   91.46219635    0.50000000    2.64000010
   19.62555504   87.33039856    0.47999999    2.64000010
   19.62888908   91.49299622    0.46000001    2.64000010
   19.63222313   90.46649933    0.46000001    2.64000010
   19.63527679   93.45240021    0.46000001    2.64000010
   19.63861084   89.48310089    0.47999999    2.64000010
   19.64166641   87.55300140    0.51999998    2.64000010
   19.64500046   90.32330322    0.52999997    2.64000010
   19.64805603   87.14420319    0.52999997    2.64000010
   19.65138817   90.27919769    0.58999997    2.64000010
   19.65388870   84.65019989    0.61000001    2.64000010
   19.65499878   87.60739899    0.63000000    2.64000010
   19.65805435   84.80380249    0.63000000    2.64000010
   19.66444397   84.80380249    0.80000001    2.64000010
   19.66860962   86.85079956    0.92000002    2.61999989
   19.67166519   86.55770111    0.86000001    2.61999989
   19.67499924   88.59529877    0.89999998    2.64000010
   19.67805481   83.83429718    0.94000000    2.64000010
   19.68138885   90.95089722    1.33000004    2.61999989
   19.68472099   88.17880249    1.33000004    2.61999989
   19.68722153   84.29759979    1.51999998    2.61999989
   19.68833160   88.41040039    1.51999998    2.61999989
   19.69138718   88.94640350    1.78999996    2.61999989
   19.69472122   94.68679810    1.50000000    2.61999989
   19.69777679   89.76650238    1.63000000    2.61999989
   19.70111275   87.86370087    0.92000002    2.61999989
   19.70722389   87.86370087    0.75000000    2.61999989
   19.71138954   98.01670074    0.73000002    2.64000010
   19.71444511   84.18820190    0.67000002    2.61999989
   19.71777916   80.71440125    0.73000002    2.61999989
   19.72055626   91.95030212    0.70999998    2.61999989
   19.72138977   90.15440369    0.69000000    2.61999989
   19.72444534   92.89070129    0.64999998    2.61999989
   19.72777748   94.79830170    0.63000000    2.64000010
   19.73111153   84.73829651    0.58999997    2.61999989
   19.73416710   92.02639771    0.58999997    2.61999989
   19.73750114   88.82150269    0.58999997    2.61999989
   19.74055672   92.60050201    0.56999999    2.61999989
   19.74388885   86.33529663    0.58999997    2.61999989
   19.75000000   86.33529663    0.58999997    2.61999989
   19.75416756   85.35590363    0.58999997    2.64000010
   19.75749969   88.40940094    0.58999997    2.61999989
   19.76055527   87.62039948    0.61000001    2.61999989
   19.76388931   87.33850098    0.63000000    2.61999989
   19.76694489   85.03649902    0.63000000    2.61999989
   19.77027702   88.84580231    0.64999998    2.61999989
   19.77361107   88.77089691    0.64999998    2.61999989
   19.77666664   91.34899902    0.67000002    2.61999989
   19.78000069   90.86350250    0.63000000    2.61999989
   19.78305435   84.70770264    0.58999997    2.61999989
   19.78638840   90.79199982    0.58999997    2.61999989
   19.78722191   88.37879944    0.58999997    2.61999989
   19.79305458   88.37879944    0.56999999    2.61999989
   19.79694366   87.79350281    0.61000001    2.61999989
   19.80027771   89.56870270    0.61000001    2.61999989
   19.80333328   88.07019806    0.64999998    2.61999989
   19.80666542   89.28749847    0.64999998    2.61999989
   19.80999947   93.62529755    0.64999998    2.59999990
   19.81305504   86.82710266    0.67000002    2.61999989
   19.81638718   88.72869873    0.70999998    2.61999989
   19.81944466   86.34989929    0.61000001    2.61999989
   19.82055664   89.83190155    0.64999998    2.61999989
   19.82333374   90.34529877    0.70999998    2.59999990
   19.82638931   90.01139832    0.67000002    2.61999989
   19.82972336   90.13040161    0.63000000    2.59999990
   19.83583450   90.13040161    0.58999997    2.59999990
   19.84000015   87.01159668    0.56999999    2.59999990
   19.84305573   91.61470032    0.55000001    2.59999990
   19.84638977   93.48239899    0.55000001    2.59999990
   19.84944534   92.88249969    0.55000001    2.59999990
   19.85277748   89.71170044    0.52999997    2.59999990
   19.85388947   88.10479736    0.52999997    2.59999990
   19.85639000   87.44660187    0.52999997    2.61999989
   19.85944557   85.00859833    0.52999997    2.61999989
   19.86277771   89.07610321    0.50000000    2.61999989
   19.86611176   86.13710022    0.52999997    2.59999990
   19.86916733   91.13449860    0.52999997    2.59999990
   19.87249947   85.59580231    0.41999999    2.59999990
   19.87861061   85.59580231    0.40000001    2.61999989
   19.88277817   83.92939758    0.38000000    2.59999990
   19.88583374   86.95140076    0.38000000    2.59999990
   19.88722229   89.13539886    0.38000000    2.59999990
   19.88972282   85.02610016    0.38000000    2.61999989
   19.89277840   86.67960358    0.38000000    2.59999990
   19.89611053   89.68779755    0.38000000    2.59999990
   19.89944458   84.31860352    0.36000001    2.59999990
   19.90250015   86.08409882    0.38000000    2.59999990
   19.90583229   86.37740326    0.34000000    2.59999990
   19.90888786   86.98280334    0.36000001    2.61999989
   19.91222191   90.90419769    0.34000000    2.59999990
   19.91527748  101.18599701    0.36000001    2.59999990
   19.92138863  101.18599701    0.36000001    2.59999990
   19.92555428  124.70999908    0.34000000    2.59999990
   19.92888832  146.37899780    0.36000001    2.59999990
   19.93194389  158.74699402    0.36000001    2.59999990
   19.93527603  115.98200226    0.38000000    2.59999990
   19.93833160   -1.00000000    0.38000000    2.59999990
   19.94166565   -1.00000000    0.40000001    2.59999990
   19.94499969   -1.00000000    0.41999999    2.59999990
   19.94805527   -1.00000000    0.40000001    2.59999990
   19.95138931   -1.00000000    0.44000000    2.59999990
   19.97861099   -1.00000000    0.46000001    2.59999990
   19.98194504   -1.00000000    0.46000001    2.57999992
   19.98500061   -1.00000000    0.44000000    2.59999990
   19.98861122   -1.00000000    0.47999999    2.57999992
   19.99166679   -1.00000000    0.47999999    2.57999992
