    HOUR (UT)   FLARE FACTOR    SKY TESTER    SUN TESTER
   12.72333336   -1.00000000   -1.00000000   -1.00000000
   12.75861073  127.94300079    0.52999997    2.48000002
   12.76194477  122.57499695    0.52999997    2.48000002
   12.76500034  129.46200562    0.52999997    2.50000000
   12.76833344  136.42900085    0.52999997    2.50000000
   12.77166653  134.37800598    0.52999997    2.50000000
   12.77472210  130.52000427    0.52999997    2.48000002
   12.77888870  130.52000427    0.51999998    2.50000000
   12.78305531  130.02200317    0.51999998    2.50000000
   12.78638935  133.65699768    0.51999998    2.50000000
   12.78944492  132.39100647    0.51999998    2.50000000
   12.79194450  123.89600372    0.51999998    2.50000000
   12.79333401  137.73300171    0.51999998    2.50000000
   12.79638958  133.94700623    0.51999998    2.50000000
   12.79972267  135.60800171    0.51999998    2.50000000
   12.80277824  143.52999878    0.51999998    2.50000000
   12.80611134  142.64999390    0.51999998    2.50000000
   12.80944443  136.21699524    0.51999998    2.51999998
   12.81250000  132.81100464    0.51999998    2.50000000
   12.81583309  140.47900391    0.51999998    2.50000000
   12.82166672  140.47900391    0.51999998    2.50000000
   12.82583332  141.16700745    0.51999998    2.51999998
   12.82916641  130.08299255    0.51999998    2.51999998
   12.83222198  142.39100647    0.51999998    2.51999998
   12.83555508  142.65199280    0.51999998    2.50000000
   12.83888817  129.63600159    0.51999998    2.51999998
   12.84194374  134.52499390    0.51999998    2.51999998
   12.84527779  144.09399414    0.52999997    2.51999998
   12.84861088  137.43899536    0.51999998    2.51999998
   12.85166740  146.52200317    0.51999998    2.51999998
   12.85500050  143.06500244    0.51999998    2.51999998
   12.85805607  148.15699768    0.51999998    2.51999998
   12.85861111  139.09199524    0.51999998    2.53999996
   12.86472225  139.09199524    0.51999998    2.53999996
   12.86861134  133.24800110    0.52999997    2.51999998
   12.87194443  156.36500549    0.51999998    2.51999998
   12.87527752  127.36399841    0.51999998    2.51999998
   12.87833309  137.98800659    0.51999998    2.51999998
   12.88166714  130.92599487    0.51999998    2.51999998
   12.88500023  144.05799866    0.51999998    2.51999998
   12.88805580  143.68299866    0.51999998    2.51999998
   12.89138889  132.44000244    0.51999998    2.53999996
   12.89194393  140.97200012    0.51999998    2.53999996
   12.89499950  146.73300171    0.52999997    2.53999996
   12.89833355  143.20399475    0.51999998    2.53999996
   12.90138817  134.43800354    0.51999998    2.53999996
   12.90749931  134.43800354    0.51999998    2.53999996
   12.91166592  129.23899841    0.51999998    2.53999996
   12.91472149  132.66999817    0.51999998    2.53999996
   12.91805553  133.43299866    0.51999998    2.53999996
   12.92138958  129.19900513    0.51999998    2.53999996
   12.92444515  131.83399963    0.51999998    2.53999996
   12.92527771  135.68800354    0.51999998    2.53999996
   12.92805576  136.26600647    0.51999998    2.53999996
   12.93138885  128.50399780    0.51999998    2.51999998
   12.93444443  132.42199707    0.51999998    2.53999996
   12.93777752  134.85299683    0.51999998    2.53999996
   12.94111156  129.34199524    0.51999998    2.53999996
   12.94416714  127.51499939    0.51999998    2.53999996
   12.95027733  127.51499939    0.51999998    2.53999996
   12.95444393  126.36199951    0.51999998    2.53999996
   12.95777798  133.43200684    0.51999998    2.55999994
   12.95861053  133.13900757    0.51999998    2.53999996
   12.96138859  123.96499634    0.51999998    2.53999996
   12.96472168  133.98399353    0.51999998    2.53999996
   12.96777725  120.85099792    0.51999998    2.55999994
   12.97111034  127.36100006    0.50000000    2.55999994
   12.97444439  133.72700500    0.50000000    2.55999994
   12.97749996  134.46899414    0.50000000    2.55999994
   12.98083305  128.98899841    0.50000000    2.53999996
   12.98388958  130.37300110    0.50000000    2.55999994
   12.98722267  138.40800476    0.50000000    2.55999994
   12.99305534  138.40800476    0.50000000    2.55999994
   12.99722290  129.50700378    0.51999998    2.55999994
   13.00055599  145.19700623    0.50000000    2.55999994
   13.00361156  134.33299255    0.50000000    2.55999994
   13.00694466  142.05599976    0.51999998    2.55999994
   13.01027775  133.94799805    0.51999998    2.55999994
   13.01361084  127.17900085    0.50000000    2.55999994
   13.01666641  136.57800293    0.50000000    2.55999994
   13.01999950  139.94200134    0.50000000    2.55999994
   13.02333355  133.59899902    0.50000000    2.55999994
   13.02527714  129.06900024    0.51999998    2.55999994
   13.02694416  135.24299622    0.51999998    2.55999994
   13.03027725  136.39199829    0.50000000    2.55999994
   13.03611183  136.39199829    0.50000000    2.55999994
   13.04000092  143.46400452    0.50000000    2.55999994
   13.04333401  149.60299683    0.50000000    2.55999994
   13.04666710  148.09800720    0.50000000    2.55999994
   13.04972267  128.87300110    0.50000000    2.55999994
   13.05305576  139.79699707    0.50000000    2.55999994
   13.05638885  160.22000122    0.50000000    2.57999992
   13.05861092  134.07699585    0.50000000    2.55999994
   13.06000042  138.34500122    0.50000000    2.57999992
   13.06333351  136.59700012    0.50000000    2.57999992
   13.06638908  141.41799927    0.50000000    2.57999992
   13.06972218  134.47300720    0.50000000    2.57999992
   13.07305527  131.10299683    0.50000000    2.57999992
   13.07888889  131.10299683    0.50000000    2.57999992
   13.08305550  131.92399597    0.50000000    2.57999992
   13.08611107  126.90299988    0.51999998    2.57999992
   13.08944416  139.26300049    0.51999998    2.55999994
   13.09194374  133.38200378    0.51999998    2.55999994
   13.09305477  125.86900330    0.51999998    2.55999994
   13.09638882  120.79299927    0.50000000    2.57999992
   13.09944439  121.49700165    0.50000000    2.57999992
   13.10277843  127.86199951    0.50000000    2.57999992
   13.10611153  137.34100342    0.50000000    2.57999992
   13.10916710  119.84799957    0.50000000    2.57999992
   13.11250019  117.66100311    0.50000000    2.57999992
   13.11555576  139.91499329    0.50000000    2.57999992
   13.12166691  139.91499329    0.51999998    2.57999992
   13.12583351  125.08999634    0.51999998    2.57999992
   13.12916660  125.26000214    0.51999998    2.59999990
   13.13222218  133.48100281    0.52999997    2.57999992
   13.13555527  132.95799255    0.51999998    2.57999992
   13.13861084  143.46800232    0.51999998    2.59999990
   13.14194393  131.95500183    0.51999998    2.57999992
   13.14527798  132.95700073    0.51999998    2.59999990
   13.14833355  129.21899414    0.51999998    2.57999992
   13.15166664  117.85199738    0.51999998    2.57999992
   13.15499973  131.91400146    0.51999998    2.57999992
   13.15805531  115.92600250    0.51999998    2.59999990
   13.15861034  123.57900238    0.51999998    2.59999990
   13.16444397  123.57900238    0.51999998    2.57999992
   13.16861153  129.91200256    0.51999998    2.59999990
   13.17194462  122.69100189    0.51999998    2.59999990
   13.17500019  126.37899780    0.52999997    2.59999990
   13.17833328  118.35399628    0.52999997    2.59999990
   13.18166733  121.10399628    0.52999997    2.59999990
   13.18472195  123.63999939    0.51999998    2.59999990
   13.18805599  119.35900116    0.52999997    2.59999990
   13.19138908  117.00299835    0.52999997    2.59999990
   13.19194412  125.11199951    0.51999998    2.59999990
   13.19472218  123.13999939    0.51999998    2.59999990
   13.19805527  110.08399963    0.51999998    2.59999990
   13.20111084  114.05200195    0.52999997    2.59999990
   13.20749950  114.05200195    0.56999999    2.59999990
   13.21166611  122.84500122    0.56999999    2.59999990
   13.21472168  119.53600311    0.55000001    2.59999990
   13.21805477  109.71600342    0.55000001    2.59999990
   13.22111034  108.04199982    0.55000001    2.59999990
   13.22444439  121.37799835    0.52999997    2.59999990
   13.22527695  120.69999695    0.52999997    2.59999990
   13.22805500  123.74600220    0.52999997    2.59999990
   13.23138809  119.61599731    0.52999997    2.61999989
   13.23444462  137.49600220    0.52999997    2.61999989
   13.23777771  144.00799561    0.52999997    2.61999989
   13.24111176  154.44299316    0.51999998    2.59999990
   13.24416733  137.52900696    0.52999997    2.61999989
   13.25027752  137.52900696    0.51999998    2.61999989
   13.25444412  126.15899658    0.51999998    2.61999989
   13.25749969  119.89399719    0.51999998    2.61999989
   13.25888920  106.67700195    0.51999998    2.61999989
   13.26111126  129.08999634    0.51999998    2.61999989
   13.26444435  114.54199982    0.51999998    2.61999989
   13.26777744  115.21499634    0.52999997    2.61999989
   13.27083302  126.23400116    0.51999998    2.61999989
   13.27416611  106.47100067    0.52999997    2.59999990
   13.27750015  110.85700226    0.51999998    2.61999989
   13.28055573  106.48699951    0.52999997    2.64000010
   13.28388977  109.65200043    0.51999998    2.61999989
   13.28694534  121.58499908    0.52999997    2.61999989
   13.29305553  121.58499908    0.51999998    2.61999989
   13.29722309  108.64399719    0.51999998    2.61999989
   13.30055618  106.89499664    0.52999997    2.64000010
   13.30361176  117.78199768    0.52999997    2.61999989
   13.30694485  108.44899750    0.51999998    2.61999989
   13.31000042  111.24099731    0.51999998    2.61999989
   13.31333351  115.08799744    0.51999998    2.61999989
   13.31666660  115.21399689    0.51999998    2.61999989
   13.31972218  111.72100067    0.51999998    2.64000010
   13.32305527  118.45200348    0.51999998    2.64000010
   13.32555580  110.36000061    0.51999998    2.64000010
   13.32666683  118.74500275    0.51999998    2.64000010
   13.32999992  105.41899872    0.51999998    2.64000010
   13.33583260  105.41899872    0.51999998    2.61999989
   13.34000015  112.96399689    0.51999998    2.61999989
   13.34333324  113.85199738    0.51999998    2.61999989
   13.34638882  106.22000122    0.51999998    2.61999989
   13.34972191  100.54100037    0.51999998    2.64000010
   13.35305595  109.48200226    0.52999997    2.64000010
   13.35611153  108.07199860    0.51999998    2.64000010
   13.35888958  111.70300293    0.51999998    2.64000010
   13.35972214  108.44400024    0.51999998    2.64000010
   13.36305618   96.56719971    0.51999998    2.64000010
   13.36611176  112.25399780    0.51999998    2.64000010
   13.36944485  115.32700348    0.51999998    2.64000010
   13.37277794  112.59300232    0.50000000    2.64000010
   13.37888908  112.59300232    0.51999998    2.64000010
   13.38305569  104.61199951    0.50000000    2.64000010
   13.38611126  108.29000092    0.50000000    2.64000010
   13.38944435  112.87899780    0.50000000    2.64000010
   13.39222240  118.39499664    0.50000000    2.64000010
   13.39305496  110.59600067    0.50000000    2.64000010
   13.39638901  113.48100281    0.50000000    2.64000010
   13.39972210  114.95999908    0.50000000    2.64000010
   13.40277767  113.51899719    0.50000000    2.61999989
   13.40611076  113.05799866    0.50000000    2.61999989
   13.40916634  123.89299774    0.50000000    2.64000010
   13.41249943  117.41999817    0.50000000    2.64000010
   13.41583252  119.78299713    0.50000000    2.66000009
   13.42166710  119.78299713    0.51999998    2.64000010
   13.42583370  103.81400299    0.50000000    2.64000010
   13.42888927  115.32599640    0.50000000    2.64000010
   13.43222237  109.51699829    0.50000000    2.66000009
   13.43555546  107.51899719    0.50000000    2.64000010
   13.43861103  105.08999634    0.50000000    2.64000010
   13.44194412  113.70600128    0.50000000    2.64000010
   13.44527817  110.09999847    0.50000000    2.64000010
   13.44833374  104.14299774    0.50000000    2.64000010
   13.45166683  110.45600128    0.50000000    2.64000010
   13.45472240  121.59300232    0.47999999    2.64000010
   13.45805550  113.44799805    0.47999999    2.64000010
   13.45888901  116.10700226    0.47999999    2.64000010
   13.46444416  116.10700226    0.47999999    2.64000010
   13.46861076  117.87999725    0.47999999    2.66000009
   13.47194386  110.08499908    0.46000001    2.66000009
   13.47499943  121.30300140    0.47999999    2.66000009
   13.47833252  117.24800110    0.46000001    2.64000010
   13.48138809  110.99800110    0.47999999    2.66000009
   13.48472214  115.06500244    0.46000001    2.66000009
   13.48805618  105.63200378    0.46000001    2.66000009
   13.49111176  105.47699738    0.46000001    2.66000009
   13.49222279  105.94699860    0.46000001    2.66000009
   13.49472237  105.10399628    0.46000001    2.64000010
   13.49805546  106.67700195    0.46000001    2.66000009
   13.50138855  113.48000336    0.46000001    2.66000009
   13.50722218  113.48000336    0.46000001    2.66000009
   13.51138878  113.13300323    0.46000001    2.66000009
   13.51472187  117.10500336    0.46000001    2.66000009
   13.51777744  122.09300232    0.46000001    2.66000009
   13.52111053  124.87000275    0.46000001    2.66000009
   13.52444458  114.06700134    0.46000001    2.66000009
   13.52555561  102.80899811    0.46000001    2.66000009
   13.52777767  104.62899780    0.46000001    2.67000008
   13.53111076  102.68199921    0.46000001    2.66000009
   13.53444481  103.05000305    0.46000001    2.66000009
   13.53750038  108.43399811    0.46000001    2.66000009
   13.54083347  106.08000183    0.46000001    2.66000009
   13.54388905  106.00900269    0.46000001    2.67000008
   13.55027771  106.00900269    0.46000001    2.66000009
   13.55416679   96.58450317    0.47999999    2.66000009
   13.55749989  101.16000366    0.47999999    2.66000009
   13.55888939  100.60299683    0.47999999    2.66000009
   13.56111145  101.20899963    0.47999999    2.66000009
   13.56444454   99.99700165    0.47999999    2.66000009
   13.56777763  109.08000183    0.50000000    2.67000008
   13.57083321  101.29299927    0.50000000    2.67000008
   13.57416630  105.08200073    0.50000000    2.67000008
   13.57750034  113.00000000    0.50000000    2.66000009
   13.58055592  120.80500031    0.50000000    2.66000009
   13.58388901   99.04429626    0.50000000    2.67000008
   13.58694458  124.84300232    0.50000000    2.67000008
   13.59305477  124.84300232    0.50000000    2.67000008
   13.59722233  125.86900330    0.50000000    2.66000009
   13.60027790  127.78299713    0.50000000    2.67000008
   13.60361195  128.48100281    0.50000000    2.67000008
   13.60694504  140.01499939    0.51999998    2.66000009
   13.61000061  123.02600098    0.50000000    2.67000008
   13.61333370  138.68800354    0.50000000    2.67000008
   13.61666679  132.63699341    0.50000000    2.67000008
   13.61972237  132.87500000    0.51999998    2.67000008
   13.62305546  121.18900299    0.51999998    2.67000008
   13.62555599  132.30999756    0.50000000    2.67000008
   13.62666702  117.02300262    0.50000000    2.67000008
   13.63000011  114.42600250    0.50000000    2.67000008
   13.63583279  114.42600250    0.47999999    2.67000008
   13.64000034  109.65599823    0.47999999    2.67000008
   13.64305496  110.73200226    0.47999999    2.67000008
   13.64638901  103.12599945    0.47999999    2.67000008
   13.64972210  114.14199829    0.47999999    2.67000008
   13.65277767  115.72299957    0.47999999    2.67000008
   13.65611076  124.40200043    0.47999999    2.67000008
   13.65888882  112.54399872    0.47999999    2.67000008
   13.65972137  111.48000336    0.47999999    2.69000006
   13.66305542  108.57299805    0.47999999    2.67000008
   13.66611099   98.44229889    0.47999999    2.69000006
   13.66944504   95.84510040    0.47999999    2.67000008
   13.67277813  107.93900299    0.47999999    2.67000008
   13.67861176  107.93900299    0.47999999    2.69000006
   13.68277836  104.28399658    0.47999999    2.67000008
   13.68611145   95.51899719    0.47999999    2.67000008
   13.68916702  104.34500122    0.47999999    2.67000008
   13.69222260   90.38230133    0.47999999    2.69000006
   13.69277763   95.98310089    0.47999999    2.69000006
   13.69611073   96.78309631    0.50000000    2.67000008
   13.69944477   97.23870087    0.50000000    2.67000008
   13.70249939   94.88449860    0.47999999    2.67000008
   13.70583344   97.38849640    0.47999999    2.67000008
   13.70888901   94.01309967    0.47999999    2.67000008
   13.71222210   93.01889801    0.47999999    2.69000006
   13.71555519  107.85199738    0.47999999    2.67000008
   13.72166634  107.85199738    0.47999999    2.67000008
   13.72555542   97.69170380    0.46000001    2.69000006
   13.72888851   91.88610077    0.46000001    2.69000006
   13.73222160   87.57460022    0.46000001    2.67000008
   13.73527813   95.46499634    0.46000001    2.69000006
   13.73861122   94.38200378    0.46000001    2.69000006
   13.74166679   91.68939972    0.46000001    2.69000006
   13.74499989   82.85659790    0.46000001    2.69000006
   13.74833393   97.47389984    0.44000000    2.69000006
   13.75138855   88.67310333    0.46000001    2.69000006
   13.75472260   87.04699707    0.46000001    2.69000006
   13.75805569   91.23290253    0.46000001    2.69000006
   13.75888920   91.24900055    0.46000001    2.69000006
   13.77944374   91.24900055    0.44000000    2.71000004
   13.78361130   97.06340027    0.44000000    2.69000006
   13.78666687   90.89440155    0.41999999    2.69000006
   13.79000092   98.72799683    0.41999999    2.69000006
   13.79222298   97.40769958    0.41999999    2.69000006
   13.79388905   92.09400177    0.41999999    2.69000006
   13.79694462   95.40239716    0.41999999    2.69000006
   13.80027771   93.60189819    0.41999999    2.69000006
   13.80361176   96.23690033    0.44000000    2.69000006
   13.80666733   96.71399689    0.41999999    2.69000006
   13.81000042   82.47660065    0.41999999    2.69000006
   13.81305599   84.71959686    0.41999999    2.69000006
   13.81638908   86.88200378    0.41999999    2.69000006
   13.82222176   86.88200378    0.41999999    2.69000006
   13.82638836   94.30709839    0.41999999    2.69000006
   13.82944393   88.45619965    0.41999999    2.69000006
   13.83277798   86.84400177    0.41999999    2.69000006
   13.83611107   84.65190125    0.41999999    2.69000006
   13.83916664   89.03900146    0.41999999    2.69000006
   13.84249973   85.54440308    0.41999999    2.69000006
   13.84555531   83.23100281    0.44000000    2.71000004
   13.84888840   89.00370026    0.44000000    2.71000004
   13.85222244   86.54660034    0.41999999    2.69000006
   13.85527802   89.78359985    0.41999999    2.71000004
   13.85861111   84.68740082    0.41999999    2.71000004
   13.85916710   85.56259918    0.41999999    2.71000004
   13.86500072   85.56259918    0.41999999    2.71000004
   13.86916637   88.40219879    0.40000001    2.71000004
   13.87250042   91.86650085    0.40000001    2.71000004
   13.87555599   88.41349792    0.41999999    2.71000004
   13.87888908   94.55950165    0.40000001    2.69000006
   13.88194466   99.28980255    0.40000001    2.71000004
   13.88527775   86.74859619    0.40000001    2.71000004
   13.88861084   90.61399841    0.40000001    2.71000004
   13.89166641   84.72630310    0.41999999    2.71000004
   13.89249992   86.32630157    0.41999999    2.71000004
   13.89555550   87.57450104    0.40000001    2.71000004
   13.89861107   95.27290344    0.40000001    2.71000004
   13.90194416   92.87270355    0.40000001    2.69000006
   13.90777779   92.87270355    0.40000001    2.71000004
   13.91194439   86.65239716    0.40000001    2.71000004
   13.91527748   90.70890045    0.40000001    2.71000004
   13.91861153   95.96379852    0.40000001    2.71000004
   13.92166710   89.02220154    0.40000001    2.71000004
   13.92500019   97.82749939    0.40000001    2.71000004
   13.92583370   80.42199707    0.40000001    2.71000004
   13.92861176   85.84709930    0.40000001    2.69000006
   13.93166733   85.29779816    0.40000001    2.69000006
   13.93500042   88.15789795    0.40000001    2.71000004
   13.93833351   87.33100128    0.40000001    2.71000004
   13.94138908   85.16149902    0.40000001    2.71000004
   13.94472218   86.03309631    0.40000001    2.69000006
   13.95083332   86.03309631    0.40000001    2.71000004
   13.95499992   88.65399933    0.40000001    2.71000004
   13.95805550   88.73359680    0.40000001    2.71000004
   13.95916653   90.46630096    0.40000001    2.71000004
   13.96194458   91.62809753    0.40000001    2.71000004
   13.96500015   87.93340302    0.40000001    2.71000004
   13.96833324   87.64980316    0.40000001    2.71000004
   13.97166634   96.14499664    0.40000001    2.71000004
   13.97472191   80.26879883    0.40000001    2.73000002
   13.97805500   90.29209900    0.40000001    2.73000002
   13.98111057   83.50959778    0.40000001    2.73000002
   13.98444462   86.78260040    0.40000001    2.71000004
   13.98777771   90.96690369    0.40000001    2.73000002
   13.99361134   90.96690369    0.40000001    2.71000004
   13.99777794   93.98629761    0.40000001    2.71000004
   14.00083351   87.24980164    0.40000001    2.71000004
   14.00416660   87.07270050    0.40000001    2.73000002
   14.00749969   86.45580292    0.40000001    2.71000004
   14.01055527   85.53630066    0.40000001    2.71000004
   14.01388931   88.80650330    0.41999999    2.71000004
   14.01722240   90.06199646    0.41999999    2.73000002
   14.02027798   90.33300018    0.41999999    2.73000002
   14.02361107   86.53520203    0.41999999    2.71000004
   14.02583313   84.53240204    0.44000000    2.71000004
   14.02722168   88.19049835    0.41999999    2.71000004
   14.03027725   87.75920105    0.44000000    2.71000004
   14.03638935   87.75920105    0.41999999    2.71000004
   14.04055595   88.50900269    0.44000000    2.71000004
   14.04388905   90.65589905    0.44000000    2.73000002
   14.04694462   87.94869995    0.44000000    2.73000002
   14.05027771   87.07240295    0.44000000    2.73000002
   14.05333328   83.57800293    0.41999999    2.71000004
   14.05666733   82.82890320    0.44000000    2.75000000
   14.05916691   86.49770355    0.41999999    2.73000002
   14.06055546   84.96610260    0.41999999    2.73000002
   14.06361103   88.80989838    0.44000000    2.73000002
   14.06694412   83.61329651    0.41999999    2.71000004
   14.07027817   85.71459961    0.41999999    2.71000004
   14.07333374   88.76100159    0.41999999    2.73000002
   14.07916641   88.76100159    0.41999999    2.73000002
   14.08333302   89.15969849    0.41999999    2.73000002
   14.08666611   84.92019653    0.41999999    2.73000002
   14.08972168   88.79229736    0.41999999    2.73000002
   14.09249973   82.55490112    0.41999999    2.73000002
   14.09361076   84.27420044    0.41999999    2.73000002
   14.09666634   87.84089661    0.41999999    2.73000002
   14.10000038   86.64730072    0.41999999    2.71000004
   14.10305595   83.47219849    0.44000000    2.73000002
   14.10638905   88.69519806    0.44000000    2.73000002
   14.10972214   87.46820068    0.41999999    2.73000002
   14.11277771   84.34110260    0.44000000    2.73000002
   14.11611176   86.16560364    0.44000000    2.73000002
   14.12222195   86.16560364    0.41999999    2.73000002
   14.12638855   84.59649658    0.41999999    2.73000002
   14.12944412   90.20020294    0.41999999    2.73000002
   14.13277817   90.45749664    0.41999999    2.73000002
   14.13583279   85.48539734    0.41999999    2.73000002
   14.13916683   85.50939941    0.40000001    2.73000002
   14.14249992   83.37989807    0.40000001    2.73000002
   14.14555550   79.93769836    0.40000001    2.73000002
   14.14888859   90.53659821    0.40000001    2.73000002
   14.15222168   83.50769806    0.40000001    2.73000002
   14.15527725   83.78859711    0.40000001    2.73000002
   14.15861034   84.47899628    0.40000001    2.73000002
   14.15916634   84.61589813    0.40000001    2.73000002
   14.16499996   84.61589813    0.40000001    2.73000002
   14.16916656   92.08519745    0.40000001    2.73000002
   14.17222214   85.13020325    0.40000001    2.73000002
   14.17555618   85.16169739    0.40000001    2.73000002
   14.17888927   87.68969727    0.40000001    2.73000002
   14.18194485   85.04560089    0.40000001    2.73000002
   14.18527794   93.62300110    0.40000001    2.73000002
   14.18833351   87.85510254    0.40000001    2.73000002
   14.19166660   87.15380096    0.40000001    2.73000002
   14.19250011   82.75520325    0.40000001    2.75000000
   14.19527817   88.91049957    0.40000001    2.75000000
   14.19833374   85.03220367    0.40000001    2.73000002
   14.20166683   86.12429810    0.40000001    2.73000002
   14.20777798   86.12429810    0.40000001    2.75000000
   14.21194458   83.85659790    0.40000001    2.73000002
   14.21527767   84.59169769    0.40000001    2.73000002
   14.21833324   86.53189850    0.40000001    2.73000002
   14.22166634   82.14959717    0.40000001    2.73000002
   14.22472191   82.96459961    0.40000001    2.73000002
   14.22583294   87.17919922    0.40000001    2.73000002
   14.22861099   87.38459778    0.40000001    2.73000002
   14.23166656   77.54039764    0.40000001    2.75000000
   14.23500061   88.93830109    0.40000001    2.73000002
   14.23833370   86.97409821    0.40000001    2.75000000
   14.24138927   89.36430359    0.40000001    2.73000002
   14.24472237   86.12670135    0.40000001    2.73000002
   14.25055599   86.12670135    0.40000001    2.75000000
   14.25472260   92.01499939    0.40000001    2.75000000
   14.25805569   93.11270142    0.40000001    2.75000000
   14.25916672   83.08339691    0.40000001    2.75000000
   14.26166630   83.86519623    0.40000001    2.75000000
   14.26472187   88.88110352    0.40000001    2.75000000
   14.26805496   92.18789673    0.40000001    2.75000000
   14.27138901   84.93379974    0.40000001    2.75000000
   14.27444458   89.53489685    0.40000001    2.73000002
   14.27777767   86.51229858    0.40000001    2.73000002
   14.28083324   88.62830353    0.40000001    2.75000000
   14.28416729   88.20520020    0.40000001    2.73000002
   14.28750038   90.01730347    0.40000001    2.75000000
   14.29361153   90.01730347    0.40000001    2.75000000
   14.29750061   88.69629669    0.40000001    2.75000000
   14.30083370   84.03459930    0.40000001    2.75000000
   14.30416679   86.55690002    0.40000001    2.75000000
   14.30722237   81.19419861    0.40000001    2.75000000
   14.31055546   88.52899933    0.40000001    2.75000000
   14.31388950   86.45249939    0.40000001    2.75000000
   14.31694412   87.62319946    0.40000001    2.75000000
   14.32027817   83.93589783    0.40000001    2.75000000
   14.32333374   81.40750122    0.40000001    2.75000000
   14.32583332   85.42980194    0.38000000    2.75000000
   14.32722187   85.96900177    0.38000000    2.75000000
   14.33027744   82.24299622    0.38000000    2.75000000
   14.33638859   82.24299622    0.40000001    2.76999998
   14.34055519   83.16339874    0.38000000    2.75000000
   14.34361076   82.02290344    0.38000000    2.76999998
   14.34694386   82.24690247    0.38000000    2.75000000
   14.35027790   79.78720093    0.40000001    2.75000000
   14.35333347   83.30349731    0.38000000    2.76999998
   14.35666752   78.80840302    0.38000000    2.76999998
   14.35916710   89.72360229    0.38000000    2.76999998
   14.36027813   81.44219971    0.40000001    2.76999998
   14.36333370   93.59069824    0.38000000    2.75000000
   14.36666679   86.61710358    0.38000000    2.75000000
   14.36999989   85.26380157    0.40000001    2.75000000
   14.37305546   84.28260040    0.40000001    2.75000000
   14.37916660   84.28260040    0.38000000    2.75000000
   14.38333321   81.29550171    0.40000001    2.75000000
   14.38666630   78.56870270    0.38000000    2.75000000
   14.38972187   82.49819946    0.40000001    2.75000000
   14.39249992   82.54740143    0.38000000    2.75000000
   14.39361095   82.34149933    0.40000001    2.75000000
   14.39666653   83.87840271    0.40000001    2.76999998
   14.39999962   90.32980347    0.40000001    2.76999998
   14.40333271   77.22200012    0.40000001    2.75000000
   14.40638828   91.10459900    0.40000001    2.75000000
   14.40972137   81.97329712    0.40000001    2.75000000
   14.41305542   81.25990295    0.40000001    2.75000000
   14.41611099   89.52819824    0.40000001    2.75000000
   14.42194462   89.52819824    0.40000001    2.76999998
   14.42611122   81.53949738    0.40000001    2.76999998
   14.42944431   87.78230286    0.40000001    2.75000000
   14.43249989   90.46790314    0.40000001    2.73000002
   14.43583298   85.82859802    0.40000001    2.75000000
   14.43916702   86.46510315    0.40000001    2.75000000
   14.44222260   80.96360016    0.40000001    2.75000000
   14.44555569   82.00689697    0.40000001    2.75000000
   14.44888878   84.72669983    0.40000001    2.75000000
   14.45194435   82.73139954    0.40000001    2.75000000
   14.45527744   85.71219635    0.40000001    2.75000000
   14.45861053   84.20980072    0.40000001    2.75000000
   14.45916653   79.45629883    0.40000001    2.75000000
   14.46500015   79.45629883    0.40000001    2.75000000
   14.46888828   84.52680206    0.40000001    2.75000000
   14.47222137   81.86699677    0.40000001    2.76999998
   14.47555542   83.86049652    0.40000001    2.76999998
   14.47861099   84.45500183    0.40000001    2.75000000
   14.48194408   82.80329895    0.40000001    2.75000000
   14.48527813   78.91809845    0.40000001    2.76999998
   14.48833370   84.98549652    0.40000001    2.76999998
   14.49166679   82.38710022    0.40000001    2.76999998
   14.49250031   86.67489624    0.40000001    2.76999998
   14.49527836   80.05950165    0.40000001    2.75000000
   14.49833393   90.80539703    0.40000001    2.75000000
   14.50166702   86.05120087    0.40000001    2.75000000
   14.50777817   86.05120087    0.40000001    2.76999998
   14.51194477   85.03369904    0.40000001    2.75000000
   14.51500034   83.63890076    0.40000001    2.76999998
   14.51833344   86.29019928    0.40000001    2.76999998
   14.52166653   85.42299652    0.40000001    2.76999998
   14.52472210   86.99579620    0.38000000    2.76999998
   14.52583313   85.10780334    0.38000000    2.75000000
   14.52833271   86.15840149    0.38000000    2.75000000
   14.53138828   90.10910034    0.38000000    2.75000000
   14.53472233   84.20819855    0.38000000    2.75000000
   14.53805637   85.36879730    0.38000000    2.76999998
   14.54111195   87.22940063    0.38000000    2.76999998
   14.54444504   83.85980225    0.40000001    2.76999998
   14.55055618   83.85980225    0.40000001    2.76999998
   14.55472279   84.59030151    0.38000000    2.76999998
   14.55805588   86.00399780    0.40000001    2.75000000
   14.55916691   83.26069641    0.38000000    2.76999998
   14.56166649   83.94979858    0.38000000    2.76999998
   14.56500053   87.13710022    0.40000001    2.78999996
   14.56805515   85.38099670    0.38000000    2.76999998
   14.57138920   81.97029877    0.38000000    2.76999998
   14.57444477   86.34799957    0.38000000    2.76999998
   14.57777786   89.65630341    0.38000000    2.76999998
   14.58111095   93.41149902    0.38000000    2.76999998
   14.58416653   81.03530121    0.38000000    2.76999998
   14.58749962   86.30180359    0.38000000    2.78999996
   14.59333324   86.30180359    0.38000000    2.76999998
   14.59749985   83.07740021    0.38000000    2.76999998
   14.60083389   84.63099670    0.38000000    2.78999996
   14.60388947   95.58709717    0.38000000    2.76999998
   14.60722256   90.46679688    0.38000000    2.76999998
   14.61055565   91.32029724    0.38000000    2.78999996
   14.61361122  100.45999908    0.38000000    2.78999996
   14.61694431   95.71410370    0.38000000    2.78999996
   14.62027836   93.22440338    0.38000000    2.76999998
   14.62333393   88.96140289    0.38000000    2.76999998
   14.62583351   93.89450073    0.38000000    2.76999998
   14.62694454   92.01550293    0.38000000    2.76999998
   14.63000011   94.87110138    0.38000000    2.76999998
   14.63638878   94.87110138    0.38000000    2.76999998
   14.64027786   85.46350098    0.38000000    2.76999998
   14.64361095   87.56490326    0.38000000    2.76999998
   14.64694405   88.72319794    0.38000000    2.76999998
   14.64999962   87.14440155    0.38000000    2.76999998
   14.65333271   92.66719818    0.38000000    2.76999998
   14.65666676   83.00160217    0.38000000    2.76999998
   14.65916634   98.61039734    0.38000000    2.76999998
   14.66027737   90.02089691    0.38000000    2.76999998
   14.66333294   92.28659821    0.36000001    2.76999998
   14.66666698   84.35990143    0.36000001    2.76999998
   14.67000008   87.37709808    0.38000000    2.76999998
   14.67305565   85.15180206    0.38000000    2.76999998
   14.67916679   85.15180206    0.36000001    2.76999998
   14.68333340   87.34310150    0.36000001    2.78999996
   14.68638897   91.87680054    0.38000000    2.76999998
   14.68972206   94.68139648    0.36000001    2.75000000
   14.69250011   82.62329865    0.36000001    2.76999998
   14.69333363   87.87090302    0.36000001    2.76999998
   14.69638920  102.51899719    0.36000001    2.76999998
   14.69972229   88.49720001    0.36000001    2.75000000
   14.70305538   95.75820160    0.36000001    2.76999998
   14.70611095   85.40599823    0.36000001    2.78999996
   14.70944405   97.26450348    0.38000000    2.76999998
   14.71277714   94.87899780    0.36000001    2.76999998
   14.71583271   91.88430023    0.38000000    2.76999998
   14.72194386   91.88430023    0.36000001    2.76999998
   14.72611046   87.84870148    0.36000001    2.78999996
   14.72944355   84.05580139    0.38000000    2.78999996
   14.73249912   87.31939697    0.38000000    2.78999996
   14.73583317   85.97799683    0.36000001    2.76999998
   14.73888874   85.63710022    0.36000001    2.76999998
   14.74222279   81.57830048    0.38000000    2.78999996
   14.74555588   90.65270233    0.38000000    2.78999996
   14.74861145   89.03959656    0.38000000    2.78999996
   14.75194454   93.43650055    0.36000001    2.78999996
   14.75527763   86.58940125    0.36000001    2.78999996
   14.75833321   94.37169647    0.36000001    2.78999996
   14.75916672   89.80059814    0.36000001    2.78999996
   14.76472187   89.80059814    0.36000001    2.76999998
   14.76888847   86.48799896    0.36000001    2.78999996
   14.77222157   92.60990143    0.36000001    2.76999998
   14.77555561   89.96610260    0.36000001    2.76999998
   14.79305553   94.81939697    0.36000001    2.80999994
   14.79527855   89.91089630    0.34000000    2.76999998
   14.79861164   97.29789734    0.36000001    2.78999996
   14.80166721   83.43209839    0.34000000    2.78999996
   14.80777836   83.43209839    0.34000000    2.78999996
   14.81222248   92.70249939    0.36000001    2.78999996
   14.81527805   87.71109772    0.34000000    2.76999998
   14.81861115   88.74780273    0.36000001    2.76999998
   14.82194424   98.24069977    0.36000001    2.76999998
   14.82499981   82.24449921    0.34000000    2.78999996
   14.82611084   83.93209839    0.34000000    2.78999996
   14.82861137   82.21440125    0.34000000    2.78999996
   14.83194447   94.92479706    0.34000000    2.78999996
   14.83500004   99.96520233    0.34000000    2.78999996
   14.83833313   96.27040100    0.34000000    2.78999996
   14.84166622   90.34269714    0.31999999    2.78999996
   14.84472179   86.60410309    0.31999999    2.76999998
   14.85055637   86.60410309    0.34000000    2.78999996
   14.85472298   89.73600006    0.31999999    2.78999996
   14.85805607   98.05110168    0.31999999    2.78999996
   14.85944462  101.47699738    0.31999999    2.78999996
   14.86166668   94.66519928    0.31999999    2.78999996
   14.86500072   80.28369904    0.31999999    2.78999996
   14.86805534   90.08630371    0.31999999    2.78999996
   14.87138939   91.76799774    0.31999999    2.78999996
   14.87444496   92.14150238    0.31999999    2.78999996
   14.87777805   96.41369629    0.31999999    2.80999994
   14.88111115   87.83529663    0.31999999    2.76999998
   14.88416672   80.76750183    0.31999999    2.78999996
   14.88749981   89.32440186    0.34000000    2.78999996
   14.89361095   89.32440186    0.31999999    2.78999996
   14.89777756   84.24369812    0.31999999    2.78999996
   14.90083313   82.40950012    0.31999999    2.78999996
   14.90416622   76.00420380    0.31999999    2.78999996
   14.90722179   86.28630066    0.31999999    2.78999996
   14.91055489   88.61270142    0.31999999    2.76999998
   14.91388893   85.02549744    0.34000000    2.78999996
   14.91694450   84.61620331    0.34000000    2.78999996
   14.92027855   82.16719818    0.34000000    2.78999996
   14.92361164   80.47389984    0.34000000    2.78999996
   14.92611122   76.03070068    0.34000000    2.78999996
   14.92722225   77.92019653    0.34000000    2.78999996
   14.93055630   85.10019684    0.34000000    2.78999996
   14.93638897   85.10019684    0.34000000    2.78999996
   14.94055557   80.53279877    0.34000000    2.78999996
   14.94361115   84.89810181    0.34000000    2.78999996
   14.94694424   88.55449677    0.34000000    2.78999996
   14.95027733   89.44360352    0.34000000    2.78999996
   14.95333290   87.84799957    0.34000000    2.78999996
   14.95666695   90.50779724    0.34000000    2.78999996
   14.95972157   93.96569824    0.34000000    2.78999996
   14.96055508   89.12380219    0.34000000    2.78999996
   14.96361065   91.29769897    0.34000000    2.78999996
   14.96694374   96.22810364    0.34000000    2.76999998
   14.96999931   92.69380188    0.34000000    2.78999996
   14.97333336   95.87090302    0.34000000    2.78999996
   14.97916603   95.87090302    0.34000000    2.78999996
   14.98333359   91.93129730    0.34000000    2.80999994
   14.98666668   89.49739838    0.34000000    2.78999996
   14.98972225   98.33709717    0.34000000    2.78999996
   14.99277782   89.39689636    0.34000000    2.78999996
   14.99333382   88.11540222    0.34000000    2.78999996
   14.99666691  103.01599884    0.34000000    2.80999994
   15.00000000   86.82630157    0.34000000    2.80999994
   15.00305557   99.11049652    0.34000000    2.78999996
   15.00638866   87.14689636    0.34000000    2.80999994
   15.00944424   99.82520294    0.34000000    2.80999994
   15.01277733   92.14489746    0.34000000    2.78999996
   15.01611137  100.53299713    0.34000000    2.80999994
   15.02194405  100.53299713    0.34000000    2.78999996
   15.02611065  105.43499756    0.34000000    2.78999996
   15.02666664   95.85659790    0.34000000    2.78999996
   15.02999973   91.33840179    0.34000000    2.80999994
   15.03305531   91.21230316    0.34000000    2.80999994
   15.03638935   90.03299713    0.34000000    2.78999996
   15.03972244   86.83799744    0.34000000    2.78999996
   15.04277802   90.14040375    0.34000000    2.78999996
   15.04611111   87.32869720    0.34000000    2.80999994
   15.04916668   91.45529938    0.31999999    2.78999996
   15.05249977   89.47149658    0.34000000    2.78999996
   15.05583382   92.67739868    0.31999999    2.78999996
   15.05888939   88.98320007    0.31999999    2.80999994
   15.05944443  103.99700165    0.31999999    2.80999994
   15.06500053  103.99700165    0.31999999    2.80999994
   15.06916618   88.09819794    0.31999999    2.80999994
   15.07222176   97.89649963    0.31999999    2.78999996
   15.07555580   92.85060120    0.31999999    2.78999996
   15.07861137   91.52819824    0.31999999    2.80999994
   15.08194447   99.06849670    0.31999999    2.78999996
   15.08527756   94.67749786    0.31999999    2.78999996
   15.08833313   81.55680084    0.31999999    2.80999994
   15.09166622   92.15350342    0.31999999    2.78999996
   15.09305477   93.52380371    0.31999999    2.78999996
   15.09555531   91.96469879    0.31999999    2.78999996
   15.09861088   87.09739685    0.31999999    2.80999994
   15.10194492   85.13400269    0.31999999    2.78999996
   15.10777855   85.13400269    0.31999999    2.80999994
   15.11194515   87.67630005    0.31999999    2.78999996
   15.11500072   90.78399658    0.31999999    2.78999996
   15.11833382   92.17600250    0.31999999    2.78999996
   15.12166691   90.95539856    0.31999999    2.80999994
   15.12472248   85.35829926    0.31999999    2.80999994
   15.12638855   91.21060181    0.31999999    2.80999994
   15.12833309  103.73899841    0.31999999    2.80999994
   15.13166714   94.99659729    0.31999999    2.80999994
   15.13472176   84.76930237    0.31999999    2.80999994
   15.13805580   85.04060364    0.31999999    2.78999996
   15.14138889   99.60230255    0.31999999    2.78999996
   15.14444447   94.53679657    0.31999999    2.78999996
   15.15055561   94.53679657    0.30000001    2.78999996
   15.15472221   91.11340332    0.30000001    2.78999996
   15.15805531   86.55819702    0.31999999    2.78999996
   15.15972137   98.48600006    0.31999999    2.78999996
   15.16166592   91.30249786    0.31999999    2.78999996
   15.16499996   88.29640198    0.31999999    2.80999994
   15.16833401   88.93219757    0.31999999    2.80999994
   15.17138958   87.90509796    0.31999999    2.80999994
   15.17472267  100.96299744    0.31999999    2.80999994
   15.17805576   95.01519775    0.31999999    2.80999994
   15.18111134  101.30899811    0.30000001    2.78999996
   15.18444443   98.34500122    0.31999999    2.78999996
   15.18750000   96.80390167    0.31999999    2.78999996
   15.19333363   96.80390167    0.31999999    2.78999996
   15.19750023   95.94159698    0.31999999    2.78999996
   15.20083332   83.73690033    0.31999999    2.80999994
   15.20416641   90.89499664    0.31999999    2.80999994
   15.20722198   92.46060181    0.31999999    2.82999992
   15.21055508   88.77600098    0.31999999    2.78999996
   15.21361065   89.96109772    0.31999999    2.78999996
   15.21694374  101.93499756    0.31999999    2.80999994
   15.34083271   -1.00000000   -1.00000000   -1.00000000
   15.51111126   -1.00000000   -1.00000000   -1.00000000
   15.72944355   -1.00000000   -1.00000000   -1.00000000
   15.88416672   69.39270020    0.28000000    2.80999994
   15.88722229  101.70400238    0.28000000    2.80999994
   15.89055538  112.86100006    0.30000001    2.82999992
   15.89388847  107.38200378    0.30000001    2.82999992
   15.89694405  105.07599640    0.28000000    2.80999994
   15.90027714  107.05400085    0.28000000    2.80999994
   15.90444374  107.05400085    0.30000001    2.82999992
   15.90861034   99.14479828    0.30000001    2.82999992
   15.91166592  119.89199829    0.28000000    2.82999992
   15.91499996  108.87500000    0.28000000    2.82999992
   15.91750050   99.77729797    0.28000000    2.82999992
   15.91861153  108.72399902    0.28000000    2.82999992
   15.92194462  107.56400299    0.30000001    2.82999992
   15.92527771  110.59200287    0.30000001    2.80999994
   15.92833328  109.50900269    0.30000001    2.82999992
   15.93166733  114.88800049    0.30000001    2.80999994
   15.93500042  110.08599854    0.30000001    2.82999992
   15.93805599  132.94799805    0.30000001    2.82999992
   15.94138908  125.06900024    0.30000001    2.82999992
   15.94722271  125.06900024    0.30000001    2.82999992
   15.95138836  112.00099945    0.30000001    2.80999994
   15.95472240  123.55200195    0.30000001    2.82999992
   15.95777798  113.16300201    0.30000001    2.80999994
   15.96111107  105.93499756    0.30000001    2.80999994
   15.96416664  108.41200256    0.30000001    2.82999992
   15.96749973   92.43340302    0.30000001    2.80999994
   15.97083282  118.07199860    0.30000001    2.80999994
   15.97388840  123.55200195    0.30000001    2.82999992
   15.97722149  116.05100250    0.30000001    2.80999994
   15.98055553  116.52700043    0.30000001    2.80999994
   15.98361111  114.62500000    0.30000001    2.80999994
   15.98416710  107.62599945    0.31999999    2.82999992
   15.99000072  107.62599945    0.31999999    2.82999992
   15.99416733  117.42299652    0.31999999    2.80999994
   15.99750042  110.31900024    0.30000001    2.82999992
   16.00055504  107.34100342    0.30000001    2.82999992
   16.00388908  115.23600006    0.30000001    2.82999992
   16.00722313  102.95899963    0.30000001    2.82999992
   16.01027870  100.62200165    0.30000001    2.82999992
   16.01361084   99.96080017    0.30000001    2.82999992
   16.01694489   90.31199646    0.30000001    2.80999994
   16.01749992  100.16899872    0.30000001    2.80999994
   16.02055550  103.26399994    0.30000001    2.82999992
   16.02361107  110.26399994    0.30000001    2.80999994
   16.02694511  110.23999786    0.30000001    2.80999994
   16.03305435  110.23999786    0.30000001    2.80999994
   16.03694344  120.84799957    0.30000001    2.80999994
   16.04027748  107.74900055    0.30000001    2.80999994
   16.04361153  111.12100220    0.30000001    2.80999994
   16.04666710  105.52799988    0.30000001    2.80999994
   16.04999924  111.37699890    0.30000001    2.80999994
   16.05083275  117.93599701    0.30000001    2.80999994
   16.05360985  112.19000244    0.30000001    2.80999994
   16.05666542  111.09400177    0.30000001    2.82999992
   16.05999947  105.80400085    0.30000001    2.82999992
   16.06333351  110.17199707    0.30000001    2.82999992
   16.06638718  103.88099670    0.30000001    2.82999992
   16.06972313  100.37400055    0.30000001    2.82999992
   16.07583427  100.37400055    0.30000001    2.82999992
   16.08000183  103.62200165    0.31999999    2.82999992
   16.08305550  111.81900024    0.30000001    2.82999992
   16.08416748   98.88369751    0.30000001    2.82999992
   16.08694458   98.52610016    0.30000001    2.82999992
   16.09000015  109.19899750    0.30000001    2.80999994
   16.09333420   95.48120117    0.31999999    2.82999992
   16.09666824   99.86779785    0.31999999    2.80999994
   16.09972191  109.68900299    0.31999999    2.82999992
   16.10305595  101.45800018    0.30000001    2.80999994
   16.10639000  106.65699768    0.30000001    2.80999994
   16.10944557   95.73000336    0.30000001    2.82999992
   16.11277771  106.30699921    0.30000001    2.80999994
   16.11861038  106.30699921    0.30000001    2.82999992
   16.12277794  105.65499878    0.30000001    2.82999992
   16.12611198  101.52700043    0.30000001    2.80999994
   16.12916756  109.93299866    0.30000001    2.82999992
   16.13249969  102.82900238    0.30000001    2.82999992
   16.13555527  108.62699890    0.30000001    2.82999992
   16.13888931  113.38899994    0.30000001    2.82999992
   16.14222145  102.70200348    0.30000001    2.82999992
   16.14527702   91.70950317    0.30000001    2.82999992
   16.14861107  102.17600250    0.30000001    2.82999992
   16.15083313  104.22699738    0.30000001    2.82999992
   16.15222168   98.48210144    0.30000001    2.82999992
   16.15527725   98.10780334    0.31999999    2.80999994
   16.16138840   98.10780334    0.31999999    2.82999992
   16.16555595  100.89700317    0.31999999    2.82999992
   16.16888809   94.64510345    0.34000000    2.82999992
   16.17194366  112.94300079    0.31999999    2.82999992
   16.17527771   93.94039917    0.30000001    2.80999994
   16.17860985  100.20999908    0.30000001    2.82999992
   16.18166542   90.53369904    0.30000001    2.82999992
   16.18416595   92.91480255    0.30000001    2.82999992
   16.18555450   88.49629974    0.30000001    2.82999992
   16.18861008  106.45500183    0.30000001    2.82999992
   16.19194412  102.37699890    0.30000001    2.80999994
   16.19527626   99.88259888    0.30000001    2.82999992
   16.19833183  104.53099823    0.30000001    2.82999992
   16.20444489  104.53099823    0.31999999    2.82999992
   16.20833397  101.60700226    0.30000001    2.82999992
   16.21166801   91.78769684    0.30000001    2.80999994
   16.21527863  107.29100037    0.28000000    2.82999992
   16.21750069  101.33200073    0.28000000    2.82999992
   16.21888924  105.30400085    0.28000000    2.82999992
   16.22222328   94.31159973    0.28000000    2.82999992
   16.22527885  108.95200348    0.28000000    2.82999992
   16.22861099  104.51499939    0.28000000    2.82999992
   16.23166656  104.12699890    0.28000000    2.82999992
   16.23500061   98.25270081    0.28000000    2.82999992
   16.23833275   89.94969940    0.28000000    2.82999992
   16.24138832   97.27439880    0.30000001    2.82999992
   16.24722290   97.27439880    0.28000000    2.84999990
   16.25138855   95.51499939    0.30000001    2.82999992
   16.25444412   92.72820282    0.30000001    2.82999992
   16.25777817   98.92359924    0.28000000    2.82999992
   16.26111031   99.96140289    0.28000000    2.82999992
   16.26416588   98.59200287    0.28000000    2.82999992
   16.26749992   99.18720245    0.28000000    2.82999992
   16.27055550  109.29100037    0.28000000    2.82999992
   16.27388954  100.71299744    0.28000000    2.82999992
   16.27722168   98.94249725    0.28000000    2.82999992
   16.28027725  109.44499969    0.28000000    2.82999992
   16.28361130  102.25800323    0.28000000    2.82999992
   16.28416634  104.55400085    0.28000000    2.82999992
   16.28999901  104.55400085    0.25999999    2.82999992
   16.29416656  105.95800018    0.25999999    2.82999992
   16.29722214  110.85399628    0.28000000    2.84999990
   16.30055428  101.60500336    0.28000000    2.82999992
   16.30388832  110.03800201    0.28000000    2.82999992
   16.30694389  104.17199707    0.30000001    2.82999992
   16.31027794  106.25499725    0.30000001    2.82999992
   16.31361008   92.63369751    0.30000001    2.82999992
   16.31666756   96.34190369    0.30000001    2.82999992
   16.31750107   91.31819916    0.30000001    2.82999992
   16.32027817  110.42600250    0.30000001    2.82999992
   16.32361221  105.82399750    0.30000001    2.82999992
   16.32666779  105.17600250    0.30000001    2.82999992
   16.33277893  105.17600250    0.30000001    2.82999992
   16.33694458  106.68000031    0.28000000    2.82999992
   16.34027863  105.70600128    0.28000000    2.82999992
   16.34361267   96.72350311    0.28000000    2.82999992
   16.34666824  110.29799652    0.28000000    2.82999992
   16.35000038   94.09500122    0.28000000    2.82999992
   16.35083389  102.04799652    0.28000000    2.82999992
   16.35361099  112.90699768    0.28000000    2.82999992
   16.35694504  111.27799988    0.28000000    2.80999994
   16.36000061  101.09600067    0.28000000    2.82999992
   16.36333466  118.22000122    0.28000000    2.82999992
   16.36638832  115.45800018    0.28000000    2.82999992
   16.36972237   97.69680023    0.28000000    2.82999992
   16.37583351   97.69680023    0.28000000    2.82999992
   16.37972260  118.45200348    0.28000000    2.82999992
   16.38305473  107.39099884    0.28000000    2.82999992
   16.38416672  117.19799805    0.28000000    2.82999992
   16.38666725  117.52799988    0.28000000    2.82999992
   16.38999939  109.32399750    0.28000000    2.82999992
   16.39305496  118.99600220    0.28000000    2.82999992
   16.39638901  109.97299957    0.28000000    2.82999992
   16.39972115  117.53900146    0.28000000    2.82999992
   16.40277672  125.35900116    0.28000000    2.82999992
   16.40611076  130.84100342    0.28000000    2.82999992
   16.40916634  120.99600220    0.25999999    2.82999992
   16.41250038  121.40200043    0.25999999    2.82999992
   16.41860962  121.40200043    0.28000000    2.82999992
   16.42277718  120.54399872    0.28000000    2.82999992
   16.42583275  126.40100098    0.28000000    2.82999992
   16.42916679  134.39199829    0.28000000    2.82999992
   16.43249893  130.06100464    0.28000000    2.82999992
   16.43555450  121.82199860    0.28000000    2.82999992
   16.43888855  136.49699402    0.25999999    2.82999992
   16.44194412  133.00100708    0.25999999    2.82999992
   16.44527626  124.44799805    0.25999999    2.82999992
   16.44861031  132.69999695    0.25999999    2.82999992
   16.45083427  120.40899658    0.25999999    2.84999990
   16.45222282  124.57800293    0.25999999    2.84999990
   16.45555687  130.24899292    0.28000000    2.82999992
   16.46138954  130.24899292    0.25999999    2.80999994
   16.46555710  123.59500122    0.25999999    2.82999992
   16.46888924  119.80599976    0.25999999    2.82999992
   16.47194481  124.31700134    0.25999999    2.80999994
   16.47527885  121.48200226    0.25999999    2.82999992
   16.47861099  132.55700684    0.25999999    2.82999992
   16.48166656  125.69699860    0.28000000    2.82999992
   16.48416710  118.36799622    0.28000000    2.82999992
   16.48527718  120.43399811    0.28000000    2.82999992
   16.48861122  129.59899902    0.28000000    2.82999992
   16.49166679  126.53700256    0.28000000    2.82999992
   16.49500084  124.44100189    0.28000000    2.82999992
   16.49805641  124.92299652    0.28000000    2.82999992
   16.50416756  124.92299652    0.28000000    2.82999992
   16.50833321  121.66100311    0.28000000    2.82999992
   16.51166725  106.28399658    0.28000000    2.82999992
   16.51472282  115.89800262    0.28000000    2.82999992
   16.51749992  122.75499725    0.28000000    2.82999992
   16.51861000  124.92600250    0.28000000    2.82999992
   16.52194405  130.63299561    0.28000000    2.82999992
   16.52499962  112.99199677    0.28000000    2.82999992
   16.52833366  112.30999756    0.28000000    2.82999992
   16.53166580  108.74099731    0.28000000    2.82999992
   16.53472137  116.71399689    0.30000001    2.82999992
   16.53805542  120.26300049    0.30000001    2.82999992
   16.54111099  113.06500244    0.30000001    2.82999992
   16.54722214  113.06500244    0.30000001    2.82999992
   16.55111122  116.89700317    0.30000001    2.82999992
   16.55444336  109.94799805    0.31999999    2.82999992
   16.55777740  113.78399658    0.31999999    2.82999992
   16.56083298  108.82800293    0.31999999    2.82999992
   16.56416512  107.22499847    0.31999999    2.82999992
   16.56750107  100.65599823    0.31999999    2.82999992
   16.57055664  102.85600281    0.31999999    2.82999992
   16.57389069  113.73999786    0.31999999    2.82999992
   16.57694626  106.73799896    0.30000001    2.82999992
   16.58027840  112.37699890    0.30000001    2.82999992
   16.58361244  107.96800232    0.30000001    2.82999992
   16.58416748  112.26399994    0.28000000    2.82999992
   16.59000015  112.26399994    0.28000000    2.82999992
   16.59416771  112.55000305    0.28000000    2.82999992
   16.59722328  111.36000061    0.28000000    2.82999992
   16.60055542  115.19599915    0.28000000    2.82999992
   16.60388947  115.70099640    0.28000000    2.82999992
   16.60694504  111.98600006    0.28000000    2.82999992
   16.61027908   96.31600189    0.28000000    2.82999992
   16.61333466  105.17099762    0.28000000    2.82999992
   16.61666679  114.54900360    0.28000000    2.82999992
   16.61750031  121.91400146    0.28000000    2.82999992
   16.62027740  103.36299896    0.28000000    2.82999992
   16.62361145  111.54900360    0.28000000    2.82999992
   16.62666702   94.04620361    0.28000000    2.82999992
   16.63277817   94.04620361    0.28000000    2.82999992
   16.63694382  113.97399902    0.28000000    2.82999992
   16.64027786  109.52500153    0.28000000    2.82999992
   16.64333344  100.51699829    0.30000001    2.82999992
   16.64666748  116.88899994    0.30000001    2.82999992
   16.64972115  101.09400177    0.30000001    2.82999992
   16.65083313  102.09400177    0.30000001    2.82999992
   16.65333366  115.01399994    0.30000001    2.82999992
   16.65666580  109.28299713    0.28000000    2.82999992
   16.65972137  106.14199829    0.30000001    2.82999992
   16.66305542  109.72399902    0.28000000    2.82999992
   16.66638756  114.64499664    0.30000001    2.82999992
   16.66944313  108.92299652    0.28000000    2.82999992
   16.67555428  108.92299652    0.28000000    2.82999992
   16.67972183  117.36000061    0.28000000    2.80999994
   16.68305397  107.85800171    0.28000000    2.82999992
   16.68416595  112.61399841    0.28000000    2.82999992
   16.68666649  102.00399780    0.28000000    2.82999992
   16.68999863  106.26999664    0.28000000    2.82999992
   16.69305420  102.51399994    0.30000001    2.82999992
   16.69638824  107.67099762    0.28000000    2.82999992
   16.69972038  110.39499664    0.28000000    2.82999992
   16.70277786  107.92099762    0.28000000    2.82999992
   16.70611191  102.16000366    0.28000000    2.82999992
   16.70916748  111.52100372    0.28000000    2.82999992
   16.71250153  102.49600220    0.28000000    2.82999992
   16.71861076  102.49600220    0.25999999    2.82999992
   16.72249985  104.69799805    0.25999999    2.82999992
   16.72583389  107.96299744    0.25999999    2.82999992
   16.72916794  107.10500336    0.25999999    2.82999992
   16.73222351  102.79000092    0.25999999    2.82999992
   16.73555565   95.56620026    0.28000000    2.82999992
   16.73888969  106.86499786    0.28000000    2.82999992
   16.74194527  110.05999756    0.25999999    2.82999992
   16.74527740  113.22000122    0.25999999    2.84999990
   16.74861145   94.32579803    0.25999999    2.82999992
   16.75083351  105.93599701    0.25999999    2.82999992
   16.75222206  111.39499664    0.25999999    2.82999992
   16.75555611  106.94699860    0.28000000    2.82999992
   16.76138878  106.94699860    0.30000001    2.82999992
   16.76555634  104.43900299    0.30000001    2.84999990
   16.76861000  106.64900208    0.30000001    2.82999992
   16.77194405  105.73400116    0.30000001    2.82999992
   16.77527809   91.81580353    0.30000001    2.82999992
   16.77833366  106.28500366    0.31999999    2.82999992
   16.78166580  101.17500305    0.31999999    2.80999994
   16.78416634  102.69100189    0.31999999    2.82999992
   16.78527641   99.77069855    0.31999999    2.82999992
   16.78861046   95.47419739    0.31999999    2.82999992
   16.79166603  108.84500122    0.34000000    2.82999992
   16.79500008   99.85649872    0.31999999    2.82999992
   16.79833221   97.81600189    0.31999999    2.82999992
   16.80416679   97.81600189    0.31999999    2.82999992
   16.80833244  108.83999634    0.31999999    2.82999992
   16.81166649  103.22699738    0.30000001    2.82999992
   16.81472206  118.78700256    0.30000001    2.82999992
   16.81777954  107.90799713    0.30000001    2.82999992
   16.81833458  120.99600220    0.30000001    2.82999992
   16.82166672  108.83300018    0.30000001    2.82999992
   16.82472229  102.62899780    0.28000000    2.82999992
   16.82805634  115.86299896    0.30000001    2.84999990
   16.83139038  118.03199768    0.28000000    2.82999992
   16.83444595  102.33599854    0.28000000    2.84999990
   16.83777809  100.65899658    0.28000000    2.82999992
   16.84111214  105.43800354    0.28000000    2.82999992
   16.84694481  105.43800354    0.28000000    2.82999992
   16.85111237   94.99939728    0.30000001    2.82999992
   16.85444450  109.99600220    0.28000000    2.82999992
   16.85750008  108.88200378    0.28000000    2.82999992
   16.86083412  103.88200378    0.28000000    2.82999992
   16.86416626  105.53700256    0.28000000    2.84999990
   16.86722183  121.85299683    0.28000000    2.82999992
   16.87055588  120.42199707    0.25999999    2.82999992
   16.87361145   98.94280243    0.28000000    2.82999992
   16.87694550  106.91400146    0.28000000    2.82999992
   16.88027763  100.89900208    0.28000000    2.82999992
   16.88333321   95.77960205    0.28000000    2.84999990
   16.88416672  121.43699646    0.28000000    2.84999990
   16.90499878  121.43699646    0.25999999    2.82999992
   16.90916634  105.19100189    0.25999999    2.82999992
   16.91222191  112.45500183    0.25999999    2.82999992
   16.91555595   98.35739899    0.28000000    2.82999992
   16.91777802  118.35700226    0.28000000    2.82999992
   16.91916656  100.96700287    0.28000000    2.82999992
   16.92249870  113.33599854    0.25999999    2.82999992
   16.92555428   94.34619904    0.25999999    2.82999992
   16.92888832  108.14600372    0.25999999    2.82999992
   16.93222237   94.52349854    0.25999999    2.82999992
   16.93527603   96.22190094    0.25999999    2.82999992
   16.93861008   95.32959747    0.25999999    2.82999992
   16.94166565  106.77200317    0.25999999    2.82999992
   16.94777679  106.77200317    0.28000000    2.82999992
   16.95194435  110.76499939    0.28000000    2.82999992
   16.95527840  119.03900146    0.28000000    2.82999992
   16.95833397  102.65399933    0.28000000    2.82999992
   16.96166801  110.23899841    0.28000000    2.82999992
   16.96472359  108.00299835    0.28000000    2.82999992
   16.96805573  100.08799744    0.28000000    2.82999992
   16.97138977  103.48799896    0.28000000    2.82999992
   16.97444534  112.90899658    0.25999999    2.82999992
   16.97777748  101.00199890    0.25999999    2.82999992
   16.98083305   99.73660278    0.25999999    2.82999992
   16.98416710  100.55400085    0.25999999    2.82999992
   16.98472214   94.44539642    0.25999999    2.82999992
   16.99055672   94.44539642    0.25999999    2.82999992
   16.99472237   99.39099884    0.28000000    2.82999992
   16.99805641  108.33499908    0.28000000    2.82999992
   17.00111198   93.40570068    0.30000001    2.82999992
   17.00444412   93.70339966    0.30000001    2.82999992
   17.00749969  106.50199890    0.30000001    2.82999992
   17.01083374  104.19999695    0.31999999    2.82999992
   17.01416588  100.50900269    0.31999999    2.82999992
   17.01722145  100.22599792    0.31999999    2.82999992
   17.01805496  102.18299866    0.31999999    2.82999992
   17.02111053   96.92720032    0.30000001    2.82999992
   17.02416611   97.28579712    0.30000001    2.82999992
   17.02750015  102.05500031    0.30000001    2.82999992
   17.03333282  102.05500031    0.30000001    2.82999992
   17.03750038   98.78730011    0.30000001    2.84999990
   17.04083252  102.52899933    0.30000001    2.82999992
   17.04388809   97.86650085    0.30000001    2.82999992
   17.04722214   98.88670349    0.30000001    2.82999992
   17.05055428   99.48850250    0.30000001    2.82999992
   17.05138779   91.87039948    0.30000001    2.82999992
   17.05416679  114.30200195    0.28000000    2.84999990
   17.05722237   94.82910156    0.28000000    2.82999992
   17.06055450  100.76100159    0.28000000    2.82999992
   17.06388855  100.80300140    0.28000000    2.82999992
   17.06694603  108.87999725    0.28000000    2.82999992
   17.07027817  108.93399811    0.28000000    2.82999992
   17.07638931  108.93399811    0.28000000    2.82999992
   17.08055687   98.21459961    0.30000001    2.84999990
   17.08361244  104.22100067    0.30000001    2.82999992
   17.08472252  107.59100342    0.30000001    2.82999992
   17.08722305   92.80030060    0.30000001    2.82999992
   17.09027863  114.01899719    0.28000000    2.84999990
   17.09361267   99.03119659    0.28000000    2.82999992
   17.09694481  101.35500336    0.28000000    2.84999990
   17.10000038  109.07800293    0.28000000    2.82999992
   17.10333443  107.78800201    0.28000000    2.82999992
   17.10666656   94.47070313    0.28000000    2.82999992
   17.10972214   94.56629944    0.28000000    2.82999992
   17.11305618  113.78099823    0.28000000    2.80999994
   17.11916733  113.78099823    0.28000000    2.82999992
   17.12333298  103.85199738    0.28000000    2.82999992
   17.12638855  101.15699768    0.28000000    2.82999992
   17.12972260  102.53099823    0.28000000    2.84999990
   17.13305473  104.96700287    0.30000001    2.82999992
   17.13611031  112.67800140    0.28000000    2.84999990
   17.13944435  108.70400238    0.28000000    2.84999990
   17.14277840   97.66680145    0.28000000    2.82999992
   17.14583397  114.99299622    0.30000001    2.82999992
   17.14916611  105.49600220    0.28000000    2.82999992
   17.15138817  117.25199890    0.31999999    2.82999992
   17.15277672  112.15399933    0.31999999    2.82999992
   17.15583229  112.89199829    0.34000000    2.82999992
   17.16194344  112.89199829    0.38000000    2.82999992
   17.16611099   88.01039886    0.38000000    2.82999992
   17.16944313   99.86900330    0.38000000    2.82999992
   17.17249870   88.90670013    0.38000000    2.82999992
   17.17583275   99.45809937    0.40000001    2.82999992
   17.17916679  100.02999878    0.38000000    2.80999994
   17.18222237  102.77700043    0.38000000    2.82999992
   17.18472099   94.74590302    0.40000001    2.82999992
   17.18610954  101.04499817    0.40000001    2.82999992
   17.18916512   98.28959656    0.40000001    2.82999992
   17.19249916   93.70140076    0.40000001    2.82999992
   17.19583321  110.38200378    0.40000001    2.80999994
   17.19888878  106.74099731    0.40000001    2.82999992
   17.20472336  106.74099731    0.34000000    2.82999992
   17.20888901   91.25700378    0.34000000    2.82999992
   17.21222305   92.05989838    0.34000000    2.82999992
   17.21555710   94.67350006    0.31999999    2.82999992
   17.21805573  107.52100372    0.31999999    2.82999992
   17.21916771  101.73500061    0.31999999    2.82999992
   17.22222328  109.79000092    0.31999999    2.82999992
   17.22555542   95.92819977    0.31999999    2.82999992
   17.22888947  106.66799927    0.31999999    2.82999992
   17.23194504   99.58779907    0.31999999    2.82999992
   17.23527718  107.28600311    0.30000001    2.82999992
   17.23861122  110.68299866    0.30000001    2.82999992
   17.24166679  113.74900055    0.31999999    2.82999992
   17.24777794  113.74900055    0.30000001    2.82999992
   17.25194359  100.77799988    0.30000001    2.82999992
   17.25499916  110.10099792    0.30000001    2.82999992
   17.25833321  104.53600311    0.30000001    2.82999992
   17.26138878  103.65599823    0.28000000    2.82999992
   17.26472282  107.04199982    0.30000001    2.82999992
   17.26805496  106.31700134    0.28000000    2.82999992
   17.27111053  107.62300110    0.28000000    2.82999992
   17.27444458  107.32800293    0.30000001    2.82999992
   17.27750015  118.81199646    0.30000001    2.82999992
   17.28083229  110.36799622    0.30000001    2.82999992
   17.28416634  110.31400299    0.28000000    2.84999990
   17.28472137  110.84300232    0.28000000    2.84999990
   17.29055595  110.84300232    0.25999999    2.82999992
   17.29472160  104.05899811    0.28000000    2.84999990
   17.29777718  109.83000183    0.28000000    2.82999992
   17.30111122  109.57199860    0.25999999    2.82999992
   17.30444336  112.09600067    0.25999999    2.82999992
   17.30749893  107.34600067    0.25999999    2.82999992
   17.31083298  105.51699829    0.28000000    2.82999992
   17.31388855  117.87400055    0.28000000    2.84999990
   17.31722260   96.65149689    0.28000000    2.82999992
   17.31805611  106.81999969    0.28000000    2.84999990
   17.32083511  103.04399872    0.28000000    2.82999992
   17.32416725  112.16300201    0.28000000    2.82999992
   17.32722282  105.66300201    0.28000000    2.82999992
   17.33333397  105.66300201    0.28000000    2.82999992
   17.33750153  115.34300232    0.30000001    2.82999992
   17.34083366  116.34200287    0.28000000    2.82999992
   17.34388924  115.17400360    0.28000000    2.82999992
   17.34722328  102.88400269    0.30000001    2.82999992
   17.35027885  102.66400146    0.30000001    2.82999992
   17.35138893  113.54699707    0.30000001    2.82999992
   17.35416794  104.73400116    0.30000001    2.82999992
   17.35722351  105.73200226    0.28000000    2.82999992
   17.36055565  114.65200043    0.30000001    2.82999992
   17.36388969  112.47299957    0.31999999    2.82999992
   17.36694527   97.93509674    0.31999999    2.82999992
   17.37027740  118.81199646    0.31999999    2.80999994
   17.37611198  118.81199646    0.34000000    2.82999992
   17.38027763  105.69300079    0.31999999    2.82999992
   17.38361168  119.69899750    0.31999999    2.82999992
   17.38472176  114.40100098    0.31999999    2.84999990
   17.38722229  118.94799805    0.31999999    2.82999992
   17.39027786  104.08200073    0.30000001    2.82999992
   17.39361191  118.03900146    0.30000001    2.82999992
   17.39694405  116.80599976    0.31999999    2.80999994
   17.39999962  101.80799866    0.31999999    2.80999994
   17.40333366  105.65000153    0.31999999    2.82999992
   17.40666580  105.57800293    0.31999999    2.82999992
   17.40972137  107.21900177    0.34000000    2.82999992
   17.41305542  109.93499756    0.31999999    2.82999992
   17.41916656  109.93499756    0.31999999    2.82999992
   17.42305565  111.42700195    0.31999999    2.82999992
   17.42638779  114.86299896    0.31999999    2.80999994
   17.42972183  114.00700378    0.34000000    2.82999992
   17.43277740  117.31400299    0.34000000    2.82999992
   17.43610954  118.66899872    0.31999999    2.80999994
   17.43944359  114.98400116    0.31999999    2.82999992
   17.44249916  116.10399628    0.31999999    2.82999992
   17.44583321  112.07099915    0.31999999    2.80999994
   17.44888878  113.37000275    0.31999999    2.82999992
   17.45138931  115.51799774    0.30000001    2.82999992
   17.45277786  107.13500214    0.30000001    2.82999992
   17.45583344  109.49600220    0.30000001    2.82999992
   17.46194458  109.49600220    0.30000001    2.82999992
   17.46611214  113.19699860    0.28000000    2.84999990
   17.46916771  120.04100037    0.28000000    2.82999992
   17.47249985  115.68199921    0.28000000    2.80999994
   17.47583389  122.88300323    0.28000000    2.82999992
   17.47888947  110.00299835    0.28000000    2.82999992
   17.48222351  110.68299866    0.25999999    2.80999994
   17.48472214  100.68299866    0.28000000    2.82999992
   17.48583412  101.29399872    0.28000000    2.82999992
   17.48916626  110.53099823    0.28000000    2.82999992
   17.49222183  115.89900208    0.28000000    2.82999992
   17.49555588  105.68499756    0.30000001    2.82999992
   17.49888992  108.83200073    0.30000001    2.82999992
   17.50472260  108.83200073    0.30000001    2.82999992
   17.50888824  108.91799927    0.30000001    2.82999992
   17.51222229  111.49199677    0.30000001    2.82999992
   17.51527786  118.28099823    0.30000001    2.80999994
   17.51805496  111.90399933    0.30000001    2.82999992
   17.51888847  120.24900055    0.30000001    2.82999992
   17.52194405  117.18099976    0.31999999    2.82999992
   17.52527809  100.21099854    0.31999999    2.82999992
   17.52861023  118.58200073    0.31999999    2.82999992
   17.53166580  104.47499847    0.31999999    2.82999992
   17.53499985  117.82199860    0.31999999    2.82999992
   17.53833199  112.19699860    0.34000000    2.80999994
   17.54138756  109.43699646    0.34000000    2.82999992
   17.54749870  109.43699646    0.34000000    2.80999994
   17.55166626  116.54799652    0.36000001    2.80999994
   17.55499840  101.12100220    0.36000001    2.80999994
   17.55833244  105.07399750    0.36000001    2.80999994
   17.56138802  111.62599945    0.36000001    2.82999992
   17.56472206  121.62799835    0.36000001    2.82999992
   17.56777954  128.63200378    0.36000001    2.82999992
   17.57111168  103.66400146    0.34000000    2.80999994
   17.57444572  109.29699707    0.36000001    2.80999994
   17.57750130  116.08399963    0.34000000    2.80999994
   17.58083344  108.55200195    0.34000000    2.80999994
   17.58416748  123.55500031    0.34000000    2.82999992
   17.58472252  105.39499664    0.34000000    2.82999992
   17.59055710  105.39499664    0.34000000    2.80999994
   17.59444427  114.94499969    0.34000000    2.82999992
   17.59777832  110.67099762    0.31999999    2.82999992
   17.60111237  116.13600159    0.31999999    2.82999992
   17.60416794  113.71900177    0.30000001    2.82999992
   17.60750008  123.33699799    0.30000001    2.82999992
   17.61083412  117.50900269    0.30000001    2.82999992
   17.61388969  105.43900299    0.30000001    2.80999994
   17.61722183  101.32700348    0.30000001    2.82999992
   17.61805534  106.21299744    0.30000001    2.82999992
   17.62083435  119.20400238    0.30000001    2.80999994
   17.62416649  109.99199677    0.30000001    2.82999992
   17.62722206  124.29199982    0.31999999    2.82999992
   17.63333321  124.29199982    0.31999999    2.82999992
   17.63750076  109.81999969    0.34000000    2.82999992
   17.64055634  112.16600037    0.34000000    2.82999992
   17.64388847  111.86900330    0.34000000    2.80999994
   17.64722252  107.12899780    0.34000000    2.82999992
   17.65027809  116.24199677    0.36000001    2.82999992
   17.65138817  118.60399628    0.36000001    2.82999992
   17.65388870  110.76999664    0.36000001    2.82999992
   17.65722275  105.82700348    0.36000001    2.80999994
   17.66027832  104.68199921    0.38000000    2.80999994
   17.66361046  120.58599854    0.38000000    2.80999994
   17.66666603  108.04900360    0.38000000    2.80999994
   17.67000008  117.81199646    0.40000001    2.80999994
   17.67611122  117.81199646    0.44000000    2.82999992
   17.68027687  111.98500061    0.46000001    2.82999992
   17.68361092  109.06300354    0.47999999    2.82999992
   17.68472099  108.16100311    0.46000001    2.80999994
   17.68722153  106.92500305    0.47999999    2.80999994
   17.69055557  109.17400360    0.44000000    2.80999994
   17.69361115  113.25499725    0.44000000    2.80999994
   17.69694328   97.11090088    0.44000000    2.80999994
   17.70000076   93.79579926    0.44000000    2.82999992
   17.70333481  111.34400177    0.46000001    2.82999992
   17.70666695  110.91100311    0.41999999    2.82999992
   17.70972252  123.25099945    0.40000001    2.82999992
   17.71305656  109.91600037    0.40000001    2.82999992
   17.71888924  109.91600037    0.38000000    2.82999992
   17.72305679  136.49200439    0.36000001    2.80999994
   17.72638893  121.19499969    0.38000000    2.82999992
   17.72944450  112.04499817    0.40000001    2.80999994
   17.73277855  122.38300323    0.41999999    2.80999994
   17.73611069  113.88899994    0.41999999    2.82999992
   17.73916626  119.29499817    0.41999999    2.82999992
   17.74250031  115.00199890    0.44000000    2.82999992
   17.74583435  110.94799805    0.44000000    2.80999994
   17.74888992  117.53299713    0.44000000    2.78999996
   17.75138855  117.22399902    0.44000000    2.80999994
   17.75250053  108.70600128    0.41999999    2.80999994
   17.75583267  113.93099976    0.41999999    2.80999994
   17.76194382  113.93099976    0.47999999    2.80999994
   17.76583290  109.02600098    0.46000001    2.80999994
   17.76916695  123.30100250    0.44000000    2.80999994
   17.77249908  116.79299927    0.41999999    2.80999994
   17.77555466  131.50599670    0.44000000    2.82999992
   17.77888870  105.09700012    0.41999999    2.80999994
   17.78222275  110.55000305    0.40000001    2.82999992
   17.78472137  130.30599976    0.40000001    2.80999994
   17.78583336  116.22499847    0.40000001    2.80999994
   17.78916550  100.66100311    0.40000001    2.82999992
   17.79222107  131.13400269    0.38000000    2.82999992
   17.79555511  116.41500092    0.38000000    2.80999994
   17.79888916  107.52200317    0.36000001    2.80999994
   17.80472183  107.52200317    0.34000000    2.82999992
   17.80888748  114.15599823    0.34000000    2.82999992
   17.81194305  121.12000275    0.34000000    2.82999992
   17.81527710  116.75299835    0.34000000    2.82999992
   17.81805611  114.26799774    0.36000001    2.80999994
   17.81888962  110.04499817    0.36000001    2.80999994
   17.82222366  106.24299622    0.34000000    2.82999992
   17.82527924  113.13700104    0.34000000    2.82999992
   17.82861137  127.34600067    0.34000000    2.80999994
   17.83194542   97.06220245    0.34000000    2.82999992
   17.83500099  114.10800171    0.34000000    2.80999994
   17.83833313   95.67870331    0.34000000    2.82999992
   17.84138870  118.59899902    0.34000000    2.80999994
   17.84749985  118.59899902    0.34000000    2.82999992
   17.85166740  108.73699951    0.36000001    2.82999992
   17.85499954  114.27500153    0.36000001    2.82999992
   17.85805511  106.84600067    0.36000001    2.82999992
   17.86138916  109.49500275    0.36000001    2.82999992
   17.86444473  107.89700317    0.34000000    2.80999994
   17.86777878  126.75299835    0.40000001    2.80999994
   17.87111092  114.26999664    0.41999999    2.82999992
   17.87416649  120.54599762    0.44000000    2.80999994
   17.87750053  115.47699738    0.46000001    2.80999994
   17.88083267  102.10500336    0.46000001    2.80999994
   17.88388824  117.28199768    0.46000001    2.80999994
   17.88472176  113.62200165    0.46000001    2.80999994
   17.89027786  113.62200165    0.44000000    2.82999992
   17.89444351  120.28399658    0.44000000    2.80999994
   17.89777756  119.17099762    0.44000000    2.80999994
   17.90083313  101.97299957    0.46000001    2.80999994
   17.91860962  120.47599792    0.44000000    2.80999994
   17.92111015  117.95099640    0.44000000    2.80999994
   17.92416573  113.24099731    0.41999999    2.80999994
   17.92749977  121.97899628    0.41999999    2.82999992
   17.93333244  121.97899628    0.41999999    2.80999994
   17.93750000  122.33799744    0.41999999    2.80999994
   17.94083214  113.45400238    0.40000001    2.80999994
   17.94388771  104.79299927    0.40000001    2.80999994
   17.94722176  117.14399719    0.40000001    2.80999994
   17.95055580  117.70700073    0.38000000    2.82999992
   17.95194435  109.11399841    0.38000000    2.80999994
   17.95388985  113.12200165    0.40000001    2.80999994
   17.95722389  117.33399963    0.40000001    2.80999994
   17.96027946  119.28199768    0.40000001    2.80999994
   17.96361160  118.28299713    0.40000001    2.80999994
   17.96694565  102.23400116    0.40000001    2.80999994
   17.97000122  106.54599762    0.40000001    2.80999994
   17.97638893  106.54599762    0.40000001    2.80999994
   17.98027802  120.31500244    0.40000001    2.80999994
   17.98361206  119.35399628    0.40000001    2.78999996
   17.98527718  114.37500000    0.40000001    2.80999994
   17.98722267  110.10099792    0.40000001    2.80999994
   17.99055672  113.69999695    0.40000001    2.80999994
   17.99361229  120.58899689    0.41999999    2.80999994
   17.99694443  107.95300293    0.41999999    2.80999994
   18.00027847  111.62300110    0.41999999    2.80999994
   18.00333405  115.28700256    0.41999999    2.80999994
   18.00666618  116.06099701    0.40000001    2.80999994
   18.01000023  124.09100342    0.40000001    2.80999994
   18.01305580  108.94400024    0.40000001    2.80999994
   18.01916695  108.94400024    0.44000000    2.80999994
   18.02333260  111.03600311    0.44000000    2.78999996
   18.02638817  116.24400330    0.44000000    2.82999992
   18.02972221  116.40399933    0.44000000    2.78999996
   18.03305435  119.27799988    0.44000000    2.78999996
   18.03610992  114.28500366    0.41999999    2.80999994
   18.03944397  116.79499817    0.40000001    2.78999996
   18.04249954  121.16000366    0.36000001    2.80999994
   18.04583359  112.80200195    0.34000000    2.80999994
   18.04916573  115.48000336    0.36000001    2.78999996
   18.05194283  110.86000061    0.36000001    2.78999996
   18.05277634  111.00800323    0.36000001    2.82999992
   18.05611038  119.12200165    0.36000001    2.78999996
   18.06194305  119.12200165    0.36000001    2.80999994
   18.06611061  114.85600281    0.36000001    2.80999994
   18.06944466  113.73500061    0.38000000    2.80999994
   18.07250023  115.21299744    0.36000001    2.78999996
   18.07583427  107.84999847    0.36000001    2.80999994
   18.07888985  120.45300293    0.38000000    2.80999994
   18.08222389  104.30400085    0.38000000    2.80999994
   18.08527756  109.44000244    0.36000001    2.80999994
   18.08611107   96.46600342    0.36000001    2.80999994
   18.08916664   99.35169983    0.36000001    2.80999994
   18.09250069  112.59999847    0.38000000    2.80999994
   18.09555626  117.37200165    0.38000000    2.80999994
   18.09889030  102.96700287    0.40000001    2.78999996
   18.10472298  102.96700287    0.41999999    2.78999996
   18.10888863  110.61699677    0.41999999    2.80999994
   18.11222267  109.22499847    0.41999999    2.78999996
   18.11555672  113.32299805    0.44000000    2.80999994
   18.11861038  110.52999878    0.44000000    2.80999994
   18.11888885   99.43060303    0.41999999    2.80999994
   18.12222290  102.94400024    0.44000000    2.78999996
   18.12555504   98.03009796    0.41999999    2.80999994
   18.12861061  110.02899933    0.40000001    2.80999994
   18.13194466   94.13240051    0.38000000    2.80999994
   18.13500023  103.91699982    0.38000000    2.80999994
   18.13833237  108.83599854    0.38000000    2.78999996
   18.14166641  119.68599701    0.40000001    2.80999994
   18.14777756  119.68599701    0.40000001    2.78999996
   18.15194321  120.11000061    0.38000000    2.78999996
   18.15222168  104.20700073    0.38000000    2.78999996
   18.15555573  108.23500061    0.40000001    2.80999994
   18.15861130   98.47760010    0.41999999    2.80999994
   18.16194344  118.86900330    0.41999999    2.78999996
   18.16527748  102.74500275    0.44000000    2.80999994
   18.16833305  120.50499725    0.44000000    2.80999994
   18.17166519  100.29199982    0.46000001    2.80999994
   18.17472076  110.05200195    0.46000001    2.78999996
   18.17805481  112.73000336    0.47999999    2.78999996
   18.18138885  105.81999969    0.47999999    2.78999996
   18.18444443  104.27500153    0.47999999    2.78999996
   18.18527603  111.74400330    0.47999999    2.78999996
   18.19055557  111.74400330    0.50000000    2.80999994
   18.19472122  106.86399841    0.50000000    2.78999996
   18.19777679  103.95300293    0.50000000    2.78999996
   18.20111275  112.75599670    0.50000000    2.80999994
   18.20416832  116.34799957    0.50000000    2.80999994
   18.20750046   99.51470184    0.50000000    2.78999996
   18.21083450  100.25700378    0.50000000    2.80999994
   18.21389008   99.77590179    0.50000000    2.80999994
   18.21722221   96.95729828    0.51999998    2.80999994
   18.21861076  106.17400360    0.50000000    2.78999996
   18.22055626  104.04399872    0.50000000    2.78999996
   18.22389030  100.94899750    0.47999999    2.78999996
   18.22694588   93.85630035    0.47999999    2.78999996
   18.23333359   93.85630035    0.46000001    2.78999996
   18.23750114  100.45500183    0.46000001    2.78999996
   18.24055672  102.77999878    0.46000001    2.80999994
   18.24388885  101.97299957    0.46000001    2.78999996
   18.24722290  103.47499847    0.44000000    2.78999996
   18.25027847  110.48000336    0.46000001    2.80999994
   18.25194359  117.17600250    0.46000001    2.80999994
   18.25388908  109.31400299    0.44000000    2.76999998
   18.25722313   97.30010223    0.44000000    2.78999996
   18.26055527  102.68499756    0.44000000    2.78999996
   18.26361084  106.79000092    0.41999999    2.78999996
   18.26694489  104.85700226    0.40000001    2.78999996
   18.27000046  111.72100067    0.40000001    2.78999996
   18.27611160  111.72100067    0.38000000    2.78999996
   18.28027725  106.86199951    0.38000000    2.78999996
   18.28361130  102.00299835    0.38000000    2.78999996
   18.28527641  107.30599976    0.38000000    2.78999996
   18.28694344  107.59500122    0.38000000    2.78999996
   18.29027748  104.51300049    0.38000000    2.78999996
   18.29333305  104.19000244    0.36000001    2.78999996
   18.29666710  104.05899811    0.36000001    2.80999994
   18.29999924   98.20230103    0.36000001    2.78999996
   18.30305481  102.51899719    0.36000001    2.78999996
   18.30638885  111.64399719    0.34000000    2.78999996
   18.30944443  106.48899841    0.34000000    2.78999996
   18.31277657  100.88700104    0.34000000    2.80999994
   18.31888962  100.88700104    0.34000000    2.78999996
   18.32305717  116.74600220    0.34000000    2.78999996
   18.32638931  106.69799805    0.34000000    2.78999996
   18.32944489  109.75000000    0.34000000    2.78999996
   18.33277893  104.87799835    0.31999999    2.80999994
   18.33611107  102.13500214    0.31999999    2.78999996
   18.33916664   96.63790131    0.34000000    2.78999996
   18.34250069   95.83090210    0.34000000    2.78999996
   18.34555626  106.07900238    0.34000000    2.78999996
   18.34889030  100.23999786    0.34000000    2.78999996
   18.35194397  105.65799713    0.34000000    2.78999996
   18.35250092   96.44159698    0.34000000    2.78999996
   18.35583305  105.08799744    0.34000000    2.78999996
   18.36194420  105.08799744    0.36000001    2.78999996
   18.36611176  106.10800171    0.36000001    2.78999996
   18.36916733  100.73400116    0.40000001    2.78999996
   18.37249947  109.31800079    0.41999999    2.78999996
   18.37555504   93.98750305    0.41999999    2.76999998
   18.37888908  102.13800049    0.46000001    2.78999996
   18.38194466  102.71499634    0.44000000    2.78999996
   18.38527679  101.04499817    0.46000001    2.78999996
   18.38555527   99.81109619    0.46000001    2.78999996
   18.38888931   93.62449646    0.46000001    2.78999996
   18.39194489  106.01499939    0.46000001    2.78999996
   18.39527702  108.01999664    0.46000001    2.76999998
   18.39861107  106.66400146    0.46000001    2.78999996
   18.40472221  106.66400146    0.47999999    2.78999996
   18.40888786   99.06420135    0.46000001    2.78999996
   18.41194344  108.68299866    0.44000000    2.78999996
   18.41527748   98.49179840    0.44000000    2.78999996
   18.41860962  100.63899994    0.44000000    2.78999996
   18.41888809  108.36799622    0.44000000    2.78999996
   18.42222214   98.55840302    0.44000000    2.78999996
   18.42555428  109.74700165    0.44000000    2.76999998
   18.42860985  113.72399902    0.44000000    2.76999998
   18.43194389  100.77700043    0.46000001    2.76999998
   18.43499947  115.07700348    0.44000000    2.76999998
   18.43833160  101.00399780    0.44000000    2.78999996
   18.44166565  112.39600372    0.44000000    2.76999998
   18.44749832  112.39600372    0.44000000    2.78999996
   18.45166779  101.96800232    0.44000000    2.78999996
   18.45222282  122.33799744    0.44000000    2.78999996
   18.45555687  103.66799927    0.44000000    2.78999996
   18.45861244  108.53199768    0.46000001    2.78999996
   18.46194458  112.87300110    0.46000001    2.78999996
   18.46500015  109.82800293    0.46000001    2.78999996
   18.46833420  110.21900177    0.44000000    2.78999996
   18.47166634  112.39099884    0.44000000    2.78999996
   18.47472191  119.31500244    0.44000000    2.78999996
   18.47805595  109.89900208    0.44000000    2.78999996
   18.48111153  102.54199982    0.44000000    2.78999996
   18.48444557  109.69999695    0.44000000    2.76999998
   18.48555565  110.27700043    0.44000000    2.76999998
   18.49027824  110.27700043    0.41999999    2.78999996
   18.49444389  108.27600098    0.44000000    2.76999998
   18.49777794  103.47299957    0.44000000    2.78999996
   18.50083351  109.95099640    0.44000000    2.78999996
   18.50416756   97.06060028    0.44000000    2.78999996
   18.50749969  111.51200104    0.44000000    2.78999996
   18.51083374  102.83000183    0.44000000    2.78999996
   18.51388931  102.29699707    0.44000000    2.76999998
   18.51722145  105.09300232    0.46000001    2.78999996
   18.51888847   99.97789764    0.46000001    2.78999996
   18.52083397  110.10299683    0.44000000    2.76999998
   18.52388954  107.58499908    0.41999999    2.78999996
   18.52722168  112.17400360    0.41999999    2.78999996
   18.53333282  112.17400360    0.44000000    2.78999996
   18.53750038  109.05000305    0.41999999    2.76999998
   18.54055595   98.76170349    0.44000000    2.76999998
   18.54388809  113.79199982    0.44000000    2.78999996
   18.54694366  100.40200043    0.41999999    2.76999998
   18.55027771  129.47900391    0.44000000    2.76999998
   18.55222130   97.87609863    0.41999999    2.78999996
   18.55416679  105.52100372    0.44000000    2.76999998
   18.55722237  107.63999939    0.44000000    2.78999996
   18.56055450  104.03700256    0.44000000    2.76999998
   18.56388855  106.00299835    0.40000001    2.78999996
   18.56694603  105.98300171    0.40000001    2.76999998
   18.57027817  101.50299835    0.40000001    2.78999996
   18.57611275  101.50299835    0.40000001    2.78999996
   18.58027840  107.69200134    0.40000001    2.78999996
   18.58333397  101.97499847    0.40000001    2.78999996
   18.58555603   98.66590118    0.40000001    2.76999998
   18.58722305  109.93000031    0.40000001    2.76999998
   18.59027863  104.32700348    0.40000001    2.78999996
   18.59361267  107.53399658    0.40000001    2.78999996
   18.59694481  102.29499817    0.38000000    2.78999996
   18.60000038  112.66500092    0.38000000    2.78999996
   18.60333443  100.82099915    0.38000000    2.78999996
   18.60639000  106.92099762    0.38000000    2.76999998
   18.60972214  113.76100159    0.38000000    2.76999998
   18.61305618  103.51100159    0.38000000    2.76999998
   18.61888885  103.51100159    0.36000001    2.76999998
   18.62305641  100.21399689    0.36000001    2.76999998
   18.62638855  115.46800232    0.36000001    2.78999996
   18.62944412  101.22899628    0.36000001    2.76999998
   18.63277817  104.02999878    0.36000001    2.76999998
   18.63611031   96.87509918    0.36000001    2.76999998
   18.63916588  112.18599701    0.36000001    2.76999998
   18.64249992  128.07299805    0.36000001    2.78999996
   18.64555550  103.01999664    0.34000000    2.78999996
   18.64888954  118.56500244    0.34000000    2.76999998
   18.65222168  112.34100342    0.34000000    2.76999998
   18.65277672  108.08399963    0.34000000    2.76999998
   18.65583229  112.16699982    0.36000001    2.78999996
   18.66166687  112.16699982    0.34000000    2.78999996
   18.66583252  117.86000061    0.36000001    2.76999998
   18.66916656  116.67199707    0.36000001    2.76999998
   18.67249870   97.77989960    0.36000001    2.78999996
   18.67555428  110.43599701    0.36000001    2.78999996
   18.67888832  109.22899628    0.40000001    2.76999998
   18.68194389  120.89800262    0.40000001    2.76999998
   18.68555450  114.46399689    0.40000001    2.78999996
   18.68610954  121.59400177    0.40000001    2.76999998
   18.68916512  110.18900299    0.41999999    2.76999998
   18.69222069  115.50199890    0.44000000    2.76999998
   18.69555473  126.17500305    0.44000000    2.76999998
   18.69888878  120.65299988    0.46000001    2.76999998
   18.70472336  120.65299988    0.47999999    2.76999998
   18.70888901  125.12500000    0.47999999    2.76999998
   18.71194458  125.04499817    0.47999999    2.76999998
   18.71527863  122.75399780    0.47999999    2.75000000
   18.71833420  111.29900360    0.47999999    2.76999998
   18.71944427  120.92299652    0.47999999    2.76999998
   18.72222328  125.31999969    0.47999999    2.76999998
   18.72555542  133.25599670    0.47999999    2.76999998
   18.72861099  136.49400330    0.47999999    2.76999998
   18.73194504  120.15399933    0.47999999    2.76999998
   18.73500061  127.59999847    0.51999998    2.76999998
   18.73833275  128.61700439    0.51999998    2.76999998
   18.74166679  120.89700317    0.50000000    2.75000000
   18.74749947  120.89700317    0.51999998    2.76999998
   18.75166702  124.86199951    0.52999997    2.76999998
   18.75277710  130.90699768    0.52999997    2.76999998
   18.75527763  133.19200134    0.52999997    2.76999998
   18.75861168  145.35899353    0.52999997    2.76999998
   18.76166725  151.08299255    0.51999998    2.76999998
   18.76499939  139.77699280    0.51999998    2.76999998
   18.76833344  159.50199890    0.52999997    2.75000000
   18.77138901  175.79499817    0.55000001    2.76999998
   18.77472115  196.11500549    0.58999997    2.75000000
   18.77805519  168.25700378    0.56999999    2.76999998
   18.78111076  190.98899841    0.55000001    2.75000000
   18.78444481  183.84300232    0.55000001    2.76999998
   18.78610992  182.14199829    0.55000001    2.76999998
   18.79027748  182.14199829    0.52999997    2.75000000
   18.79444313  191.73199463    0.55000001    2.76999998
   18.79777718  214.19000244    0.55000001    2.75000000
   18.80083275  209.55299377    0.55000001    2.75000000
   18.80416679  200.54299927    0.55000001    2.76999998
   18.80749893  218.74600220    0.55000001    2.76999998
   18.81055450  205.26499939    0.52999997    2.75000000
   18.81388855  239.22200012    0.51999998    2.75000000
   18.81694603  224.88699341    0.51999998    2.75000000
   18.81944466  234.63499451    0.50000000    2.75000000
   18.82083511  235.55900574    0.50000000    2.75000000
   18.82416725  183.94200134    0.50000000    2.75000000
   18.82722282  222.23500061    0.50000000    2.76999998
   18.83333397  222.23500061    0.50000000    2.76999998
   18.83722305  178.17599487    0.50000000    2.75000000
   18.84055710  224.49800110    0.47999999    2.75000000
   18.84388924  184.57200623    0.46000001    2.76999998
   18.84694481  215.22300720    0.46000001    2.76999998
   18.85027885  220.85899353    0.46000001    2.75000000
   18.85277748  200.27000427    0.46000001    2.75000000
   18.85388947  227.10000610    0.46000001    2.75000000
   18.85722351  172.85699463    0.46000001    2.76999998
   18.86027908  204.91700745    0.44000000    2.75000000
   18.86361122  230.30299377    0.46000001    2.75000000
   18.86666679  202.41600037    0.44000000    2.75000000
   18.87000084  204.58000183    0.44000000    2.75000000
   18.87611198  204.58000183    0.44000000    2.75000000
   18.88027763  205.96400452    0.44000000    2.76999998
   18.88333321  172.40800476    0.44000000    2.75000000
   18.88611031  198.96400452    0.44000000    2.76999998
   18.88694382  211.16299438    0.44000000    2.76999998
   18.89027786  210.38999939    0.44000000    2.75000000
   18.89333344  182.72399902    0.41999999    2.76999998
   18.89666748  192.78999329    0.41999999    2.75000000
   18.89972115  161.66000366    0.41999999    2.75000000
   18.90305519  184.10699463    0.44000000    2.73000002
   18.90638924  202.89599609    0.41999999    2.76999998
   18.90944481  195.10400391    0.40000001    2.76999998
   18.91277695  163.68200684    0.40000001    2.76999998
   18.91888809  163.68200684    0.40000001    2.75000000
   18.93722153  161.72099304    0.38000000    2.75000000
   18.94055557  195.48899841    0.38000000    2.75000000
   18.94361115  176.01300049    0.38000000    2.75000000
   18.94694328  194.91499329    0.38000000    2.75000000
   18.95027924  186.42100525    0.36000001    2.75000000
   18.95333481  166.82600403    0.36000001    2.75000000
   18.95666695  166.15699768    0.36000001    2.75000000
   18.96194458  166.15699768    0.36000001    2.75000000
   18.96611214  167.24499512    0.38000000    2.75000000
   18.96944427  191.45399475    0.36000001    2.75000000
   18.97027779  179.20199585    0.36000001    2.75000000
   18.97305679  161.31300354    0.36000001    2.75000000
   18.97611237  170.34899902    0.36000001    2.75000000
   18.97944450  168.67199707    0.36000001    2.75000000
   18.98277855  173.47799683    0.36000001    2.75000000
   18.98583412  165.58299255    0.38000000    2.75000000
   18.98916626  174.46000671    0.38000000    2.75000000
   18.99250031  182.02900696    0.38000000    2.75000000
   18.99555588  177.75500488    0.38000000    2.75000000
   18.99888992  142.98899841    0.40000001    2.75000000
   19.00472260  142.98899841    0.41999999    2.75000000
   19.00888824  172.03799438    0.46000001    2.75000000
   19.01222229  171.85200500    0.47999999    2.75000000
   19.01555634  176.78100586    0.46000001    2.75000000
   19.01861000  153.18299866    0.47999999    2.75000000
   19.02194405  160.32099915    0.46000001    2.75000000
   19.02527809  144.00199890    0.46000001    2.73000002
   19.02833366  153.51899719    0.46000001    2.75000000
   19.03166580  155.45300293    0.46000001    2.75000000
   19.03499985  153.91499329    0.47999999    2.75000000
   19.03694344  143.29400635    0.46000001    2.73000002
   19.03861046  130.13999939    0.46000001    2.75000000
   19.04166603  139.62300110    0.46000001    2.75000000
   19.04777718  139.62300110    0.46000001    2.75000000
   19.05194283  154.61599731    0.44000000    2.73000002
   19.05499840  161.24600220    0.44000000    2.75000000
   19.05833244  149.45899963    0.44000000    2.75000000
   19.06138802  140.40199280    0.44000000    2.75000000
   19.06472206  135.36000061    0.44000000    2.75000000
   19.06805611  135.55000305    0.44000000    2.75000000
   19.07027817  124.17500305    0.44000000    2.75000000
   19.07166672  135.27200317    0.41999999    2.73000002
   19.07500076  144.46800232    0.41999999    2.73000002
   19.07805634  121.25299835    0.41999999    2.75000000
   19.08139038  131.34700012    0.41999999    2.75000000
   19.08444595  135.75300598    0.41999999    2.75000000
   19.09055710  135.75300598    0.41999999    2.73000002
   19.09472275  149.06799316    0.41999999    2.73000002
   19.09777832  139.78700256    0.41999999    2.75000000
   19.10111237  131.71200562    0.41999999    2.73000002
   19.10361099  137.78799438    0.41999999    2.73000002
   19.10472298  137.36799622    0.41999999    2.73000002
   19.10805511  132.92900085    0.40000001    2.75000000
   19.11111069  133.78599548    0.40000001    2.73000002
   19.11444473  142.62100220    0.40000001    2.75000000
   19.11750031  135.48199463    0.40000001    2.73000002
   19.12083435  142.18899536    0.38000000    2.75000000
   19.12416649  144.32299805    0.38000000    2.75000000
   19.12722206  135.55299377    0.38000000    2.75000000
   19.13333321  135.55299377    0.40000001    2.75000000
   19.13750076  140.34500122    0.38000000    2.73000002
