    HOUR (UT)   FLARE FACTOR    SKY TESTER    SUN TESTER
   12.11999989   -1.00000000   -1.00000000   -1.00000000
   12.15138817  241.64399719    1.34000003    2.01999998
   12.15444374  259.02099609    1.36000001    2.01999998
   12.15777779  238.29299927    1.36000001    2.01999998
   12.16111088  227.37800598    1.36000001    2.01999998
   12.16416645  215.12600708    1.28999996    2.03999996
   12.16750050  218.81399536    1.30999994    2.03999996
   12.17166710  218.81399536    1.36000001    2.03999996
   12.17583370  232.07600403    1.46000004    2.03999996
   12.17888927  189.57299805    1.48000002    2.03999996
   12.18222237  223.83700562    1.50000000    2.05999994
   12.18472195  225.48899841    1.50000000    2.05999994
   12.18583298  207.63200378    1.50000000    2.03999996
   12.18916702  223.16400146    1.51999998    2.03999996
   12.19250011  215.24000549    1.55999994    2.05999994
   12.19555569  246.41600037    1.55999994    2.05999994
   12.19888878  234.84500122    1.60000002    2.05999994
   12.20194435  215.17100525    1.64999998    2.05999994
   12.20527744  222.68600464    1.71000004    2.05999994
   12.20861053  252.42700195    1.86000001    2.05999994
   12.21444416  252.42700195    1.86000001    2.05999994
   12.21861076  219.19599915    2.01999998    2.07999992
   12.22194386  238.26199341    2.69000006    2.07999992
   12.22527695  200.22300720    3.66000009    2.07999992
   12.22833252  220.82600403    3.93000007    2.07999992
   12.23166656  199.62699890    3.43000007    2.09999990
   12.23472214  188.36599731    2.53999996    2.09999990
   12.23805618  189.05499268    1.86000001    2.09999990
   12.24138927  208.42599487    1.64999998    2.09999990
   12.24444485  205.38000488    1.64999998    2.09999990
   12.24777794  225.35800171    1.69000006    2.09999990
   12.25111103  235.75000000    1.80999994    2.09999990
   12.25138855  231.80599976    1.86000001    2.09999990
   12.25722218  231.80599976    2.84999990    1.88000000
   12.26138878  238.59599304    3.89000010    1.76999998
   12.26472187  216.05299377    4.90999985    1.88000000
   12.26777744  208.92599487    4.90999985    2.01999998
   12.27111053  219.54800415    4.90999985    2.01999998
   12.27444458  208.28999329    4.90999985    2.00000000
   12.27750015  224.75700378    4.90999985    2.09999990
   12.28083324  230.17599487    4.90999985    2.19000006
   12.28416729  218.81300354    4.90999985    2.21000004
   12.28472233  205.93600464    4.90999985    2.21000004
   12.28750038  215.83999634    4.90999985    2.21000004
   12.29083347  201.49299622    4.90999985    2.19000006
   12.29388905  198.70799255    4.90999985    2.19000006
   12.30027771  198.70799255    4.90999985    2.15000010
   12.30416679  207.65400696    4.90999985    2.15000010
   12.30749989  221.40600586    4.80000019    2.13000011
   12.31083393  205.89599609    3.28999996    2.13000011
   12.31388950  237.83999634    3.11999989    2.13000011
   12.31722260  249.38000488    3.16000009    2.09999990
   12.31805515  230.08399963    3.16000009    2.11999989
   12.32083321  220.04200745    3.28999996    2.15000010
   12.32416630  206.50900269    3.82999992    2.17000008
   12.32722187  199.00399780    4.53999996    2.17000008
   12.33055592  222.13400269    4.90999985    2.17000008
   12.33388901  205.56100464    4.90999985    2.17000008
   12.33694458  206.62399292    4.76000023    2.17000008
   12.34305477  206.62399292    2.25000000    2.17000008
   12.34722233  207.90299988    1.64999998    2.17000008
   12.35027790  194.36599731    1.38000000    2.15000010
   12.35138893  184.04800415    1.36000001    2.17000008
   12.35388947  192.84100342    1.34000003    2.17000008
   12.35722256  196.49899292    1.26999998    2.17000008
   12.36027813  184.15800476    1.23000002    2.17000008
   12.36361122  192.88200378    1.19000006    2.17000008
   12.36694431  198.05700684    1.21000004    2.19000006
   12.36999989  192.21600342    1.25000000    2.17000008
   12.37333393  202.92500305    1.25000000    2.17000008
   12.37666702  178.21899414    1.48000002    2.21000004
   12.37972260  187.40699768    1.60000002    2.19000006
   12.38583279  187.40699768    1.78999996    2.21000004
   12.39000034  191.45700073    1.85000002    2.19000006
   12.39333344  190.87100220    1.85000002    2.19000006
   12.39638901  202.63600159    1.91999996    2.21000004
   12.39972210  170.81900024    1.91999996    2.21000004
   12.40277767  198.58000183    1.96000004    2.19000006
   12.40611076  209.08000183    1.75000000    2.21000004
   12.40944386  204.05499268    1.51999998    2.19000006
   12.41249943  198.78599548    1.41999996    2.21000004
   12.41583252  215.71899414    1.41999996    2.21000004
   12.41805553  213.74299622    1.36000001    2.21000004
   12.41944504  218.03900146    1.36000001    2.21000004
   12.42305565  209.72700500    1.34000003    2.23000002
   12.42861176  209.72700500    1.11000001    2.21000004
   12.43277836  179.77000427    1.07000005    2.21000004
   12.43611145  196.90600586    1.07000005    2.21000004
   12.43916702  194.78100586    1.05999994    2.23000002
   12.44250011  189.90400696    1.05999994    2.23000002
   12.44583321  194.02099609    1.05999994    2.23000002
   12.44888878  186.99099731    1.05999994    2.23000002
   12.45166683  204.73800659    1.03999996    2.25000000
   12.45249939  199.27200317    1.03999996    2.23000002
   12.45583344  197.39300537    1.03999996    2.23000002
   12.45888901  189.42199707    1.03999996    2.23000002
   12.46222210  204.30099487    1.03999996    2.23000002
   12.46555519  217.10299683    1.03999996    2.23000002
   12.47166634  217.10299683    1.03999996    2.23000002
   12.47555542  194.73199463    1.03999996    2.25000000
   12.47888851  194.41299438    1.01999998    2.25000000
   12.48222160  202.44099426    1.01999998    2.25000000
   12.48500061  194.75700378    1.03999996    2.25000000
   12.48583317  202.07200623    1.03999996    2.25000000
   12.48916721  187.22700500    1.01999998    2.25000000
   12.49222279  195.28300476    1.01999998    2.25000000
   12.49555588  185.90100098    1.01999998    2.25000000
   12.49888897  187.16900635    1.00000000    2.25000000
   12.50194454  188.47099304    1.00000000    2.25000000
   12.50527763  184.47099304    0.98000002    2.26999998
   12.50833321  171.50599670    0.98000002    2.26999998
   12.51444435  171.50599670    0.98000002    2.26999998
   12.51861095  176.43200684    0.98000002    2.26999998
   12.52166653  182.32099915    0.95999998    2.28999996
   12.52499962  182.44700623    0.95999998    2.26999998
   12.52805519  172.27900696    0.95999998    2.26999998
   12.53138828  191.63499451    0.95999998    2.26999998
   12.53472233  182.80299377    0.94000000    2.26999998
   12.53777790  174.22700500    0.94000000    2.26999998
   12.54111195  185.06399536    0.94000000    2.26999998
   12.54444504  190.92599487    0.94000000    2.28999996
   12.54750061  182.72900391    0.94000000    2.28999996
   12.55083370  174.64199829    0.94000000    2.28999996
   12.55166721  207.24699402    0.94000000    2.28999996
   12.55722237  207.24699402    0.94000000    2.28999996
   12.56138897  186.10499573    0.95999998    2.28999996
   12.56444454  184.05099487    0.98000002    2.28999996
   12.56777763  186.74099731    1.01999998    2.28999996
   12.57111073  181.50000000    1.01999998    2.28999996
   12.57444477  193.91999817    1.07000005    2.30999994
   12.57750034  183.44099426    1.11000001    2.28999996
   12.58083344  188.99299622    1.28999996    2.30999994
   12.58416653  185.94099426    1.28999996    2.30999994
   12.58500004  189.26199341    1.28999996    2.30999994
   12.58749962  184.53199768    1.26999998    2.28999996
   12.59083271  190.50799561    0.94000000    2.30999994
   12.59388828  185.89399719    0.92000002    2.30999994
   12.60000038  185.89399719    0.92000002    2.30999994
   12.60416698  173.16799927    0.92000002    2.30999994
   12.60750008  190.53300476    0.92000002    2.30999994
   12.61055565  182.69500732    0.92000002    2.30999994
   12.61388969  178.71099854    0.92000002    2.30999994
   12.61722279  186.56100464    0.92000002    2.30999994
   12.61833382  196.02499390    0.92000002    2.30999994
   12.62055588  186.89599609    0.92000002    2.30999994
   12.62388897  185.41499329    0.89999998    2.32999992
   12.62694454  185.89500427    0.89999998    2.30999994
   12.63027763  188.71800232    0.89999998    2.30999994
   12.63361073  185.43400574    0.89999998    2.30999994
   12.63666630  175.15600586    0.89999998    2.32999992
   12.64305496  175.15600586    0.89999998    2.30999994
   12.64694405  179.07299805    0.89999998    2.32999992
   12.65027714  180.47000122    0.89999998    2.32999992
   12.65166664  179.80000305    0.89999998    2.32999992
   12.65388870  175.81300354    0.89999998    2.32999992
   12.65722179  167.10299683    0.89999998    2.32999992
   12.66027737  181.83700562    0.89999998    2.34999990
   12.66361046  171.51800537    0.89999998    2.32999992
   12.66694450  168.58299255    0.89999998    2.32999992
   12.67000008  160.13099670    0.89999998    2.32999992
   12.67333412  176.65699768    0.89999998    2.32999992
   12.67666721  170.95500183    0.89999998    2.32999992
   12.67972279  158.60800171    0.89999998    2.34999990
   12.68583298  158.60800171    0.92000002    2.34999990
   12.69000053  175.49499512    0.92000002    2.34999990
   12.69305515  177.63000488    0.92000002    2.34999990
   12.69638920  173.12800598    0.95999998    2.34999990
   12.69972229  183.17199707    1.01999998    2.34999990
   12.70277786  197.01100159    1.05999994    2.34999990
   12.70611095  184.16200256    1.05999994    2.34999990
   12.70916653  159.29800415    1.05999994    2.34999990
   12.71249962  168.35600281    1.00000000    2.36999989
   12.71583271  191.71899414    0.94000000    2.36999989
   12.71833324  184.94400024    0.94000000    2.36999989
   12.71944427  173.25599670    0.95999998    2.34999990
   12.72277737  172.23899841    0.95999998    2.34999990
   12.72861099  172.23899841    1.01999998    2.36999989
   12.73277760  176.43600464    0.92000002    2.36999989
   12.73583317  187.57499695    0.94000000    2.34999990
   12.73916721  165.44000244    0.94000000    2.36999989
   12.74250031  176.95500183    0.92000002    2.36999989
   12.74583340  166.89599609    0.89999998    2.36999989
   12.74888897  179.24299622    0.92000002    2.36999989
   12.75166702  171.19500732    0.92000002    2.36999989
   12.75249958  166.98599243    0.92000002    2.39000010
   12.75583363  171.19400024    0.92000002    2.36999989
   12.75888920  165.05999756    0.92000002    2.39000010
   12.76222229  181.10899353    0.92000002    2.36999989
   12.76555538  167.30200195    0.92000002    2.39000010
   12.77138901  167.30200195    0.92000002    2.39000010
   12.77555561  169.26699829    0.89999998    2.39000010
   12.77888870  171.71099854    0.89999998    2.39000010
   12.78194427  159.73100281    0.89999998    2.39000010
   12.78500080  167.05000305    0.92000002    2.39000010
   12.78555584  166.55999756    0.89999998    2.39000010
   12.78888893  170.17900085    0.92000002    2.39000010
   12.79194450  192.17999268    0.92000002    2.39000010
   12.79527855  170.06300354    0.92000002    2.39000010
   12.79861164  169.36199951    0.92000002    2.39000010
   12.80166721  173.50199890    0.92000002    2.39000010
   12.80500031  176.14999390    0.92000002    2.39000010
   12.80833340  172.03599548    0.92000002    2.39000010
   12.81444454  172.03599548    0.94000000    2.39000010
   12.81833363  171.43099976    0.94000000    2.39000010
   12.82166672  161.01499939    0.94000000    2.39000010
   12.82499981  180.86199951    0.94000000    2.39000010
   12.82805538  174.41799927    0.92000002    2.40000010
   12.83138847  166.13999939    0.88000000    2.40000010
   12.83444405  157.51300049    0.88000000    2.40000010
   12.83777714  170.31300354    0.86000001    2.40000010
   12.84111118  176.21499634    0.86000001    2.40000010
   12.84416676  169.99499512    0.86000001    2.40000010
   12.84749985  175.48899841    0.81999999    2.40000010
   12.85083389  180.94500732    0.81999999    2.40000010
   12.85166740  173.70899963    0.81999999    2.40000010
   12.85722256  173.70899963    0.80000001    2.40000010
   12.86138916  165.39100647    0.79000002    2.40000010
   12.86444473  174.61300659    0.79000002    2.40000010
   12.86777782  201.25599670    0.79000002    2.40000010
   12.87083340  178.72000122    0.79000002    2.40000010
   12.87416649  186.23199463    0.76999998    2.40000010
   12.87750053  176.26800537    0.76999998    2.40000010
   12.88055611  187.38099670    0.76999998    2.42000008
   12.88388920  179.97099304    0.76999998    2.42000008
   12.88500023  185.02000427    0.76999998    2.42000008
   12.88749981  192.83900452    0.76999998    2.42000008
   12.89083290  181.04800415    0.76999998    2.42000008
   12.89416695  170.11099243    0.76999998    2.40000010
   12.89999962  170.11099243    0.76999998    2.42000008
   12.90416622  183.23100281    0.79000002    2.42000008
   12.90749931  169.49299622    0.79000002    2.42000008
   12.91055489  184.72000122    0.76999998    2.42000008
   12.91388893  177.69000244    0.76999998    2.42000008
   12.91722298  196.99400330    0.75000000    2.42000008
   12.91833401  194.21000671    0.75000000    2.42000008
   12.92055607  187.21299744    0.75000000    2.44000006
   12.92388916  188.90600586    0.73000002    2.42000008
   12.92722225  189.93699646    0.75000000    2.44000006
   12.93027782  182.27299500    0.75000000    2.44000006
   12.93361092  192.71000671    0.75000000    2.44000006
   12.93694496  190.11500549    0.75000000    2.44000006
   12.94277763  190.11500549    0.75000000    2.42000008
   12.94694424  207.30400085    0.76999998    2.44000006
   12.95027733  188.11099243    0.76999998    2.44000006
   12.95166683  200.75500488    0.79000002    2.44000006
   12.95361137  194.93699646    0.79000002    2.44000006
   12.95694447  190.16799927    0.79000002    2.44000006
   12.96027756  183.22599792    0.80000001    2.44000006
   12.96333313  183.18200684    0.81999999    2.44000006
   12.96666622  199.33999634    0.81999999    2.44000006
   12.96999931  189.81900024    0.86000001    2.42000008
   12.97305489  209.18699646    0.89999998    2.44000006
   12.97638798  182.16499329    0.89999998    2.44000006
   12.97944355  189.71000671    0.89999998    2.44000006
   12.98583317  189.71000671    0.86000001    2.46000004
   12.98972225  189.43899536    0.86000001    2.44000006
   12.99305534  192.56900024    0.86000001    2.44000006
   12.99638939  206.32299805    0.83999997    2.44000006
   12.99944496  207.13400269    0.81999999    2.46000004
   13.00277805  200.00000000    0.81999999    2.44000006
   13.00611115  194.88900757    0.80000001    2.44000006
   13.00916672  198.03999329    0.76999998    2.46000004
   13.01249981  208.15899658    0.79000002    2.46000004
   13.01555538  201.81500244    0.79000002    2.46000004
   13.01833344  184.54699707    0.76999998    2.46000004
   13.01916599  183.82000732    0.76999998    2.46000004
   13.02250004  201.27499390    0.75000000    2.46000004
   13.02861118  201.27499390    0.79000002    2.46000004
   13.03277779  179.59100342    0.79000002    2.46000004
   13.03583336  172.84800720    0.79000002    2.46000004
   13.03916740  212.33999634    0.76999998    2.46000004
   13.04222298  207.04400635    0.76999998    2.46000004
   13.04555607  184.46299744    0.75000000    2.46000004
   13.04888916  204.88900757    0.73000002    2.46000004
   13.05166721  205.91400146    0.70999998    2.46000004
   13.05222225  203.31300354    0.70999998    2.46000004
   13.05555534  172.32000732    0.70999998    2.46000004
   13.05888939  207.76499939    0.70999998    2.46000004
   13.06194496  209.58599854    0.70999998    2.46000004
   13.06527805  231.66700745    0.70999998    2.46000004
   13.07138920  231.66700745    0.70999998    2.48000002
   13.07555580  171.56100464    0.70999998    2.48000002
   13.07861137  190.56199646    0.70999998    2.48000002
   13.08194447  222.94799805    0.70999998    2.48000002
   13.08500004  201.20899963    0.70999998    2.46000004
   13.08555508  197.62699890    0.70999998    2.46000004
   13.08888817  200.49499512    0.70999998    2.46000004
   13.09222221  199.60099792    0.70999998    2.46000004
   13.09527779  185.27000427    0.70999998    2.48000002
   13.09861088  187.39799500    0.70999998    2.48000002
   13.10166740  191.22900391    0.70999998    2.48000002
   13.10500050  197.08000183    0.69000000    2.48000002
   13.10833359  188.22900391    0.69000000    2.48000002
   13.11416721  188.22900391    0.70999998    2.48000002
   13.11833382  187.28900146    0.67000002    2.50000000
   13.12166691  185.96499634    0.67000002    2.48000002
   13.12472248  193.45799255    0.67000002    2.48000002
   13.12805557  172.52600098    0.67000002    2.48000002
   13.13138866  191.17799377    0.67000002    2.48000002
   13.13444424  192.50999451    0.64999998    2.48000002
   13.13777733  192.86799622    0.64999998    2.48000002
   13.14111137  193.19099426    0.64999998    2.50000000
   13.14416695  183.32800293    0.63000000    2.50000000
   13.14750004  173.58599854    0.63000000    2.50000000
   13.15055561  169.45300293    0.63000000    2.50000000
   13.15166664  180.70599365    0.63000000    2.50000000
   13.17222214  180.70599365    0.63000000    2.50000000
   13.17638874  176.94099426    0.63000000    2.50000000
   13.17972279  179.02699280    0.63000000    2.50000000
   13.18277836  158.69299316    0.63000000    2.50000000
   13.18500042  163.82899475    0.63000000    2.50000000
   13.18666649  171.08700562    0.63000000    2.50000000
   13.18972206  157.82899475    0.63000000    2.50000000
   13.19305515  174.04800415    0.63000000    2.50000000
   13.19611073  149.37899780    0.63000000    2.50000000
   13.19944477  177.22300720    0.61000001    2.50000000
   13.20277786  193.89300537    0.61000001    2.50000000
   13.20583344  185.02799988    0.61000001    2.50000000
   13.20916653  161.17300415    0.61000001    2.50000000
   13.21500015  161.17300415    0.63000000    2.51999998
   13.21916580  169.11700439    0.63000000    2.50000000
   13.22249985  172.38600159    0.63000000    2.50000000
   13.22555542  171.44299316    0.63000000    2.50000000
   13.22888851  187.94099426    0.63000000    2.51999998
   13.23222160  177.81100464    0.63000000    2.50000000
   13.23527813  162.57299805    0.63000000    2.50000000
   13.23861122  170.32699585    0.63000000    2.51999998
   13.24166679  183.52400208    0.63000000    2.51999998
   13.24499989  181.60600281    0.63000000    2.51999998
   13.24833393  181.78100586    0.63000000    2.51999998
   13.25138855  181.15400696    0.63000000    2.51999998
   13.25194454  190.91400146    0.63000000    2.51999998
   13.25777817  190.91400146    0.63000000    2.51999998
   13.26194477  185.27499390    0.63000000    2.50000000
   13.26527786  190.29200745    0.64999998    2.51999998
   13.26861095  177.25999451    0.64999998    2.51999998
   13.27166653  177.11999512    0.63000000    2.51999998
   13.27499962  183.13699341    0.64999998    2.51999998
   13.27805519  180.24000549    0.63000000    2.51999998
   13.28138828  154.57899475    0.64999998    2.51999998
   13.28472233  171.79499817    0.64999998    2.51999998
   13.28527832  165.96000671    0.64999998    2.51999998
   13.28833389  161.22500610    0.64999998    2.51999998
   13.29166698  161.22500610    0.64999998    2.53999996
   13.29472256  156.18400574    0.63000000    2.51999998
   13.30083370  156.18400574    0.63000000    2.53999996
   13.30500031  166.86900330    0.63000000    2.53999996
   13.30805588  161.51199341    0.63000000    2.51999998
   13.31138897  169.02200317    0.63000000    2.53999996
   13.31444454  159.19599915    0.63000000    2.53999996
   13.31777763  177.20199585    0.61000001    2.53999996
   13.31861115  166.41700745    0.61000001    2.53999996
   13.32138920  162.80099487    0.63000000    2.53999996
   13.32472229  170.98100281    0.61000001    2.53999996
   13.32777786  170.47700500    0.63000000    2.53999996
   13.33111095  166.58000183    0.63000000    2.53999996
   13.33416653  171.97599792    0.63000000    2.53999996
   13.33749962  169.41000366    0.63000000    2.53999996
   13.34361076  169.41000366    0.63000000    2.55999994
   13.34777737  172.16000366    0.63000000    2.53999996
   13.35083389  168.71400452    0.61000001    2.55999994
   13.35194492  178.46600342    0.63000000    2.53999996
   13.35472298  170.50799561    0.63000000    2.53999996
   13.35805607  172.67500305    0.61000001    2.55999994
   13.36111164  177.92700195    0.61000001    2.53999996
   13.36444473  173.91600037    0.61000001    2.53999996
   13.36750031  164.22900391    0.61000001    2.53999996
   13.37083340  162.87500000    0.61000001    2.55999994
   13.37416649  162.34800720    0.61000001    2.55999994
   13.37722206  166.17300415    0.58999997    2.53999996
   13.38055611  170.10299683    0.58999997    2.53999996
   13.38638878  170.10299683    0.58999997    2.55999994
   13.39055538  161.76199341    0.61000001    2.55999994
   13.39388847  177.79299927    0.58999997    2.55999994
   13.39694405  163.41700745    0.58999997    2.55999994
   13.40027714  167.45199585    0.58999997    2.55999994
   13.40361118  165.46800232    0.58999997    2.55999994
   13.40666676  161.07699585    0.58999997    2.55999994
   13.40999985  152.80099487    0.58999997    2.55999994
   13.41305542  155.19000244    0.58999997    2.55999994
   13.41638851  170.80000305    0.58999997    2.55999994
   13.41861153  158.34399414    0.58999997    2.55999994
   13.42000008  159.13499451    0.56999999    2.55999994
   13.42333412  167.13999939    0.58999997    2.55999994
   13.42916679  167.13999939    0.61000001    2.57999992
   13.43333340  160.72099304    0.61000001    2.55999994
   13.43666649  161.28999329    0.61000001    2.55999994
   13.43972206  161.08000183    0.61000001    2.55999994
   13.44305515  160.97099304    0.58999997    2.55999994
   13.44638920  163.43600464    0.61000001    2.55999994
   13.44944477  159.87600708    0.61000001    2.55999994
   13.45194435  152.36599731    0.61000001    2.57999992
   13.45305538  156.92700195    0.61000001    2.55999994
   13.45638847  156.47300720    0.58999997    2.57999992
   13.45944405  156.03500366    0.58999997    2.57999992
   13.46277714  159.37899780    0.58999997    2.57999992
   13.46611118  159.49800110    0.56999999    2.55999994
   13.47222137  159.49800110    0.56999999    2.57999992
   13.47638798  159.69400024    0.56999999    2.57999992
   13.47944355  166.91799927    0.56999999    2.57999992
   13.48277760  161.78399658    0.56999999    2.55999994
   13.48527813  162.81900024    0.56999999    2.55999994
   13.48638916  167.64599609    0.55000001    2.57999992
   13.48972225  150.00700378    0.55000001    2.57999992
   13.49277782  159.47700500    0.55000001    2.57999992
   13.49611092  162.71400452    0.55000001    2.57999992
   13.49916649  171.52699280    0.55000001    2.57999992
   13.50249958  175.34300232    0.55000001    2.57999992
   13.50583363  171.35299683    0.55000001    2.57999992
   13.50888920  172.00700378    0.55000001    2.57999992
   13.51500034  172.00700378    0.56999999    2.57999992
   13.51916599  176.32800293    0.56999999    2.57999992
   13.52222157  168.18299866    0.55000001    2.57999992
   13.52555561  169.85699463    0.55000001    2.57999992
   13.52888870  156.92999268    0.55000001    2.59999990
   13.53194427  164.84199524    0.55000001    2.59999990
   13.53527832  161.61000061    0.55000001    2.59999990
   13.53861141  169.68200684    0.52999997    2.57999992
   13.54166698  165.88200378    0.52999997    2.59999990
   13.54500008  157.83799744    0.52999997    2.57999992
   13.54805565  154.92900085    0.52999997    2.57999992
   13.55138874  146.75300598    0.52999997    2.57999992
   13.55194473  168.26400757    0.52999997    2.57999992
   13.55777836  168.26400757    0.52999997    2.57999992
   13.56194496  171.79899597    0.52999997    2.59999990
   13.56527805  160.73899841    0.52999997    2.57999992
   13.56833363  163.76800537    0.52999997    2.57999992
   13.57166672  164.11999512    0.52999997    2.59999990
   13.57499981  164.39300537    0.52999997    2.57999992
   13.57805538  171.68899536    0.52999997    2.57999992
   13.58138847  150.94500732    0.52999997    2.59999990
   13.58444405  154.61199951    0.52999997    2.57999992
   13.58527756  156.43400574    0.52999997    2.57999992
   13.58805561  165.58700562    0.52999997    2.57999992
   13.59138870  169.45799255    0.52999997    2.57999992
   13.59444427  164.66000366    0.55000001    2.59999990
   13.60083389  164.66000366    0.55000001    2.59999990
   13.60472298  163.91200256    0.55000001    2.57999992
   13.60805607  165.46099854    0.55000001    2.59999990
   13.61138916  155.08099365    0.55000001    2.59999990
   13.61444473  161.76499939    0.56999999    2.59999990
   13.61777782  161.25399780    0.56999999    2.59999990
   13.61888885  155.34599304    0.56999999    2.59999990
   13.62138939  155.87399292    0.56999999    2.59999990
   13.62472248  164.19000244    0.55000001    2.59999990
   13.62777805  159.33000183    0.55000001    2.59999990
   13.63111115  147.49000549    0.55000001    2.57999992
   13.63444424  158.80400085    0.55000001    2.59999990
   13.63749981  151.36700439    0.55000001    2.59999990
   13.64361095  151.36700439    0.55000001    2.61999989
   13.64777756  154.39500427    0.55000001    2.59999990
   13.65083313  153.00999451    0.55000001    2.59999990
   13.65194416  152.30099487    0.55000001    2.59999990
   13.65444374  142.52299500    0.55000001    2.59999990
   13.65777779  148.36999512    0.55000001    2.61999989
   13.66083336  159.14300537    0.55000001    2.61999989
   13.66416645  147.00100708    0.55000001    2.59999990
   13.66750050  162.39399719    0.55000001    2.59999990
   13.67055607  158.56399536    0.55000001    2.59999990
   13.67388916  156.87199402    0.52999997    2.59999990
   13.67722225  137.38999939    0.55000001    2.61999989
   13.68027782  149.77999878    0.52999997    2.59999990
   13.68638897  149.77999878    0.52999997    2.61999989
   13.69055557  154.71800232    0.52999997    2.61999989
   13.69361115  164.02099609    0.52999997    2.61999989
   13.69694424  160.72300720    0.52999997    2.61999989
   13.70027733  162.95100403    0.52999997    2.61999989
   13.70333290  176.63499451    0.52999997    2.61999989
   13.70666695  168.62100220    0.52999997    2.59999990
   13.71000004  170.17999268    0.55000001    2.61999989
   13.71305561  178.97000122    0.55000001    2.61999989
   13.71638870  181.59500122    0.55000001    2.61999989
   13.71861076  187.72700500    0.55000001    2.61999989
   13.71999931  171.44500732    0.55000001    2.59999990
   13.72333336  163.20500183    0.55000001    2.61999989
   13.72916603  163.20500183    0.55000001    2.61999989
   13.73333359  166.52200317    0.55000001    2.61999989
   13.73666668  164.98699951    0.55000001    2.61999989
   13.73972225  159.42300415    0.55000001    2.61999989
   13.74305534  163.17100525    0.55000001    2.61999989
   13.74638939  152.36500549    0.55000001    2.61999989
   13.74944496  148.39100647    0.55000001    2.61999989
   13.75194454  147.57899475    0.52999997    2.61999989
   13.75333309  149.50599670    0.52999997    2.61999989
   13.75638866  147.20399475    0.55000001    2.61999989
   13.75972176  163.17399597    0.55000001    2.61999989
   13.76277733  159.89599609    0.55000001    2.61999989
   13.76611137  146.96800232    0.55000001    2.61999989
   13.77194405  146.96800232    0.55000001    2.61999989
   13.77611065  146.82899475    0.55000001    2.61999989
   13.77944374  135.08500671    0.55000001    2.61999989
   13.78277779  147.72599792    0.55000001    2.61999989
   13.78527832  149.39999390    0.52999997    2.61999989
   13.78638935  128.38600159    0.52999997    2.61999989
   13.78972244  141.29899597    0.55000001    2.61999989
   13.79277802  152.55999756    0.55000001    2.61999989
   13.79611111  140.80599976    0.55000001    2.61999989
   13.79944515  157.50500488    0.55000001    2.64000010
   13.80249977  136.23199463    0.55000001    2.64000010
   13.80583382  146.53500366    0.55000001    2.61999989
   13.80888939  156.72799683    0.55000001    2.64000010
   13.81500053  156.72799683    0.55000001    2.64000010
   13.81916618  155.77999878    0.55000001    2.64000010
   13.82222176  146.66799927    0.52999997    2.61999989
   13.82555580  147.83999634    0.52999997    2.61999989
   13.82861137  141.89100647    0.51999998    2.61999989
   13.83194447  149.70799255    0.52999997    2.64000010
   13.83527756  145.78999329    0.51999998    2.66000009
   13.83833313  157.94799805    0.52999997    2.64000010
   13.84166622  152.56799316    0.52999997    2.64000010
   13.84499931  150.95899963    0.51999998    2.64000010
   13.84805489  147.84899902    0.51999998    2.64000010
   13.85138893  139.82099915    0.51999998    2.64000010
   13.85222244  147.89399719    0.51999998    2.64000010
   13.85777855  147.89399719    0.52999997    2.64000010
   13.86194515  149.70799255    0.52999997    2.64000010
   13.86500072  142.19599915    0.51999998    2.64000010
   13.86833382  140.00700378    0.52999997    2.64000010
   13.87166691  150.50100708    0.51999998    2.64000010
   13.87472248  137.31900024    0.52999997    2.64000010
   13.87805557  136.77000427    0.51999998    2.64000010
   13.88138866  139.58500671    0.52999997    2.64000010
   13.88444424  143.50399780    0.51999998    2.64000010
   13.88555527  153.70500183    0.51999998    2.64000010
   13.88805580  150.03599548    0.51999998    2.64000010
   13.89138889  155.91999817    0.52999997    2.64000010
   13.89444447  143.37100220    0.52999997    2.64000010
   13.90055561  143.37100220    0.52999997    2.64000010
   13.90472221  131.63999939    0.55000001    2.66000009
   13.90805531  145.81500244    0.52999997    2.64000010
   13.91111088  154.90899658    0.55000001    2.64000010
   13.91444397  149.50900269    0.52999997    2.64000010
   13.91777802  153.56300354    0.55000001    2.64000010
   13.91888905  159.15400696    0.55000001    2.64000010
   13.92111111  153.37699890    0.55000001    2.64000010
   13.92444515  144.05400085    0.51999998    2.64000010
   13.92750072  155.77000427    0.51999998    2.64000010
   13.93083382  139.31199646    0.51999998    2.64000010
   13.93416691  159.90499878    0.51999998    2.66000009
   13.93722248  152.03199768    0.52999997    2.66000009
   13.94361115  152.03199768    0.51999998    2.66000009
   13.94777775  163.40600586    0.51999998    2.66000009
   13.95111084  151.05599976    0.52999997    2.66000009
   13.95222187  156.80099487    0.52999997    2.66000009
   13.95444393  140.29499817    0.52999997    2.64000010
   13.95777798  141.70399475    0.52999997    2.66000009
   13.96083355  146.37500000    0.52999997    2.66000009
   13.96416664  157.51400757    0.52999997    2.64000010
   13.96749973  154.85499573    0.55000001    2.66000009
   13.97055531  149.24299622    0.55000001    2.64000010
   13.97388840  153.07299805    0.52999997    2.66000009
   13.97722149  150.89900208    0.55000001    2.66000009
   13.98027706  153.32899475    0.52999997    2.66000009
   13.98638916  153.32899475    0.52999997    2.66000009
   13.99055576  166.04400635    0.52999997    2.66000009
   13.99361134  159.76199341    0.51999998    2.66000009
   13.99694443  164.98800659    0.52999997    2.66000009
   14.00027752  162.99699402    0.52999997    2.66000009
   14.00333309  156.60299683    0.51999998    2.66000009
   14.00666714  152.61199951    0.51999998    2.66000009
   14.00972176  159.82200623    0.55000001    2.66000009
   14.01305580  154.22700500    0.55000001    2.66000009
   14.01638889  144.55000305    0.55000001    2.66000009
   14.01888847  148.55700684    0.52999997    2.67000008
   14.01999950  144.51699829    0.55000001    2.66000009
   14.02333355  155.70199585    0.52999997    2.66000009
   14.02916622  155.70199585    0.52999997    2.66000009
   14.03333378  151.22799683    0.52999997    2.66000009
   14.03638935  166.77200317    0.52999997    2.66000009
   14.03972244  161.39900208    0.52999997    2.66000009
   14.04305553  161.18400574    0.52999997    2.66000009
   14.04611111  150.87600708    0.51999998    2.66000009
   14.04944515  157.48899841    0.51999998    2.67000008
   14.05222225  132.45700073    0.51999998    2.67000008
   14.05305576  135.21800232    0.51999998    2.67000008
   14.05638885  146.48699951    0.51999998    2.67000008
   14.05972195  156.13800049    0.51999998    2.67000008
   14.06277752  154.64599609    0.51999998    2.67000008
   14.06611156  145.03500366    0.51999998    2.67000008
   14.07194424  145.03500366    0.50000000    2.67000008
   14.07611084  158.24299622    0.50000000    2.66000009
   14.07944393  153.29200745    0.50000000    2.66000009
   14.08249950  186.21099854    0.50000000    2.67000008
   14.08555508  164.49000549    0.50000000    2.67000008
   14.08611107  153.42999268    0.50000000    2.67000008
   14.08944416  155.74800110    0.50000000    2.67000008
   14.09277725  166.51899719    0.50000000    2.67000008
   14.09583282  152.29899597    0.50000000    2.67000008
   14.09916592  166.22300720    0.50000000    2.67000008
   14.10222244  156.56199646    0.50000000    2.67000008
   14.10555553  149.26499939    0.50000000    2.66000009
   14.10888958  151.68600464    0.51999998    2.66000009
   14.11472225  151.68600464    0.50000000    2.67000008
   14.11888885  160.95199585    0.50000000    2.67000008
   14.12222195  145.74800110    0.50000000    2.67000008
   14.12555599  160.13000488    0.50000000    2.67000008
   14.12861156  154.82499695    0.51999998    2.67000008
   14.13194466  172.14799500    0.51999998    2.67000008
   14.13500023  147.08700562    0.51999998    2.67000008
   14.13833332  164.65199280    0.51999998    2.67000008
   14.14166641  160.96099854    0.51999998    2.67000008
   14.14472198  165.59399414    0.52999997    2.67000008
   14.14805508  155.23100281    0.52999997    2.67000008
   14.15138817  157.60099792    0.51999998    2.67000008
   14.15222168  166.39700317    0.51999998    2.67000008
   14.15777779  166.39700317    0.51999998    2.67000008
   14.16194439  153.01300049    0.51999998    2.67000008
   14.16499996  175.70700073    0.50000000    2.67000008
   14.16833401  156.18600464    0.50000000    2.67000008
   14.18583298  167.47900391    0.51999998    2.67000008
   14.18833351  171.34800720    0.51999998    2.67000008
   14.19138908  174.49299622    0.51999998    2.67000008
   14.19472218  169.17199707    0.52999997    2.67000008
   14.20083332  169.17199707    0.52999997    2.69000006
   14.20472240  174.52799988    0.52999997    2.67000008
   14.20805550  151.34199524    0.52999997    2.67000008
   14.21138859  163.72399902    0.52999997    2.69000006
   14.21444416  166.67799377    0.52999997    2.67000008
   14.21777725  166.71499634    0.51999998    2.69000006
   14.21916580  170.08700562    0.52999997    2.69000006
   14.22166634  175.79400635    0.51999998    2.69000006
   14.22472191  175.29499817    0.51999998    2.69000006
   14.22805500  161.03300476    0.51999998    2.69000006
   14.23111057  170.46200562    0.51999998    2.69000006
   14.23444462  169.34700012    0.51999998    2.69000006
   14.23777771  188.52099609    0.51999998    2.69000006
   14.24361134  188.52099609    0.51999998    2.69000006
   14.24777794  161.65800476    0.51999998    2.69000006
   14.25083351  179.18499756    0.51999998    2.67000008
   14.25249958  177.07099915    0.51999998    2.67000008
   14.25472260  169.31100464    0.51999998    2.69000006
   14.25777817  188.25799561    0.51999998    2.69000006
   14.26111126  177.14399719    0.51999998    2.69000006
   14.26416683  159.06500244    0.52999997    2.69000006
   14.26749992  155.74499512    0.51999998    2.69000006
   14.27083302  165.83399963    0.51999998    2.69000006
   14.27388859  164.50000000    0.51999998    2.69000006
   14.27722168  170.93600464    0.51999998    2.69000006
   14.28055573  179.72000122    0.51999998    2.69000006
   14.28638935  179.72000122    0.52999997    2.69000006
   14.29055595  176.24000549    0.51999998    2.69000006
   14.29388905  165.01600647    0.51999998    2.69000006
   14.29694462  168.64199829    0.51999998    2.69000006
   14.30027771  165.43499756    0.51999998    2.69000006
   14.30333328  162.40299988    0.51999998    2.69000006
   14.30666733  166.21800232    0.51999998    2.69000006
   14.31000042  160.89199829    0.51999998    2.69000006
   14.31305599  161.67500305    0.51999998    2.69000006
   14.31638908  165.11900330    0.51999998    2.71000004
   14.31916618  151.15800476    0.51999998    2.69000006
   14.31999969  164.87600708    0.52999997    2.69000006
   14.32305527  162.22700500    0.52999997    2.69000006
   14.32916641  162.22700500    0.51999998    2.69000006
   14.33333302  158.68899536    0.51999998    2.69000006
   14.33666611  145.92500305    0.51999998    2.71000004
   14.33972168  167.97200012    0.50000000    2.71000004
   14.34305477  147.68099976    0.51999998    2.69000006
   14.34638882  163.20700073    0.50000000    2.69000006
   14.34944439  165.11099243    0.50000000    2.69000006
   14.35249996  152.80000305    0.50000000    2.69000006
   14.35333347  157.13499451    0.50000000    2.69000006
   14.35638905  162.15299988    0.50000000    2.69000006
   14.35972214  157.85600281    0.50000000    2.69000006
   14.36277771  162.65400696    0.50000000    2.69000006
   14.36611176  172.28999329    0.50000000    2.71000004
   14.37222195  172.28999329    0.51999998    2.69000006
   14.37611103  147.06599426    0.51999998    2.69000006
   14.37944412  182.21899414    0.51999998    2.69000006
   14.38277817  175.31399536    0.51999998    2.71000004
   14.38583279  140.75300598    0.51999998    2.71000004
   14.38638878  159.08500671    0.51999998    2.71000004
   14.38944435  166.50999451    0.51999998    2.69000006
   14.39277744  163.49400330    0.51999998    2.69000006
   14.39583302  163.55599976    0.51999998    2.69000006
   14.39916611  163.20899963    0.51999998    2.71000004
   14.40249920  166.36599731    0.51999998    2.71000004
   14.40555477  160.66299438    0.51999998    2.71000004
   14.40888882  168.08000183    0.52999997    2.69000006
   14.41499996  168.08000183    0.50000000    2.71000004
   14.41916656  164.93800354    0.50000000    2.71000004
   14.41972256  170.75000000    0.50000000    2.71000004
   14.42277813  156.39199829    0.50000000    2.69000006
   14.42611122  162.91000366    0.50000000    2.69000006
   14.42916679  156.59599304    0.50000000    2.69000006
   14.43249989  163.58799744    0.50000000    2.71000004
   14.43583298  173.20399475    0.47999999    2.71000004
   14.43888855  164.19200134    0.47999999    2.69000006
   14.44222260  170.33299255    0.47999999    2.71000004
   14.44555569  161.89100647    0.47999999    2.71000004
   14.44861126  151.13000488    0.47999999    2.71000004
   14.45194435  169.74699402    0.50000000    2.71000004
   14.45249939  156.65199280    0.50000000    2.71000004
   14.45777798  156.65199280    0.50000000    2.69000006
   14.46194458  150.64399719    0.50000000    2.71000004
   14.46527767  155.16900635    0.50000000    2.71000004
   14.46833324  159.75599670    0.50000000    2.71000004
   14.47166634  157.12800598    0.50000000    2.71000004
   14.47472191  166.47900391    0.50000000    2.71000004
   14.47805500  168.78900146    0.50000000    2.71000004
   14.48138809  181.02200317    0.50000000    2.71000004
   14.48444462  165.16499329    0.50000000    2.71000004
   14.48583317  157.28799438    0.50000000    2.71000004
   14.48833370  156.06199646    0.50000000    2.71000004
   14.49138927  152.77900696    0.50000000    2.71000004
   14.49472237  156.07099915    0.50000000    2.71000004
   14.50055599  156.07099915    0.50000000    2.71000004
   14.50472260  170.60099792    0.50000000    2.71000004
   14.50805569  166.11099243    0.50000000    2.71000004
   14.51138878  166.81500244    0.50000000    2.71000004
   14.51444435  156.71899414    0.50000000    2.71000004
   14.51777744  161.82200623    0.50000000    2.71000004
   14.51916599  171.35400391    0.51999998    2.69000006
   14.52138901  178.59500122    0.51999998    2.69000006
   14.52444458  167.39300537    0.50000000    2.71000004
   14.52777767  180.02400208    0.50000000    2.71000004
   14.53111076  160.32000732    0.50000000    2.71000004
   14.53416729  157.02999878    0.50000000    2.71000004
   14.53750038  154.08799744    0.50000000    2.71000004
   14.54361153  154.08799744    0.50000000    2.71000004
   14.54750061  163.77000427    0.50000000    2.71000004
   14.55083370  152.28500366    0.50000000    2.71000004
   14.55249977  157.24000549    0.50000000    2.71000004
   14.55444431  148.82800293    0.50000000    2.71000004
   14.55749989  154.49800110    0.50000000    2.71000004
   14.56083393  149.77299500    0.51999998    2.71000004
   14.56416702  158.36500549    0.51999998    2.71000004
   14.56722260  148.61000061    0.50000000    2.71000004
   14.57055569  165.11799622    0.50000000    2.71000004
   14.57361126  166.85699463    0.50000000    2.71000004
   14.57694435  150.72500610    0.50000000    2.71000004
   14.58027744  148.90499878    0.50000000    2.71000004
   14.58638859  148.90499878    0.50000000    2.71000004
   14.59055519  142.22200012    0.50000000    2.73000002
   14.59361076  174.48300171    0.50000000    2.71000004
   14.59694386  170.47200012    0.47999999    2.71000004
   14.60027790  140.44299316    0.47999999    2.71000004
   14.60333347  156.01400757    0.47999999    2.71000004
   14.60666752  165.94000244    0.46000001    2.73000002
   14.61000061  167.65800476    0.47999999    2.71000004
   14.61305618  186.56300354    0.47999999    2.71000004
   14.61638927  172.11700439    0.47999999    2.71000004
   14.61916637  183.96299744    0.47999999    2.71000004
   14.61999989  163.97000122    0.47999999    2.71000004
   14.62305546  190.91900635    0.47999999    2.71000004
   14.62916660  190.91900635    0.47999999    2.71000004
   14.63333321  153.76899719    0.46000001    2.71000004
   14.63666630  165.92100525    0.46000001    2.73000002
   14.63972187  157.34199524    0.46000001    2.73000002
   14.64305496  158.86999512    0.46000001    2.73000002
   14.64638901  152.75399780    0.46000001    2.71000004
   14.64944458  162.79100037    0.47999999    2.73000002
   14.65249920  161.63999939    0.47999999    2.71000004
   14.65333271  157.71600342    0.50000000    2.71000004
   14.65638828  175.79299927    0.47999999    2.71000004
   14.65972137  174.37300110    0.50000000    2.71000004
   14.66305542  166.58500671    0.50000000    2.73000002
   14.66611099  142.14199829    0.47999999    2.73000002
   14.67194462  142.14199829    0.47999999    2.71000004
   14.67611122  154.19700623    0.47999999    2.73000002
   14.67944431  169.19200134    0.47999999    2.73000002
   14.68249989  167.61199951    0.47999999    2.73000002
   14.68583298  168.43699646    0.47999999    2.73000002
   14.68638897  166.90199280    0.47999999    2.73000002
   14.68944454  153.12800598    0.47999999    2.73000002
   14.69277763  139.57800293    0.50000000    2.73000002
   14.69611073  154.80400085    0.47999999    2.73000002
   14.69916630  152.16600037    0.47999999    2.71000004
   14.70249939  172.07699585    0.46000001    2.73000002
   14.70555496  162.39300537    0.47999999    2.73000002
   14.70888901  182.61099243    0.47999999    2.73000002
   14.71500015  182.61099243    0.46000001    2.73000002
   14.71888828  154.88099670    0.47999999    2.73000002
   14.71944427  161.98100281    0.47999999    2.73000002
   14.72277737  150.89199829    0.50000000    2.73000002
   14.72611046  166.79299927    0.50000000    2.73000002
   14.72916603  162.30400085    0.50000000    2.73000002
   14.73249912  147.59399414    0.50000000    2.73000002
   14.73555565  163.18400574    0.50000000    2.73000002
   14.73888874  158.19000244    0.50000000    2.73000002
   14.74222279  169.44700623    0.50000000    2.73000002
   14.74527836  158.82000732    0.47999999    2.73000002
   14.74861145  172.54200745    0.47999999    2.73000002
   14.75194454  163.23899841    0.46000001    2.73000002
   14.75277805  168.08399963    0.46000001    2.73000002
   14.75777817  168.08399963    0.46000001    2.73000002
   14.76194477  173.75999451    0.44000000    2.73000002
   14.76500034  186.11199951    0.46000001    2.73000002
   14.76833344  181.60699463    0.44000000    2.73000002
   14.77166653  172.71800232    0.44000000    2.73000002
   14.77472210  173.60200500    0.41999999    2.73000002
   14.77805519  178.29800415    0.44000000    2.75000000
   14.78138828  174.20599365    0.44000000    2.73000002
   14.78444481  195.95700073    0.44000000    2.73000002
   14.78611183  173.16099548    0.44000000    2.73000002
   14.78805637  185.37100220    0.44000000    2.73000002
   14.79138947  182.56900024    0.41999999    2.75000000
   14.79444504  189.96400452    0.41999999    2.73000002
   14.80055618  189.96400452    0.44000000    2.73000002
   14.80472279  176.55200195    0.41999999    2.75000000
   14.80805588  178.30000305    0.41999999    2.73000002
   14.81111145  193.88800049    0.44000000    2.75000000
   14.81444454  177.69599915    0.44000000    2.73000002
   14.81750011  182.58700562    0.44000000    2.73000002
   14.81944466  174.66600037    0.44000000    2.73000002
   14.82138920  178.53599548    0.44000000    2.73000002
   14.82472229  159.85000610    0.44000000    2.73000002
   14.82777786  183.33599854    0.41999999    2.75000000
   14.83111095  156.60000610    0.44000000    2.75000000
   14.83444405  175.97799683    0.41999999    2.75000000
   14.83749962  163.26199341    0.41999999    2.73000002
   14.84333324  163.26199341    0.41999999    2.73000002
   14.84749985  180.84899902    0.41999999    2.73000002
   14.85083389  175.36099243    0.41999999    2.73000002
   14.85277843  166.07299805    0.41999999    2.73000002
   14.85444450  172.32899475    0.41999999    2.75000000
   14.85777855  174.29299927    0.41999999    2.75000000
   14.86083412  176.46200562    0.41999999    2.73000002
   14.86416721  166.62899780    0.41999999    2.75000000
   14.86750031  158.74299622    0.41999999    2.75000000
   14.87055588  171.85699463    0.41999999    2.75000000
   14.87388897  160.15899658    0.41999999    2.75000000
   14.87694454  160.46499634    0.40000001    2.75000000
   14.88027763  166.24200439    0.40000001    2.75000000
   14.88638878  166.24200439    0.40000001    2.75000000
   14.89027786  165.39500427    0.41999999    2.75000000
   14.89361095  163.16499329    0.40000001    2.76999998
   14.99333382   -1.00000000   -1.00000000   -1.00000000
   15.15777779   -1.00000000   -1.00000000   -1.00000000
   15.26388931   -1.00000000   -1.00000000   -1.00000000
   15.30611134  227.41999817    0.41999999    2.76999998
   15.30944443  220.18699646    0.41999999    2.76999998
   15.31250000  194.43099976    0.41999999    2.76999998
   15.31583309  199.74299622    0.41999999    2.78999996
   15.31916618  199.85200500    0.41999999    2.76999998
   15.32222176  194.04299927    0.41999999    2.76999998
   15.32638836  194.04299927    0.41999999    2.76999998
   15.33055592  196.87899780    0.41999999    2.76999998
   15.33388901  205.63200378    0.41999999    2.76999998
   15.33694458  185.63999939    0.41999999    2.76999998
   15.33944416  177.75700378    0.41999999    2.76999998
   15.34083271  191.71400452    0.41999999    2.76999998
   15.34388828  162.81799316    0.41999999    2.78999996
   15.34722233  181.19900513    0.41999999    2.76999998
   15.35055637  193.86999512    0.41999999    2.76999998
   15.35361195  196.79499817    0.41999999    2.76999998
   15.35694504  203.69299316    0.41999999    2.76999998
   15.36000061  181.76699829    0.40000001    2.76999998
   15.36333370  201.75399780    0.40000001    2.76999998
   15.36916637  201.75399780    0.40000001    2.76999998
   15.37333393  197.14500427    0.40000001    2.76999998
   15.37666702  203.56300354    0.40000001    2.76999998
   15.37972260  208.00000000    0.40000001    2.78999996
   15.38305569  205.19400024    0.40000001    2.78999996
   15.38638878  213.01199341    0.40000001    2.78999996
   15.38944435  198.93200684    0.40000001    2.78999996
   15.39277744  209.44599915    0.40000001    2.78999996
   15.39611053  201.03100586    0.40000001    2.76999998
   15.39916611  207.70100403    0.40000001    2.76999998
   15.40249920  200.95399475    0.40000001    2.76999998
   15.40583324  208.66000366    0.38000000    2.76999998
   15.40611076  211.77799988    0.38000000    2.78999996
   15.41222191  211.77799988    0.38000000    2.78999996
   15.41611099  185.22000122    0.40000001    2.76999998
   15.41944504  184.83500671    0.40000001    2.76999998
   15.42277813  177.94799805    0.40000001    2.76999998
   15.42583370  202.81399536    0.40000001    2.76999998
   15.42916679  210.26699829    0.40000001    2.78999996
   15.43249989  227.55400085    0.40000001    2.78999996
   15.43555546  206.35600281    0.40000001    2.78999996
   15.43888855  209.77499390    0.40000001    2.76999998
   15.43972206  219.84300232    0.40000001    2.76999998
   15.44250011  201.53300476    0.40000001    2.76999998
   15.44583321  189.88699341    0.40000001    2.78999996
   15.44888878  192.03199768    0.40000001    2.76999998
   15.45499992  192.03199768    0.40000001    2.76999998
   15.45916653  180.14799500    0.40000001    2.78999996
   15.46222210  209.96899414    0.40000001    2.78999996
   15.46555519  190.30400085    0.40000001    2.78999996
   15.46888828  200.00300598    0.40000001    2.76999998
   15.47194386  185.32699585    0.41999999    2.76999998
   15.47277737  190.49099731    0.41999999    2.76999998
   15.47555542  188.90199280    0.41999999    2.78999996
   15.47888851  196.51400757    0.41999999    2.76999998
   15.48194408  188.87600708    0.41999999    2.76999998
   15.48527813  194.57899475    0.41999999    2.76999998
   15.48861122  197.62800598    0.41999999    2.76999998
   15.49166679  175.86500549    0.41999999    2.78999996
   15.49777794  175.86500549    0.40000001    2.78999996
   15.50194454  207.97200012    0.40000001    2.78999996
   15.50527763  172.29899597    0.40000001    2.76999998
   15.50638866  196.62800598    0.40000001    2.78999996
   15.50861073  184.17900085    0.40000001    2.76999998
   15.51194477  212.91900635    0.40000001    2.78999996
   15.51527786  184.93800354    0.40000001    2.78999996
   15.51833344  182.38600159    0.38000000    2.76999998
   15.52166653  183.28900146    0.40000001    2.78999996
   15.52472210  179.20799255    0.40000001    2.76999998
   15.52805519  185.39199829    0.38000000    2.78999996
   15.53138828  182.01300049    0.38000000    2.76999998
   15.53444481  195.24899292    0.40000001    2.76999998
   15.54055595  195.24899292    0.38000000    2.78999996
   15.54472256  164.98699951    0.38000000    2.78999996
   15.54805565  153.07099915    0.38000000    2.78999996
   15.55111122  183.06799316    0.38000000    2.76999998
   15.55444431  168.48599243    0.38000000    2.78999996
   15.55777836  209.64900208    0.40000001    2.78999996
   15.56111145  201.74400330    0.40000001    2.78999996
   15.56416702  181.13499451    0.40000001    2.78999996
   15.56750011  171.91099548    0.40000001    2.78999996
   15.57055569  170.68200684    0.40000001    2.78999996
   15.57305527  191.72200012    0.40000001    2.76999998
   15.57416630  190.05099487    0.40000001    2.76999998
   15.57750034  193.39300537    0.40000001    2.78999996
   15.58361053  193.39300537    0.40000001    2.76999998
   15.58749962  176.29600525    0.40000001    2.78999996
   15.59083271  163.50500488    0.38000000    2.78999996
   15.59416676  191.31900024    0.40000001    2.78999996
   15.59722233  185.04800415    0.38000000    2.78999996
   15.60055637  147.18699646    0.36000001    2.78999996
   15.60388947  206.05299377    0.36000001    2.78999996
   15.60638905  173.75100708    0.38000000    2.78999996
   15.60722256  181.75900269    0.38000000    2.78999996
   15.61055565  185.77999878    0.38000000    2.76999998
   15.61361122  187.24400330    0.38000000    2.78999996
   15.61694431  183.68499756    0.38000000    2.78999996
   15.62027836  157.94900513    0.38000000    2.78999996
   15.62638855  157.94900513    0.38000000    2.78999996
   15.63055611  173.15400696    0.38000000    2.78999996
   15.63361073  147.60600281    0.38000000    2.78999996
   15.63694477  165.91999817    0.38000000    2.78999996
   15.63972187  171.77999878    0.38000000    2.78999996
   15.64055538  179.30599976    0.38000000    2.78999996
   15.64388847  152.37600708    0.38000000    2.76999998
   15.64694405  161.19299316    0.38000000    2.78999996
   15.65027714  151.44700623    0.38000000    2.78999996
   15.65361118  146.80900574    0.38000000    2.78999996
   15.65666676  174.47399902    0.38000000    2.78999996
   15.65999985  157.41499329    0.40000001    2.76999998
   15.66333294  175.98800659    0.40000001    2.78999996
   15.66916656  175.98800659    0.40000001    2.78999996
   15.67333412  168.06100464    0.40000001    2.78999996
   15.67666721  174.33599854    0.40000001    2.78999996
   15.67972279  176.55200195    0.40000001    2.78999996
   15.68305588  162.69999695    0.40000001    2.78999996
   15.68638897  194.54400635    0.40000001    2.78999996
   15.68944454  166.65499878    0.40000001    2.78999996
   15.69277763  185.01699829    0.40000001    2.78999996
   15.69583321  190.39799500    0.40000001    2.78999996
   15.69916630  202.61999512    0.40000001    2.78999996
   15.70249939  179.93800354    0.40000001    2.78999996
   15.70555496  167.77799988    0.40000001    2.78999996
   15.70638847  149.09800720    0.40000001    2.78999996
   15.71194458  149.09800720    0.40000001    2.78999996
   15.71611118  164.80200195    0.40000001    2.78999996
   15.71944427  188.99899292    0.38000000    2.78999996
   15.72249985  184.30000305    0.38000000    2.78999996
   15.72583294  161.20199585    0.40000001    2.78999996
   15.72916603  182.57800293    0.40000001    2.78999996
   15.73222160  165.61000061    0.38000000    2.78999996
   15.73555565  159.89399719    0.38000000    2.78999996
   15.73888874  173.98399353    0.36000001    2.78999996
   15.73972225  187.06900024    0.36000001    2.78999996
   15.74222279  203.01400757    0.36000001    2.78999996
   15.74555588  168.82099915    0.36000001    2.78999996
   15.74888897  195.58099365    0.36000001    2.78999996
   15.75500011  195.58099365    0.36000001    2.78999996
   15.75888920  156.60400391    0.36000001    2.78999996
   15.76222229  171.68699646    0.36000001    2.78999996
   15.76555538  163.72700500    0.36000001    2.78999996
   15.76861095  181.61500549    0.36000001    2.78999996
   15.77194405  184.94799805    0.36000001    2.78999996
   15.77305508  166.28700256    0.36000001    2.78999996
   15.77555561  172.86300659    0.36000001    2.78999996
   15.77888870  177.58399963    0.36000001    2.78999996
   15.78222179  162.00500488    0.36000001    2.78999996
   15.78527832  167.71800232    0.36000001    2.78999996
   15.78861141  177.95300293    0.36000001    2.80999994
   15.79166698  155.42799377    0.36000001    2.78999996
   15.79777813  155.42799377    0.36000001    2.78999996
   15.80194473  186.67999268    0.34000000    2.80999994
   15.80500031  165.39100647    0.36000001    2.78999996
   15.80638885  139.95100403    0.36000001    2.78999996
   15.80888939  170.59500122    0.36000001    2.80999994
   15.81194496  153.70500183    0.36000001    2.80999994
   15.81527805  164.81500244    0.36000001    2.78999996
   15.81833363  174.13900757    0.36000001    2.78999996
   15.82166672  165.58399963    0.36000001    2.76999998
   15.82499981  147.98699951    0.36000001    2.78999996
   15.82805538  168.73599243    0.36000001    2.78999996
   15.83138847  169.39799500    0.36000001    2.78999996
   15.83472157  167.63699341    0.36000001    2.78999996
   15.84055519  167.63699341    0.36000001    2.78999996
   15.84472179  176.51199341    0.36000001    2.78999996
   15.84805489  158.74000549    0.36000001    2.78999996
   15.85111141  147.41499329    0.36000001    2.78999996
   15.85444450  164.65199280    0.36000001    2.80999994
   15.85750008  178.22000122    0.36000001    2.78999996
   15.86083412  169.82000732    0.38000000    2.78999996
   15.86416721  177.07000732    0.36000001    2.78999996
   15.86722279  181.80200195    0.36000001    2.78999996
   15.87055588  163.86500549    0.36000001    2.78999996
   15.87305546  179.32699585    0.36000001    2.78999996
   15.87416649  189.40199280    0.36000001    2.78999996
   15.87750053  173.31500244    0.38000000    2.78999996
   15.88333321  173.31500244    0.38000000    2.78999996
   15.88749981  187.28199768    0.36000001    2.78999996
   15.89083290  188.30700684    0.36000001    2.78999996
   15.89416695  175.21400452    0.36000001    2.78999996
   15.89722252  182.34399414    0.36000001    2.78999996
   15.90055561  211.00900269    0.36000001    2.78999996
   15.90361118  190.99000549    0.36000001    2.80999994
   15.90638828  199.30599976    0.36000001    2.78999996
   15.90722179  204.82400513    0.36000001    2.78999996
   15.91055489  175.75100708    0.36000001    2.78999996
   15.91388893  198.59899902    0.36000001    2.78999996
   15.91694450  166.82600403    0.36000001    2.78999996
   15.92027855  180.35099792    0.36000001    2.80999994
   15.92638874  180.35099792    0.36000001    2.78999996
   15.93027782  170.79200745    0.36000001    2.78999996
   15.93361092  173.15100098    0.36000001    2.78999996
   15.93694496  162.59100342    0.38000000    2.78999996
   15.93972206  168.24899292    0.38000000    2.78999996
   15.94027805  150.21600342    0.38000000    2.78999996
   15.94361115  151.22500610    0.38000000    2.80999994
   15.94694424  175.54299927    0.38000000    2.78999996
   15.94999981  164.33599854    0.38000000    2.78999996
   15.95333290  163.02699280    0.38000000    2.78999996
   15.95638847  170.71099854    0.36000001    2.78999996
   15.95972157  162.22000122    0.36000001    2.78999996
   15.96305561  162.44299316    0.36000001    2.78999996
   15.96916580  162.44299316    0.38000000    2.80999994
   15.97333336  156.30299377    0.36000001    2.78999996
   15.97638798  148.94500732    0.38000000    2.78999996
   15.97972202  155.76400757    0.38000000    2.78999996
   15.98305511  157.53100586    0.38000000    2.78999996
   15.98611164  148.03599548    0.40000001    2.80999994
   15.98944473  162.82299805    0.40000001    2.80999994
   15.99277782  170.99099731    0.40000001    2.78999996
   15.99583340  171.65899658    0.40000001    2.78999996
   15.99916649  137.77999878    0.40000001    2.78999996
   16.00222206  158.76600647    0.40000001    2.78999996
   16.00555611  146.01300049    0.41999999    2.78999996
   16.00638962  144.32800293    0.40000001    2.78999996
   16.01194382  144.32800293    0.44000000    2.78999996
   16.01611137  144.39100647    0.41999999    2.78999996
   16.01944351  168.06599426    0.40000001    2.78999996
   16.02249908  150.45300293    0.40000001    2.76999998
   16.02583313  137.20500183    0.40000001    2.78999996
   16.02888870  153.42999268    0.38000000    2.78999996
   16.03222275  139.85299683    0.38000000    2.78999996
   16.03555489  156.79299927    0.38000000    2.78999996
   16.03861046  161.89700317    0.38000000    2.78999996
   16.03972244  156.19299316    0.38000000    2.78999996
   16.04222107  131.46699524    0.38000000    2.78999996
   16.04555511  156.59500122    0.38000000    2.78999996
   16.04888916  143.11900330    0.38000000    2.78999996
   16.05472183  143.11900330    0.38000000    2.78999996
   16.05888748  156.66900635    0.38000000    2.78999996
   16.06222153  161.22599792    0.40000001    2.78999996
   16.06527710  182.59599304    0.40000001    2.80999994
   16.06861115  154.00199890    0.40000001    2.80999994
   16.07194519  179.90699768    0.40000001    2.78999996
   16.07305717  193.58599854    0.40000001    2.78999996
   16.07527924  182.53300476    0.40000001    2.78999996
   16.07861137  160.29600525    0.40000001    2.78999996
   16.08194542  186.42799377    0.40000001    2.78999996
   16.08500099  171.94299316    0.40000001    2.78999996
   16.08833313  194.49699402    0.40000001    2.78999996
   16.09166718  199.47500610    0.40000001    2.78999996
   16.09777832  199.47500610    0.40000001    2.78999996
   16.10194397  192.86999512    0.41999999    2.78999996
   16.10499954  174.57200623    0.41999999    2.78999996
   16.10639000  173.22300720    0.41999999    2.78999996
   16.10861206  183.62899780    0.41999999    2.78999996
   16.11194420  176.53399658    0.41999999    2.78999996
   16.11527824  188.93400574    0.41999999    2.76999998
   16.11833382  193.27900696    0.41999999    2.78999996
   16.12166595  182.97300720    0.44000000    2.78999996
   16.12500000  172.27000427    0.44000000    2.78999996
   16.12805557  175.19700623    0.41999999    2.78999996
   16.13138962  167.13699341    0.44000000    2.78999996
   16.13472176  156.45500183    0.44000000    2.78999996
   16.14055634  156.45500183    0.44000000    2.78999996
   16.14472198  174.50199890    0.44000000    2.78999996
   16.14777756  180.47700500    0.44000000    2.78999996
   16.15111160  166.92300415    0.44000000    2.78999996
   16.15444374  183.30200195    0.44000000    2.78999996
   16.15749931  184.83900452    0.44000000    2.78999996
   16.16083336  188.40899658    0.41999999    2.78999996
   16.16388893  188.37399292    0.41999999    2.78999996
   16.16722107  164.72099304    0.41999999    2.78999996
   16.17055511  179.21000671    0.41999999    2.78999996
   16.17305565  184.02400208    0.40000001    2.78999996
   16.17388916  164.62500000    0.40000001    2.78999996
   16.17722130  177.17300415    0.40000001    2.78999996
   16.18333244  177.17300415    0.40000001    2.78999996
   16.18750000  174.31799316    0.38000000    2.78999996
   16.19083214  182.12699890    0.40000001    2.80999994
   16.19388771  176.24600220    0.38000000    2.80999994
   16.19722176  184.73100281    0.36000001    2.78999996
   16.20027924  166.99600220    0.38000000    2.78999996
   16.20361137  160.62600708    0.38000000    2.78999996
   16.20639038  178.27099609    0.38000000    2.78999996
   16.20750046  154.63800049    0.38000000    2.78999996
   16.21055603  152.00199890    0.38000000    2.78999996
   16.21389008  171.91700745    0.38000000    2.78999996
   16.21694565  161.63699341    0.38000000    2.80999994
   16.22027779  182.06799316    0.38000000    2.78999996
   16.22611237  182.06799316    0.38000000    2.80999994
   16.23027802  169.67999268    0.38000000    2.80999994
   16.23361206  180.97700500    0.38000000    2.80999994
   16.23666763  148.39700317    0.38000000    2.78999996
   16.23972321  170.62699890    0.36000001    2.78999996
   16.24055672  154.54299927    0.36000001    2.78999996
   16.24361229  173.87100220    0.36000001    2.78999996
   16.24694443  155.75999451    0.36000001    2.78999996
   16.25000000  168.84399414    0.36000001    2.80999994
   16.25333405  197.07699585    0.38000000    2.78999996
   16.25666618  168.88200378    0.38000000    2.80999994
   16.25972176  166.17799377    0.36000001    2.80999994
   16.26305580  176.39500427    0.38000000    2.80999994
   16.26916695  176.39500427    0.38000000    2.78999996
   16.27305603  191.07400513    0.36000001    2.82999992
   16.27638817  186.62600708    0.36000001    2.80999994
   16.27972221  178.84700012    0.38000000    2.78999996
   16.28277779  179.69500732    0.38000000    2.80999994
   16.28610992  164.69500732    0.38000000    2.80999994
   16.28944397  177.63099670    0.38000000    2.80999994
   16.29249954  163.77000427    0.40000001    2.80999994
   16.29583359  181.16400146    0.41999999    2.78999996
   16.29888916  183.88299561    0.40000001    2.80999994
   16.30222130  175.96099854    0.46000001    2.78999996
   16.30555534  149.82699585    0.44000000    2.78999996
   16.30638885  145.91499329    0.44000000    2.80999994
   16.32694626  145.91499329    0.41999999    2.78999996
   16.33111191  173.16499329    0.41999999    2.80999994
   16.33444595  162.82499695    0.41999999    2.78999996
   16.33750153  158.95300293    0.41999999    2.78999996
   16.33972359  187.92799377    0.41999999    2.80999994
   16.34138870  188.35800171    0.41999999    2.80999994
   16.34444427  177.71200562    0.40000001    2.78999996
   16.34777832  179.80299377    0.41999999    2.78999996
   16.35111237  177.34300232    0.41999999    2.78999996
   16.35416794  161.16400146    0.41999999    2.80999994
   16.35750008  167.16299438    0.41999999    2.80999994
   16.36083412  168.21000671    0.44000000    2.78999996
   16.36388969  150.99299622    0.44000000    2.80999994
   16.36972237  150.99299622    0.46000001    2.80999994
   16.37388992  152.58299255    0.47999999    2.80999994
   16.37722206  143.57800293    0.47999999    2.78999996
   16.38027763  154.60099792    0.47999999    2.78999996
   16.38361168  161.95899963    0.46000001    2.78999996
   16.38666725  164.09199524    0.41999999    2.78999996
   16.38999939  180.07299805    0.41999999    2.80999994
   16.39333344  160.89599609    0.40000001    2.80999994
   16.39638901  175.27000427    0.38000000    2.80999994
   16.39972115  163.55900574    0.36000001    2.80999994
   16.40305519  160.58299255    0.36000001    2.80999994
   16.40611076  165.53900146    0.36000001    2.80999994
   16.40666580  180.00500488    0.36000001    2.80999994
   16.41250038  180.00500488    0.36000001    2.78999996
   16.41666603  169.24000549    0.36000001    2.78999996
   16.42000008  157.69500732    0.36000001    2.78999996
   16.42333221  175.91499329    0.36000001    2.78999996
   16.42638779  177.23300171    0.36000001    2.78999996
   16.42972183  164.17799377    0.36000001    2.80999994
   16.43277740  176.49899292    0.34000000    2.80999994
   16.43610954  168.46699524    0.34000000    2.80999994
   16.43944359  175.35699463    0.34000000    2.80999994
   16.43999863  172.14100647    0.34000000    2.80999994
   16.44305420  164.16700745    0.34000000    2.78999996
   16.44610977  165.18800354    0.36000001    2.80999994
   16.44944382  181.94799805    0.34000000    2.78999996
   16.45555687  181.94799805    0.34000000    2.78999996
   16.45944595  162.13299561    0.34000000    2.78999996
   16.46277809  179.96000671    0.34000000    2.78999996
   16.46611214  159.72799683    0.34000000    2.80999994
   16.46916771  184.48399353    0.34000000    2.78999996
   16.47249985  161.79800415    0.36000001    2.80999994
   16.47333336  175.13099670    0.36000001    2.80999994
   16.47611237  180.05400085    0.34000000    2.78999996
   16.47916794  188.76199341    0.34000000    2.78999996
   16.48250008  182.72799683    0.36000001    2.80999994
   16.48583412  184.98100281    0.34000000    2.80999994
   16.48888969  169.51400757    0.36000001    2.80999994
   16.49222183  160.28300476    0.36000001    2.80999994
   16.49833298  160.28300476    0.36000001    2.78999996
   16.50250053  175.78999329    0.36000001    2.80999994
   16.50555611  165.32200623    0.36000001    2.80999994
   16.50666618  187.67700195    0.36000001    2.78999996
   16.50944519  179.72700500    0.36000001    2.80999994
   16.51250076  183.79499817    0.36000001    2.78999996
   16.51583290  170.34399414    0.36000001    2.80999994
   16.51916695  168.30799866    0.36000001    2.78999996
   16.52222252  171.71400452    0.38000000    2.78999996
   16.52555466  171.64900208    0.36000001    2.78999996
   16.52888870  178.36300659    0.36000001    2.78999996
   16.53194427  169.46899414    0.36000001    2.80999994
   16.53527641  168.86099243    0.38000000    2.78999996
   16.54111099  168.86099243    0.36000001    2.78999996
   16.54527664  160.33000183    0.38000000    2.80999994
   16.54861069  151.41200256    0.38000000    2.78999996
   16.55166626  162.42500305    0.38000000    2.78999996
   16.55499840  173.38600159    0.38000000    2.80999994
   16.55805397  158.54699707    0.38000000    2.80999994
   16.56138802  168.68400574    0.44000000    2.78999996
   16.56472206  154.83099365    0.44000000    2.80999994
   16.56777954  162.41600037    0.40000001    2.78999996
   16.57111168  166.72900391    0.40000001    2.78999996
   16.57333374  156.36999512    0.38000000    2.78999996
   16.57472229  166.56599426    0.38000000    2.78999996
   16.57805634  158.09700012    0.38000000    2.78999996
   16.58388901  158.09700012    0.36000001    2.78999996
   16.58805656  160.89799500    0.36000001    2.78999996
   16.59138870  163.28599548    0.36000001    2.80999994
   16.59444427  164.18600464    0.36000001    2.80999994
   16.59777832  159.83799744    0.36000001    2.80999994
   16.60111237  156.15800476    0.38000000    2.80999994
   16.60416794  160.54299927    0.38000000    2.78999996
   16.60666656  162.13999939    0.36000001    2.78999996
   16.60805511  155.83000183    0.36000001    2.78999996
   16.61111069  159.19099426    0.38000000    2.80999994
   16.61444473  160.15600586    0.36000001    2.80999994
   16.61777878  158.67700195    0.36000001    2.78999996
   16.62083435  161.72599792    0.36000001    2.80999994
   16.62694550  161.72599792    0.38000000    2.78999996
   16.63083267  167.83599854    0.38000000    2.80999994
   16.63416672  161.91200256    0.38000000    2.80999994
   16.63750076  155.91900635    0.36000001    2.80999994
   16.63999939  145.78799438    0.36000001    2.80999994
   16.64111137  149.13699341    0.36000001    2.80999994
   16.64416695  162.74600220    0.38000000    2.78999996
   16.64749908  158.69700623    0.38000000    2.78999996
   16.65083313  152.08700562    0.38000000    2.78999996
   16.65388870  134.23300171    0.38000000    2.80999994
   16.65722275  163.91600037    0.38000000    2.80999994
   16.66055489  149.84300232    0.38000000    2.80999994
   16.66361046  157.95599365    0.38000000    2.78999996
   16.66972160  157.95599365    0.38000000    2.80999994
   16.67388916  146.12199402    0.40000001    2.80999994
   16.67694473  155.07800293    0.38000000    2.80999994
   16.68027687  168.17900085    0.36000001    2.80999994
   16.68361092  168.38200378    0.36000001    2.80999994
   16.68666649  161.99200439    0.36000001    2.80999994
   16.68999863  144.88600159    0.34000000    2.80999994
   16.69305420  162.11300659    0.34000000    2.80999994
   16.69638824  134.78399658    0.34000000    2.80999994
   16.69972038  158.53700256    0.34000000    2.80999994
   16.70277786  155.27699280    0.34000000    2.78999996
   16.70611191  162.76699829    0.34000000    2.80999994
   16.70666695  169.33200073    0.34000000    2.80999994
   16.71250153  169.33200073    0.34000000    2.80999994
   16.71666718  158.55799866    0.34000000    2.80999994
   16.72000122  157.52999878    0.34000000    2.80999994
   16.72305679  154.03399658    0.34000000    2.80999994
   16.72638893  159.46200562    0.34000000    2.80999994
   16.72944450  157.97500610    0.31999999    2.80999994
   16.73277855  167.82600403    0.31999999    2.80999994
   16.73611069  154.31199646    0.31999999    2.80999994
   16.73916626  171.22799683    0.31999999    2.80999994
   16.73999977  174.00799561    0.31999999    2.80999994
   16.74277878  164.04499817    0.31999999    2.80999994
   16.74611092  155.68200684    0.31999999    2.80999994
   16.74916649  147.48100281    0.31999999    2.80999994
   16.75527763  147.48100281    0.34000000    2.78999996
   16.75944519  159.52600098    0.31999999    2.80999994
   16.76277733  163.36500549    0.34000000    2.80999994
   16.76583290  162.03999329    0.34000000    2.80999994
   16.76916695  159.50700378    0.34000000    2.78999996
   16.77249908  147.24000549    0.34000000    2.80999994
   16.77333260  146.12399292    0.34000000    2.80999994
   16.77611160  158.71899414    0.34000000    2.78999996
   16.77944374  149.05599976    0.34000000    2.80999994
   16.78249931  154.69000244    0.34000000    2.80999994
   16.78583336  154.48300171    0.34000000    2.80999994
   16.78888893  166.88499451    0.34000000    2.78999996
   16.79222107  156.59300232    0.34000000    2.78999996
   16.79833221  156.59300232    0.34000000    2.80999994
   16.80222130  160.70100403    0.36000001    2.78999996
   16.80555534  158.84399414    0.34000000    2.80999994
   16.80666542  152.84800720    0.34000000    2.78999996
   16.80916595  155.74400330    0.34000000    2.80999994
   16.81250000  167.00700378    0.36000001    2.78999996
   16.81555557  147.21000671    0.36000001    2.80999994
   16.81888962  165.81500244    0.36000001    2.80999994
   16.82194519  147.64599609    0.36000001    2.80999994
   16.82527924  148.88999939    0.34000000    2.80999994
   16.82861137  151.19299316    0.34000000    2.80999994
   16.83166695  150.19799805    0.34000000    2.80999994
   16.83500099  135.76699829    0.34000000    2.80999994
   16.84111214  135.76699829    0.36000001    2.80999994
   16.84527779  157.21600342    0.34000000    2.80999994
   16.84833336  134.92399597    0.34000000    2.80999994
   16.85166740  149.09100342    0.34000000    2.80999994
   16.85499954  142.79299927    0.36000001    2.80999994
   16.85805511  148.13000488    0.36000001    2.78999996
   16.86138916  155.21899414    0.36000001    2.80999994
   16.86472321  127.69699860    0.38000000    2.78999996
   16.86777878  150.19700623    0.38000000    2.80999994
   16.87111092  149.23699951    0.36000001    2.78999996
   16.87333298  134.66200256    0.36000001    2.78999996
   16.87472153  139.75000000    0.36000001    2.78999996
   16.87805557  133.40899658    0.36000001    2.78999996
   16.88388824  133.40899658    0.36000001    2.80999994
   16.88805580  147.35099792    0.38000000    2.80999994
   16.89138794  140.51400757    0.38000000    2.80999994
   16.89444351  143.93200684    0.38000000    2.80999994
   16.89777756  136.68800354    0.38000000    2.80999994
   16.90083313  137.81900024    0.40000001    2.80999994
   16.90416718  138.69599915    0.40000001    2.78999996
   16.90666580  133.95500183    0.38000000    2.80999994
   16.90777779  142.35699463    0.38000000    2.80999994
   16.91110992  148.65899658    0.38000000    2.80999994
   16.91416550  153.28900146    0.36000001    2.80999994
   16.91749954  154.21299744    0.36000001    2.80999994
   16.92055511  144.03399658    0.36000001    2.80999994
   16.92666626  144.03399658    0.36000001    2.80999994
   16.93083191  159.69500732    0.34000000    2.78999996
   16.93416595  160.75300598    0.34000000    2.80999994
   16.93722153  164.25500488    0.34000000    2.80999994
   16.93999863  159.61900330    0.34000000    2.80999994
   16.94111061  159.34100342    0.34000000    2.80999994
   16.94444275  161.04600525    0.34000000    2.78999996
   16.94749832  170.41999817    0.36000001    2.78999996
   16.95083427  167.77900696    0.36000001    2.78999996
   16.95416832  166.34599304    0.40000001    2.78999996
   16.95722389  153.34800720    0.40000001    2.78999996
   16.96055603  156.03399658    0.40000001    2.78999996
   16.96361160  154.76400757    0.38000000    2.80999994
   16.96972275  154.76400757    0.34000000    2.80999994
   16.97361183  156.37100220    0.38000000    2.80999994
   16.97694588  179.60200500    0.40000001    2.78999996
   16.98027802  177.62800598    0.40000001    2.78999996
   16.98333359  169.47999573    0.40000001    2.78999996
   16.98666763  161.48899841    0.40000001    2.78999996
   16.98999977  176.69900513    0.40000001    2.78999996
   16.99333382  190.89900208    0.44000000    2.80999994
   16.99638939  185.00500488    0.44000000    2.80999994
   16.99972153  180.13499451    0.44000000    2.80999994
   17.00277710  166.75199890    0.46000001    2.80999994
   17.00611115  178.83099365    0.46000001    2.78999996
   17.00666618  188.88600159    0.46000001    2.78999996
   17.01250076  188.88600159    0.46000001    2.80999994
   17.01666641  152.34599304    0.46000001    2.80999994
   17.01972198  167.63299561    0.47999999    2.78999996
   17.02305603  142.06399536    0.47999999    2.78999996
   17.02611160  130.03399658    0.47999999    2.80999994
   17.02944374  164.72500610    0.46000001    2.78999996
   17.03277779  138.32600403    0.44000000    2.80999994
   17.03610992  163.57600403    0.44000000    2.80999994
   17.03916550  155.92199707    0.44000000    2.78999996
   17.03999901  166.10299683    0.44000000    2.78999996
   17.04277802  166.74299622    0.44000000    2.80999994
   17.04611015  178.56700134    0.41999999    2.80999994
   17.04916573  180.16299438    0.41999999    2.80999994
   17.05527687  180.16299438    0.41999999    2.78999996
   17.05944443  166.11199951    0.41999999    2.80999994
   17.06250000  183.01300049    0.41999999    2.80999994
   17.06583214  157.52999878    0.41999999    2.80999994
   17.06916809  168.63699341    0.41999999    2.80999994
   17.07222366  177.98800659    0.41999999    2.80999994
   17.07333374  168.41000366    0.41999999    2.80999994
   17.07583427  184.57600403    0.41999999    2.78999996
   17.07916832  172.76300049    0.41999999    2.78999996
   17.08222389  173.41000366    0.41999999    2.80999994
   17.08555603  170.58700562    0.41999999    2.80999994
   17.08861160  170.91000366    0.40000001    2.80999994
   17.09194565  172.15400696    0.38000000    2.78999996
   17.09805679  172.15400696    0.38000000    2.80999994
   17.10222244  170.21800232    0.38000000    2.80999994
   17.10555649  165.99699402    0.38000000    2.80999994
   17.10666656  153.38200378    0.38000000    2.80999994
   17.10916710  162.95199585    0.40000001    2.78999996
   17.11250114  159.11900330    0.40000001    2.78999996
   17.11555672  174.91099548    0.38000000    2.78999996
   17.11888885  155.30700684    0.40000001    2.78999996
   17.12194443  153.83500671    0.40000001    2.78999996
   17.12527847  141.36000061    0.40000001    2.78999996
   17.12861061  170.82600403    0.40000001    2.78999996
   17.13166618  157.69299316    0.40000001    2.78999996
   17.13500023  175.08700562    0.40000001    2.80999994
   17.14111137  175.08700562    0.38000000    2.78999996
   17.14500046  187.75100708    0.38000000    2.78999996
   17.14833260  151.37399292    0.38000000    2.78999996
   17.15166664  153.73599243    0.38000000    2.78999996
   17.15472221  164.30499268    0.38000000    2.78999996
   17.15805435  153.77299500    0.38000000    2.78999996
   17.16110992  159.37500000    0.38000000    2.78999996
   17.16444397  164.96200562    0.40000001    2.78999996
   17.16777802  167.10800171    0.38000000    2.78999996
   17.17083359  150.02999878    0.38000000    2.78999996
   17.17333221  171.42700195    0.38000000    2.78999996
   17.17472076  166.57699585    0.38000000    2.78999996
   17.17805481  165.41400146    0.40000001    2.78999996
   17.18388748  165.41400146    0.38000000    2.78999996
   17.18805504  157.33700562    0.40000001    2.78999996
   17.19111061  160.81799316    0.38000000    2.78999996
   17.19444275  172.83700562    0.38000000    2.78999996
   17.19749832  168.07200623    0.40000001    2.78999996
   17.20083427  163.33500671    0.38000000    2.78999996
   17.20416832  163.29600525    0.40000001    2.80999994
   17.20666695  161.07299805    0.40000001    2.78999996
   17.20777893  166.58599854    0.40000001    2.78999996
   17.21111107  164.40199280    0.40000001    2.78999996
   17.21416664  174.74299622    0.38000000    2.80999994
   17.21750069  171.66499329    0.38000000    2.80999994
   17.22055626  171.51300049    0.40000001    2.78999996
   17.22666740  171.51300049    0.38000000    2.78999996
   17.23083305  176.76800537    0.40000001    2.78999996
   17.23388863  169.32800293    0.40000001    2.78999996
   17.23722267  173.99200439    0.40000001    2.78999996
   17.23999977  170.29400635    0.40000001    2.78999996
   17.24083328  168.00799561    0.40000001    2.78999996
   17.24416733  172.84500122    0.40000001    2.78999996
   17.24722290  159.63400269    0.40000001    2.78999996
   17.25055504  147.17599487    0.40000001    2.78999996
   17.25361061  165.98599243    0.40000001    2.78999996
   17.25694466  158.07200623    0.40000001    2.78999996
   17.26027870  167.76600647    0.40000001    2.78999996
   17.26333427  165.62500000    0.40000001    2.78999996
   17.26944351  165.62500000    0.41999999    2.78999996
   17.27361107  180.48399353    0.40000001    2.78999996
   17.27694511  183.38800049    0.40000001    2.78999996
   17.28000069  154.38000488    0.41999999    2.78999996
   17.28333282  169.02699280    0.41999999    2.78999996
   17.28666687  185.50300598    0.41999999    2.78999996
   17.28972244  165.77600098    0.41999999    2.78999996
   17.29305458  175.29699707    0.41999999    2.78999996
   17.29611015  183.72099304    0.44000000    2.78999996
   17.29944420  178.26899719    0.44000000    2.78999996
   17.30277634  168.58099365    0.41999999    2.78999996
   17.30583191  161.52900696    0.44000000    2.78999996
   17.30666542  173.11300659    0.41999999    2.78999996
   17.31250000  173.11300659    0.41999999    2.78999996
   17.31638718  179.51100159    0.41999999    2.78999996
   17.31972313  180.62100220    0.41999999    2.78999996
   17.32305717  174.58399963    0.41999999    2.78999996
   17.34055710  181.44900513    0.41999999    2.78999996
   17.34277916  162.07099915    0.41999999    2.76999998
   17.34611130  175.66799927    0.41999999    2.78999996
   17.34944534  161.35000610    0.41999999    2.78999996
   17.35527802  161.35000610    0.41999999    2.78999996
   17.35944557  161.38699341    0.41999999    2.78999996
   17.36277771  169.74099731    0.41999999    2.76999998
   17.36583328  168.40600586    0.44000000    2.78999996
   17.36916733  160.48800659    0.44000000    2.80999994
   17.37249947  157.31500244    0.44000000    2.78999996
   17.37361145  175.55900574    0.44000000    2.78999996
   17.37611198  159.73500061    0.44000000    2.76999998
   17.37944412  165.08700562    0.46000001    2.78999996
   17.38277817  162.96200562    0.44000000    2.78999996
   17.38583374  164.60400391    0.50000000    2.78999996
   17.38916588  174.93099976    0.51999998    2.78999996
   17.39222145  167.92599487    0.47999999    2.78999996
   17.39833260  167.92599487    0.46000001    2.78999996
   17.40222168  170.00500488    0.46000001    2.78999996
   17.40555573  163.17900085    0.46000001    2.78999996
   17.40694427  178.86199951    0.47999999    2.78999996
   17.40916634  164.08299255    0.46000001    2.76999998
   17.41250038  158.23800659    0.47999999    2.76999998
   17.41555595  158.03799438    0.47999999    2.78999996
   17.41888809  168.27099609    0.46000001    2.78999996
   17.42222214  174.14399719    0.46000001    2.78999996
   17.42527771  169.28999329    0.46000001    2.78999996
   17.42860985  160.95100403    0.46000001    2.78999996
   17.43166542  159.33900452    0.46000001    2.78999996
   17.43499947  165.83200073    0.46000001    2.78999996
   17.44111061  165.83200073    0.46000001    2.78999996
   17.44527626  157.87800598    0.47999999    2.78999996
   17.44833183  151.90400696    0.46000001    2.78999996
   17.45166779  153.54100037    0.46000001    2.78999996
   17.45499992  158.50199890    0.46000001    2.78999996
   17.45805550  153.83200073    0.46000001    2.78999996
   17.46138954  161.95399475    0.47999999    2.76999998
   17.46444511  171.28799438    0.47999999    2.78999996
   17.46777916  152.93600464    0.50000000    2.78999996
   17.47111130  143.92700195    0.50000000    2.78999996
   17.47389030  168.94500732    0.50000000    2.78999996
   17.47472191  172.84599304    0.50000000    2.78999996
   17.47805595  159.68299866    0.51999998    2.78999996
   17.48388863  159.68299866    0.50000000    2.76999998
   17.48805618  154.46600342    0.50000000    2.78999996
   17.49138832  162.37100220    0.51999998    2.76999998
   17.49444389  165.98699951    0.51999998    2.78999996
   17.49777794  166.07600403    0.52999997    2.78999996
   17.50083351  153.20199585    0.52999997    2.78999996
   17.50416756  164.47700500    0.51999998    2.78999996
   17.50722313  161.28100586    0.51999998    2.78999996
   17.50777817  158.60899353    0.51999998    2.76999998
   17.51111031  159.93499756    0.51999998    2.78999996
   17.51416588  168.48199463    0.51999998    2.78999996
   17.51749992  165.69599915    0.51999998    2.78999996
   17.52083397  157.92300415    0.51999998    2.78999996
   17.52666664  157.92300415    0.51999998    2.78999996
   17.53083229  156.40699768    0.51999998    2.78999996
   17.53416634  165.71299744    0.52999997    2.78999996
   17.53722191  167.99899292    0.52999997    2.78999996
   17.54055595  163.86999512    0.52999997    2.78999996
   17.54083252  169.13200378    0.52999997    2.78999996
   17.54416656  174.09700012    0.52999997    2.78999996
   17.54749870  163.14799500    0.52999997    2.78999996
   17.55055428  175.92799377    0.52999997    2.78999996
   17.55388832  173.45199585    0.52999997    2.76999998
   17.55722237  169.50300598    0.52999997    2.76999998
   17.56027794  168.48199463    0.50000000    2.78999996
   17.56361008  169.31500244    0.50000000    2.78999996
   17.56972313  169.31500244    0.50000000    2.78999996
   17.57389069  173.13900757    0.50000000    2.78999996
   17.57416725  181.62899780    0.51999998    2.76999998
   17.57750130  166.21699524    0.50000000    2.78999996
   17.58055687  181.16000366    0.51999998    2.78999996
   17.58388901  163.80400085    0.51999998    2.78999996
   17.58722305  171.88299561    0.51999998    2.78999996
   17.59027863  161.66700745    0.51999998    2.78999996
   17.59361267  150.56300354    0.51999998    2.78999996
   17.59694481  168.19400024    0.51999998    2.78999996
   17.60000038  169.92500305    0.51999998    2.78999996
   17.60333443  139.56700134    0.51999998    2.78999996
   17.60666656  145.73500061    0.51999998    2.76999998
   17.60722351  138.92500305    0.51999998    2.76999998
   17.61250114  138.92500305    0.51999998    2.78999996
   17.61666679  142.02799988    0.51999998    2.78999996
   17.61972237  161.16799927    0.51999998    2.78999996
   17.62305641  159.79899597    0.52999997    2.78999996
   17.62638855  155.52499390    0.51999998    2.76999998
   17.62944412  158.37699890    0.52999997    2.76999998
   17.63277817  163.90800476    0.52999997    2.78999996
   17.63583374  163.36000061    0.51999998    2.78999996
   17.63916588  162.83000183    0.51999998    2.78999996
   17.64055634  156.21800232    0.51999998    2.78999996
   17.64277840  157.90299988    0.51999998    2.78999996
   17.64611053  158.99600220    0.52999997    2.78999996
   17.64916611  156.67399597    0.52999997    2.78999996
   17.65527725  156.67399597    0.55000001    2.76999998
   17.65944481  145.48800659    0.55000001    2.76999998
   17.66277695  155.88499451    0.55000001    2.76999998
   17.66583252  168.19000244    0.56999999    2.78999996
   17.66916656  175.10699463    0.56999999    2.76999998
   17.67222214  171.14599609    0.56999999    2.76999998
   17.67388916  183.22599792    0.56999999    2.78999996
   17.67583275  194.32200623    0.56999999    2.78999996
   17.67916679  177.25700378    0.56999999    2.78999996
   17.68249893  178.84199524    0.56999999    2.76999998
   17.68555450  182.60400391    0.56999999    2.76999998
   17.68888855  177.10400391    0.55000001    2.76999998
   17.69194412  180.34100342    0.55000001    2.76999998
   17.69805527  180.34100342    0.52999997    2.76999998
   17.70222282  183.38400269    0.55000001    2.78999996
   17.70555687  178.27600098    0.56999999    2.78999996
   17.70722389  166.29600525    0.58999997    2.78999996
   17.70916748  180.63499451    0.61000001    2.76999998
   17.71250153  178.44299316    0.63000000    2.76999998
   17.71583366  190.29699707    0.64999998    2.76999998
   17.71888924  170.55400085    0.64999998    2.76999998
   17.72222328  178.73699951    0.64999998    2.76999998
   17.72527885  178.69500732    0.67000002    2.78999996
   17.72861099  165.69700623    0.69000000    2.76999998
   17.73194504  173.25100708    0.69000000    2.78999996
   17.73500061  164.18200684    0.70999998    2.78999996
   17.74111176  164.18200684    0.69000000    2.76999998
   17.74500084  151.32400513    0.70999998    2.76999998
   17.74833298  159.09599304    0.70999998    2.76999998
   17.75166702  162.95100403    0.73000002    2.76999998
   17.75472260  144.72399902    0.75000000    2.76999998
   17.75805473  149.62600708    0.75000000    2.76999998
   17.76138878  149.63200378    0.73000002    2.76999998
   17.76444435  158.86500549    0.75000000    2.76999998
   17.76777840  161.62300110    0.75000000    2.76999998
   17.77083397  162.01400757    0.76999998    2.76999998
   17.77388954  155.88099670    0.80000001    2.76999998
   17.77472115  163.34800720    0.80000001    2.76999998
   17.77805519  157.06100464    0.83999997    2.76999998
   17.78388786  157.06100464    0.75000000    2.76999998
   17.78805542  170.03300476    0.75000000    2.76999998
   17.79111099  169.16200256    0.73000002    2.76999998
   17.79444313  156.48199463    0.73000002    2.76999998
   17.79777718  163.03599548    0.73000002    2.76999998
   17.80083275  155.18400574    0.79000002    2.78999996
   17.80416679  157.28100586    0.79000002    2.76999998
   17.80722237  145.91299438    0.79000002    2.76999998
   17.80777740  162.91099548    0.79000002    2.78999996
   17.81110954  164.14700317    0.79000002    2.76999998
   17.81444359  174.95399475    0.80000001    2.76999998
   17.81750107  165.60600281    0.80000001    2.75000000
   17.82083511  166.07200623    0.80000001    2.75000000
   17.82666779  166.07200623    0.80000001    2.76999998
   17.83083344  167.45700073    0.81999999    2.76999998
   17.83416748  175.58900452    0.80000001    2.76999998
   17.83722305  163.91299438    0.80000001    2.76999998
   17.84055710  164.39700317    0.80000001    2.76999998
   17.84083366  160.28700256    0.80000001    2.76999998
   17.84416771  169.32099915    0.80000001    2.76999998
   17.84749985  170.38499451    0.80000001    2.76999998
   17.85055542  155.06700134    0.80000001    2.78999996
   17.85388947  178.22000122    0.80000001    2.76999998
   17.85722351  176.58299255    0.80000001    2.76999998
   17.86027908  172.93600464    0.80000001    2.76999998
   17.86361122  166.96800232    0.80000001    2.76999998
   17.86944389  166.96800232    0.80000001    2.76999998
   17.87361145  178.06599426    0.81999999    2.76999998
   17.87416649  158.96699524    0.81999999    2.76999998
   17.87750053  157.77099609    0.80000001    2.76999998
   17.88083267  157.66900635    0.80000001    2.75000000
   17.88388824  155.49099731    0.79000002    2.76999998
   17.88722229  163.83999634    0.76999998    2.75000000
   17.89055634  155.22599792    0.76999998    2.76999998
   17.89361191  168.99200439    0.76999998    2.76999998
   17.89694405  161.61999512    0.76999998    2.76999998
   17.89999962  158.11199951    0.76999998    2.76999998
   17.90333366  163.40600586    0.79000002    2.76999998
   17.90666580  163.17700195    0.79000002    2.76999998
   17.90749931  162.37699890    0.79000002    2.76999998
   17.91250038  162.37699890    0.80000001    2.76999998
   17.91638756  150.83599854    0.80000001    2.75000000
   17.91972160  161.13400269    0.80000001    2.75000000
   17.92305565  163.31700134    0.80000001    2.76999998
   17.92611122  144.31599426    0.81999999    2.78999996
   17.92944336  154.43099976    0.83999997    2.76999998
   17.93277740  154.53999329    0.80000001    2.75000000
   17.93583298  163.59100342    0.83999997    2.75000000
   17.93916512  153.99099731    0.86000001    2.76999998
   17.94083214  150.05999756    0.86000001    2.76999998
   17.94277763  151.95100403    0.86000001    2.76999998
   17.94583321  157.37600708    0.81999999    2.76999998
   17.94916534  144.37899780    0.80000001    2.78999996
   17.95527840  144.37899780    0.83999997    2.76999998
   17.95944595  141.80900574    0.89999998    2.75000000
   17.96250153  156.68299866    0.95999998    2.78999996
   17.96583366  143.11500549    1.16999996    2.76999998
   17.96916771  146.60400391    1.11000001    2.76999998
   17.97222328  160.84399414    1.11000001    2.76999998
   17.97416687  159.15699768    0.98000002    2.76999998
   17.97611237  154.90400696    1.03999996    2.75000000
   17.97916794  147.70300293    1.11000001    2.76999998
   17.98250008  154.66700745    1.07000005    2.78999996
   17.98583412  139.44500732    0.95999998    2.76999998
   17.98888969  150.93499756    0.92000002    2.76999998
   17.99222183  148.05799866    0.92000002    2.76999998
   17.99805641  148.05799866    0.83999997    2.75000000
   18.00222206  147.34700012    0.76999998    2.78999996
   18.00555611  155.56599426    0.75000000    2.76999998
   18.00777817  144.10400391    0.70999998    2.76999998
   18.00916672  133.67199707    0.70999998    2.76999998
   18.01250076  136.34899902    0.70999998    2.76999998
   18.01583290  151.42100525    0.69000000    2.76999998
   18.01888847  151.23500061    0.69000000    2.78999996
   18.02222252  154.19599915    0.67000002    2.76999998
   18.02555466  149.75199890    0.69000000    2.76999998
   18.02861023  155.27799988    0.69000000    2.76999998
   18.03194427  149.96600342    0.70999998    2.78999996
   18.03499985  134.10400391    0.80000001    2.76999998
   18.04083252  134.10400391    0.83999997    2.75000000
   18.04500008  155.30700684    0.95999998    2.76999998
   18.04833221  147.65400696    0.95999998    2.76999998
   18.05138779  156.74800110    0.94000000    2.76999998
   18.05472183  147.99499512    0.95999998    2.75000000
   18.05805397  145.28100586    0.95999998    2.75000000
   18.06110954  157.75000000    0.95999998    2.75000000
   18.06444359  166.92500305    0.88000000    2.76999998
   18.06750107  146.16799927    0.88000000    2.76999998
   18.07083511  158.01600647    0.88000000    2.76999998
   18.07416725  163.25999451    0.86000001    2.75000000
   18.07472229  157.59100342    0.83999997    2.75000000
   18.07777786  155.62899780    0.86000001    2.75000000
   18.08388901  155.62899780    0.98000002    2.75000000
   18.08777809  173.18200684    0.89999998    2.75000000
   18.09111214  167.99800110    0.83999997    2.76999998
   18.09444427  133.36199951    0.86000001    2.78999996
   18.09749985  167.19700623    0.86000001    2.75000000
   18.10083389  154.29499817    0.83999997    2.76999998
   18.10388947  145.07200623    0.86000001    2.75000000
   18.10722351  170.92799377    0.86000001    2.75000000
   18.10805511  156.84100342    0.86000001    2.75000000
   18.11083412  153.37699890    0.83999997    2.75000000
   18.11416626  150.00399780    0.83999997    2.75000000
   18.11750031  141.04800415    0.83999997    2.76999998
   18.12055588  155.95300293    0.83999997    2.76999998
   18.12666702  155.95300293    0.81999999    2.75000000
   18.13083267  156.86799622    0.81999999    2.75000000
   18.13388824  158.64700317    0.83999997    2.75000000
   18.13722229  150.79299927    0.92000002    2.75000000
   18.14027786  154.44299316    0.94000000    2.75000000
   18.14138794  154.39700317    0.94000000    2.75000000
   18.14388847  159.49600220    0.98000002    2.75000000
   18.14722252  154.13800049    1.00000000    2.73000002
   18.15055466  149.42500305    1.01999998    2.75000000
   18.15361023  155.14199829    1.00000000    2.75000000
   18.15694427  171.04299927    1.03999996    2.75000000
   18.15999985  157.73399353    1.03999996    2.75000000
   18.16333389  155.29800415    1.03999996    2.75000000
   18.16944313  155.29800415    1.09000003    2.75000000
   18.17361069  166.05000305    1.07000005    2.75000000
   18.17472076  159.39199829    1.05999994    2.75000000
   18.17722130  155.52799988    1.03999996    2.75000000
   18.18055534  149.15600586    1.00000000    2.75000000
   18.18388748  147.40600586    1.00000000    2.75000000
   18.18694305  158.85899353    0.98000002    2.75000000
   18.19027710  177.63299561    0.95999998    2.75000000
   18.19333267  157.48599243    0.95999998    2.75000000
   18.19666672  178.86500549    0.89999998    2.75000000
   18.20000076  164.13400269    0.89999998    2.75000000
   18.20305634  161.78199768    0.94000000    2.75000000
   18.20639038  152.14399719    0.98000002    2.75000000
   18.20805550  149.41499329    0.98000002    2.75000000
   18.21222305  149.41499329    1.00000000    2.75000000
   18.21638870  165.94900513    0.92000002    2.73000002
   18.21972275  149.96800232    0.92000002    2.73000002
   18.22277832  178.20500183    0.92000002    2.75000000
   18.22611237  152.09199524    0.86000001    2.75000000
   18.22944450  151.53199768    0.88000000    2.75000000
   18.23250008  146.96699524    0.83999997    2.76999998
   18.23583412  146.80799866    0.83999997    2.75000000
   18.23916626  144.22700500    0.80000001    2.75000000
   18.24138832  172.98100281    0.81999999    2.75000000
   18.24250031  167.74899292    0.81999999    2.75000000
   18.24583435  151.82499695    0.86000001    2.75000000
   18.24916649  147.96099854    0.88000000    2.75000000
   18.25499916  147.96099854    0.76999998    2.75000000
   18.25916672  155.37699890    0.79000002    2.75000000
   18.26250076  157.19999695    0.79000002    2.75000000
   18.26583290  156.60600281    0.79000002    2.75000000
   18.26888847  157.11900330    0.79000002    2.75000000
   18.27222252  174.77699280    0.80000001    2.75000000
   18.27472115  152.41000366    0.75000000    2.75000000
   18.27583313  147.30499268    0.75000000    2.75000000
   18.27916718  157.60299683    0.75000000    2.75000000
   18.28249931  174.55299377    0.73000002    2.75000000
   18.28555489  164.87300110    0.70999998    2.75000000
   18.28888893  165.55299377    0.76999998    2.75000000
   18.29222107  152.55400085    0.76999998    2.75000000
   18.29805565  152.55400085    1.13000000    2.73000002
   18.30222130  158.30700684    1.01999998    2.73000002
   18.30527687  152.63600159    0.92000002    2.75000000
   18.30805397  157.81399536    0.98000002    2.75000000
   18.30888748  156.45100403    0.98000002    2.75000000
   18.31222153  151.34899902    1.01999998    2.73000002
   18.31555557  144.70599365    1.39999998    2.75000000
   18.31861115  158.85600281    1.26999998    2.75000000
   18.32194519  156.21400452    1.44000006    2.75000000
   18.32500076  178.50100708    1.26999998    2.73000002
   18.32833481  161.43800354    1.03999996    2.75000000
   18.33166695  169.15100098    0.98000002    2.75000000
   18.33472252  133.39799500    1.01999998    2.73000002
   18.34083366  133.39799500    1.11000001    2.75000000
   18.35916710  149.83399963    0.86000001    2.73000002
   18.36250114  156.74899292    0.86000001    2.73000002
   18.36555672  153.76300049    0.80000001    2.75000000
   18.36888885  156.41700745    0.80000001    2.75000000
   18.37222290  147.79600525    1.01999998    2.75000000
   18.37527847  147.87699890    1.05999994    2.73000002
   18.37861061  157.97599792    1.11000001    2.73000002
   18.38388824  157.97599792    1.19000006    2.73000002
   18.38805580  145.25399780    1.19000006    2.73000002
   18.39138794  146.99000549    1.21000004    2.73000002
   18.39222145  162.84800720    1.21000004    2.73000002
   18.39500046  155.16200256    1.21000004    2.73000002
   18.39805603  152.03700256    1.19000006    2.73000002
   18.40138817  144.54899597    1.25000000    2.73000002
   18.40472221  135.36999512    1.25000000    2.73000002
   18.40777779  155.41799927    1.26999998    2.73000002
   18.41110992  150.45199585    1.30999994    2.73000002
   18.41444397  157.21400452    1.33000004    2.71000004
   18.41749954  155.21600342    1.34000003    2.71000004
   18.42083359  151.81700134    1.33000004    2.71000004
   18.42666626  151.81700134    1.30999994    2.71000004
   18.43083191  148.38699341    1.26999998    2.73000002
   18.43416595  155.70500183    1.26999998    2.71000004
   18.43750000  158.85299683    1.26999998    2.71000004
   18.44055557  169.48300171    1.25000000    2.73000002
   18.44388771  161.03300476    1.25000000    2.73000002
   18.44694328  153.86799622    1.28999996    2.73000002
   18.45027924  167.82099915    1.26999998    2.73000002
   18.45361137  142.13499451    1.25000000    2.73000002
   18.45666695  148.86399841    1.25000000    2.73000002
   18.45888901  140.74899292    1.25000000    2.73000002
   18.46055603  145.48699951    1.26999998    2.71000004
   18.46389008  150.28500366    1.26999998    2.71000004
   18.46972275  150.28500366    1.26999998    2.73000002
   18.47361183  160.09599304    1.26999998    2.71000004
   18.47694588  170.59800720    1.26999998    2.73000002
   18.48027802  148.93299866    1.28999996    2.73000002
   18.48333359  142.30400085    1.28999996    2.73000002
   18.48666763  155.00900269    1.30999994    2.73000002
   18.48999977  161.82499695    1.30999994    2.73000002
   18.49222183  160.02000427    1.28999996    2.71000004
   18.49361229  160.88699341    1.28999996    2.71000004
   18.49666786  152.84899902    1.34000003    2.71000004
   18.50000000  155.94200134    1.33000004    2.71000004
   18.50333405  153.97500610    1.30999994    2.73000002
   18.50638962  154.02200317    1.41999996    2.73000002
   18.51250076  154.02200317    1.44000006    2.73000002
   18.51666641  155.41999817    1.38000000    2.73000002
   18.51972198  153.29400635    1.23000002    2.73000002
   18.52305603  147.58000183    1.21000004    2.73000002
   18.52555466  149.60499573    1.16999996    2.71000004
   18.52666664  150.30999756    1.16999996    2.71000004
   18.53000069  156.85800171    1.16999996    2.73000002
   18.53305435  159.00500488    1.21000004    2.71000004
   18.53638840  159.10099792    1.44000006    2.71000004
   18.53944397  158.90100098    1.30999994    2.73000002
   18.54277802  153.30400085    1.28999996    2.73000002
   18.54611015  163.11700439    1.14999998    2.71000004
   18.54916573  149.68800354    1.19000006    2.71000004
   18.55527687  149.68800354    1.13000000    2.73000002
   18.55944443  159.87100220    1.03999996    2.73000002
   18.56277657  158.44500732    0.95999998    2.73000002
   18.56583214  162.03999329    0.95999998    2.73000002
   18.56916809  156.08000183    0.95999998    2.73000002
   18.57222366  166.28799438    0.95999998    2.73000002
   18.57555580  159.28999329    0.98000002    2.71000004
   18.57888985  165.30200195    0.98000002    2.71000004
   18.58194542  160.92700195    0.98000002    2.71000004
   18.58527756  146.01300049    1.00000000    2.73000002
   18.58861160  149.52499390    0.98000002    2.73000002
   18.59166718  149.59599304    0.95999998    2.71000004
   18.59222221  157.18499756    0.95999998    2.71000004
   18.59805679  157.18499756    0.98000002    2.71000004
   18.60222244  150.72999573    0.95999998    2.71000004
   18.60555649  150.50000000    0.95999998    2.73000002
   18.60888863  165.86599731    0.98000002    2.71000004
   18.61194420  163.99699402    1.00000000    2.71000004
   18.61527824  168.53700256    0.95999998    2.73000002
   18.61833382  160.85400391    0.95999998    2.71000004
   18.62166595  146.33999634    0.94000000    2.73000002
   18.62500000  153.73800659    0.95999998    2.71000004
   18.62555504  158.41600037    0.95999998    2.71000004
   18.62861061  173.48100281    0.98000002    2.71000004
   18.63194466  158.45300293    0.98000002    2.73000002
   18.63500023  173.91900635    1.00000000    2.71000004
   18.64111137  173.91900635    1.00000000    2.71000004
   18.64500046  165.34899902    1.01999998    2.71000004
   18.64833260  157.86599731    1.01999998    2.71000004
   18.65166664  158.80499268    1.01999998    2.71000004
   18.65472221  165.95899963    1.01999998    2.71000004
   18.65805435  158.68099976    1.00000000    2.71000004
   18.65888786  165.40499878    1.00000000    2.71000004
   18.66166687  173.57699585    1.00000000    2.71000004
   18.66499901  163.33999634    1.00000000    2.71000004
   18.66805458  150.00999451    1.00000000    2.71000004
   18.67138863  161.02999878    1.00000000    2.71000004
   18.67472076  159.32800293    1.00000000    2.71000004
   18.67777634  158.57499695    1.01999998    2.71000004
   18.68388748  158.57499695    1.01999998    2.71000004
   18.68805504  168.92399597    1.00000000    2.71000004
   18.69111061  163.36900330    1.00000000    2.71000004
   18.69222069  170.03999329    1.00000000    2.71000004
   18.69472122  166.37199402    1.00000000    2.71000004
   18.69805527  164.00799561    0.98000002    2.71000004
   18.70111275  164.70300293    1.00000000    2.71000004
   18.70444489  157.54699707    1.01999998    2.69000006
   18.70750046  157.95100403    1.00000000    2.71000004
   18.71083450  178.59700012    1.00000000    2.71000004
   18.71416664  161.16499329    0.98000002    2.71000004
   18.71722221  162.44599915    0.98000002    2.71000004
   18.72055626  162.22200012    1.00000000    2.71000004
   18.72666740  162.22200012    1.00000000    2.71000004
   18.73083305  179.76300049    1.05999994    2.71000004
   18.73416710  163.94700623    1.05999994    2.69000006
   18.73750114  170.93299866    1.05999994    2.69000006
   18.74055672  152.17700195    1.05999994    2.71000004
   18.74388885  155.95100403    1.07000005    2.71000004
   18.74722290  176.12899780    1.09000003    2.71000004
   18.75027847  163.64599609    1.09000003    2.71000004
   18.75361061  175.64199829    1.09000003    2.71000004
   18.75666618  167.33900452    1.11000001    2.71000004
   18.75888824  167.95700073    1.14999998    2.69000006
   18.76055527  171.60600281    1.14999998    2.69000006
   18.76388931  165.85099792    1.16999996    2.71000004
   18.76944351  165.85099792    1.26999998    2.69000006
   18.77361107  179.53399658    1.26999998    2.69000006
   18.77694511  172.66099548    1.26999998    2.69000006
   18.78027725  175.55299377    1.28999996    2.69000006
   18.78333282  157.87300110    1.30999994    2.69000006
   18.78666687  166.79100037    1.30999994    2.69000006
   18.78972244  174.23899841    1.33000004    2.69000006
   18.79222107  170.93299866    1.33000004    2.69000006
   18.79361153  169.73500061    1.33000004    2.69000006
   18.79694366  182.36599731    1.34000003    2.69000006
   18.79999924  180.69400024    1.36000001    2.69000006
   18.80333328  170.49499512    1.36000001    2.69000006
   18.80666542  172.10699463    1.36000001    2.69000006
   18.81250000  172.10699463    1.36000001    2.69000006
   18.81638718  167.58399963    1.39999998    2.69000006
   18.81972313  168.83500671    1.39999998    2.69000006
   18.82305717  163.31599426    1.44000006    2.69000006
   18.82555580  164.25599670    1.44000006    2.69000006
   18.82666779  167.61000061    1.44000006    2.69000006
   18.83000183  170.56300354    1.44000006    2.69000006
   18.83305550  159.99099731    1.44000006    2.69000006
   18.83638954  160.43200684    1.44000006    2.69000006
   18.83972359  173.92300415    1.44000006    2.69000006
   18.84277916  175.88299561    1.48000002    2.67000008
   18.84611130  168.78300476    1.48000002    2.67000008
   18.84916687  171.94299316    1.50000000    2.67000008
   18.85527802  171.94299316    1.51999998    2.67000008
   18.85944557  176.60200500    1.53999996    2.67000008
   18.86250114  162.02299500    1.55999994    2.69000006
   18.86583328  164.03999329    1.55999994    2.67000008
   18.86916733  149.85800171    1.55999994    2.67000008
   18.87222290  162.52699280    1.58000004    2.67000008
   18.87555504  175.49099731    1.55999994    2.67000008
   18.87861061  164.24400330    1.55999994    2.67000008
   18.88194466  171.97799683    1.55999994    2.67000008
   18.88527679  166.73899841    1.55999994    2.66000009
   18.88833237  169.63900757    1.55999994    2.67000008
   18.89166641  164.77400208    1.55999994    2.67000008
   18.89222145  166.18200684    1.55999994    2.69000006
   18.89805603  166.18200684    1.58000004    2.67000008
   18.90222168  172.03500366    1.55999994    2.67000008
   18.90555573  162.54499817    1.55999994    2.67000008
   18.90861130  164.69700623    1.53999996    2.67000008
   18.91194344  176.42999268    1.53999996    2.67000008
   18.91527748  158.33900452    1.51999998    2.67000008
   18.91833305  151.92199707    1.53999996    2.67000008
   18.92166519  158.67599487    1.51999998    2.67000008
   18.92499924  169.30299377    1.51999998    2.67000008
   18.92555428  166.28500366    1.51999998    2.67000008
   18.92860985  157.08500671    1.51999998    2.67000008
   18.93194389  150.70300293    1.51999998    2.67000008
   18.93499947  168.05200195    1.50000000    2.67000008
   18.94083214  168.05200195    1.44000006    2.67000008
   18.94499969  166.20799255    1.39999998    2.67000008
   18.94833183  155.41400146    1.38000000    2.67000008
   18.95166779  156.09500122    1.34000003    2.67000008
   18.95472336  165.64999390    1.33000004    2.66000009
   18.95805550  165.38499451    1.33000004    2.67000008
   18.95888901  161.77000427    1.30999994    2.67000008
   18.96166801  161.71899414    1.30999994    2.67000008
   18.96500015  149.97000122    1.28999996    2.67000008
   18.96805573  150.90699768    1.28999996    2.67000008
   18.97138977  159.86199951    1.26999998    2.67000008
   18.97472191  157.66900635    1.25000000    2.67000008
   18.97777748  159.78599548    1.26999998    2.67000008
   18.98388863  159.78599548    1.19000006    2.67000008
   18.98777771  161.24400330    1.16999996    2.67000008
   18.99111176  171.18800354    1.16999996    2.67000008
   18.99222183  165.55000305    1.16999996    2.67000008
   18.99472237  167.52200317    1.16999996    2.66000009
   18.99805641  165.62699890    1.16999996    2.67000008
   19.00138855  163.13400269    1.16999996    2.67000008
   19.00444412  158.34100342    1.16999996    2.67000008
   19.00777817  158.36999512    1.19000006    2.67000008
   19.01111031  167.16299438    1.19000006    2.67000008
   19.01416588  155.97000122    1.21000004    2.67000008
   19.01749992  152.56199646    1.23000002    2.67000008
   19.02055550  155.57899475    1.23000002    2.67000008
   19.02666664  155.57899475    1.23000002    2.67000008
   19.03083229  157.75199890    1.21000004    2.66000009
   19.03388786  152.44999695    1.23000002    2.67000008
   19.03722191  162.01699829    1.25000000    2.67000008
   19.04055595  163.80799866    1.25000000    2.67000008
   19.04361153  157.13600159    1.25000000    2.66000009
   19.04694366  168.26300049    1.25000000    2.67000008
   19.04999924  158.98399353    1.23000002    2.66000009
   19.05333328  150.72300720    1.23000002    2.66000009
   19.05666542  158.58000183    1.21000004    2.67000008
   19.05888748  164.85699463    1.19000006    2.67000008
   19.06027794  158.38600159    1.19000006    2.67000008
   19.06361008  162.55299377    1.19000006    2.67000008
   19.06944466  162.55299377    1.16999996    2.66000009
   19.07361221  164.57499695    1.14999998    2.66000009
   19.07694626  164.89100647    1.13000000    2.66000009
   19.08000183  169.76800537    1.11000001    2.67000008
   19.08333397  165.67599487    1.09000003    2.67000008
   19.08638954  160.20799255    1.09000003    2.67000008
   19.08972359  162.64100647    1.09000003    2.67000008
   19.09222221  161.55099487    1.07000005    2.67000008
   19.09333420  176.85400391    1.07000005    2.67000008
   19.09666824  171.54899597    1.07000005    2.66000009
   19.09972191  181.52499390    1.13000000    2.66000009
   19.10305595  172.79499817    1.13000000    2.67000008
   19.10639000  173.27000427    1.11000001    2.67000008
   19.11222267  173.27000427    1.14999998    2.66000009
   19.11638832  163.19700623    1.16999996    2.67000008
   19.11972237  167.62100220    1.14999998    2.66000009
   19.12277794  152.32400513    1.14999998    2.66000009
   19.12555504  177.21000671    1.16999996    2.66000009
   19.12638855  170.44299316    1.16999996    2.66000009
   19.12972260  158.71299744    1.16999996    2.66000009
   19.13277817  170.69799805    1.19000006    2.67000008
   19.13611031  157.54200745    1.19000006    2.66000009
   19.13944435  168.25999451    1.19000006    2.66000009
   19.14249992  165.04200745    1.21000004    2.66000009
   19.14583397  171.57400513    1.23000002    2.66000009
   19.14888954  174.23800659    1.25000000    2.66000009
   19.15527725  174.23800659    1.25000000    2.66000009
   19.15916634  155.78900146    1.25000000    2.66000009
   19.16250038  162.31900024    1.25000000    2.66000009
   19.16583252  157.27200317    1.25000000    2.64000010
   19.16888809  167.19200134    1.25000000    2.66000009
   19.17222214  165.92500305    1.23000002    2.66000009
   19.17555428  156.19299316    1.23000002    2.66000009
   19.17860985  164.19200134    1.21000004    2.66000009
   19.18194389  163.62899780    1.23000002    2.66000009
   19.18499947  179.25599670    1.23000002    2.66000009
   19.18833160  168.22200012    1.21000004    2.66000009
   19.19166565  170.58399963    1.21000004    2.66000009
   19.19249916  165.66400146    1.21000004    2.66000009
   19.19805527  165.66400146    1.19000006    2.66000009
   19.20222282  148.99299622    1.19000006    2.64000010
   19.20527840  162.44500732    1.19000006    2.66000009
   19.20861244  173.15699768    1.21000004    2.66000009
   19.21194458  180.04299927    1.19000006    2.66000009
   19.21500015  165.37399292    1.19000006    2.66000009
   19.21833420  188.33000183    1.19000006    2.66000009
   19.22166634  181.75500488    1.21000004    2.66000009
   19.22472191  175.15400696    1.21000004    2.64000010
   19.22583389  162.43699646    1.23000002    2.64000010
   19.22833443  161.97599792    1.21000004    2.64000010
   19.23166656  187.22000122    1.23000002    2.64000010
   19.23472214  162.80799866    1.23000002    2.64000010
   19.24083328  162.80799866    1.23000002    2.64000010
   19.24500084  171.61399841    1.25000000    2.64000010
   19.24833298  168.57299805    1.25000000    2.64000010
   19.25138855  189.79299927    1.25000000    2.64000010
   19.25472260  171.03999329    1.25000000    2.64000010
   19.25805473  162.08799744    1.25000000    2.64000010
   19.25916672  172.79800415    1.25000000    2.64000010
   19.26138878  157.60699463    1.25000000    2.64000010
   19.26472282  139.15499878    1.25000000    2.64000010
   19.26777840  161.98699951    1.25000000    2.64000010
   19.27111053  164.60299683    1.25000000    2.64000010
   19.27444458  164.24800110    1.26999998    2.64000010
   19.27750015  182.99600220    1.26999998    2.64000010
   19.28361130  182.99600220    1.26999998    2.64000010
   19.28777695  180.74800110    1.26999998    2.64000010
   19.29111099  149.13200378    1.25000000    2.64000010
   19.29249954  177.36700439    1.25000000    2.64000010
   19.29472160  164.87399292    1.25000000    2.64000010
   19.29805565  169.54200745    1.25000000    2.64000010
   19.30111122  177.13499451    1.26999998    2.64000010
   19.30444336  174.54800415    1.26999998    2.64000010
   19.30777740  163.07400513    1.28999996    2.64000010
   19.31083298  183.85699463    1.28999996    2.64000010
   19.31416512  173.12600708    1.26999998    2.64000010
   19.31750107  170.32200623    1.26999998    2.64000010
   19.32055664  186.69400024    1.26999998    2.64000010
   19.32666779  186.69400024    1.26999998    2.64000010
   19.33055687  176.83500671    1.26999998    2.61999989
   19.33388901  195.86300659    1.26999998    2.64000010
   19.33722305  186.30400085    1.26999998    2.64000010
   19.34027863  173.95100403    1.26999998    2.64000010
   19.34361267  170.69999695    1.26999998    2.64000010
   19.34694481  173.66999817    1.26999998    2.64000010
   19.35000038  181.26800537    1.26999998    2.61999989
   19.35333443  171.85800171    1.25000000    2.61999989
   19.35639000  178.30099487    1.26999998    2.64000010
   19.35916710  183.86199951    1.26999998    2.64000010
   19.37972260  183.86199951    1.28999996    2.61999989
   19.38388824  173.85099792    1.30999994    2.61999989
   19.38694382  172.90499878    1.28999996    2.61999989
   19.39027786  172.93099976    1.30999994    2.61999989
   19.39249992  170.15299988    1.30999994    2.61999989
   19.39388847  172.00900269    1.30999994    2.61999989
   19.39722252  171.48699951    1.30999994    2.61999989
   19.40055466  175.43800354    1.30999994    2.61999989
   19.40361023  153.12899780    1.33000004    2.61999989
   19.40694427  178.10400391    1.33000004    2.61999989
   19.40999985  159.27200317    1.33000004    2.61999989
   19.41333389  180.86700439    1.33000004    2.61999989
   19.41666603  151.71600342    1.33000004    2.61999989
   19.42249870  151.71600342    1.33000004    2.61999989
   19.42666626  172.24099731    1.33000004    2.61999989
   19.42972183  178.00300598    1.33000004    2.61999989
   19.43305397  173.15499878    1.33000004    2.61999989
   19.43638802  140.40499878    1.33000004    2.61999989
   19.43944359  171.55900574    1.33000004    2.61999989
   19.44277763  166.98500061    1.30999994    2.61999989
   19.44610977  176.03100586    1.33000004    2.61999989
   19.44916534  160.46099854    1.30999994    2.61999989
   19.45250130  179.90199280    1.33000004    2.59999990
   19.45555687   -1.00000000    1.33000004    2.61999989
   19.45888901   -1.00000000    1.33000004    2.61999989
   19.46944427   -1.00000000    1.34000003    2.61999989
   19.47249985   -1.00000000    1.34000003    2.61999989
   19.47583389   -1.00000000    1.36000001    2.61999989
   19.47916794   -1.00000000    1.36000001    2.59999990
   19.48222351   -1.00000000    1.36000001    2.59999990
   19.48555565   -1.00000000    1.36000001    2.61999989
   19.48861122   -1.00000000    1.38000000    2.59999990
   19.49194527   -1.00000000    1.38000000    2.59999990
   19.49555588   -1.00000000    1.38000000    2.59999990
   19.49888992   -1.00000000    1.39999998    2.59999990
   19.50222206   -1.00000000    1.39999998    2.59999990
   19.50805473   -1.00000000    1.41999996    2.59999990
   19.51222229  184.77699280    1.46000004    2.59999990
   19.51555634  190.53500366    1.44000006    2.59999990
   19.51861000  195.85099792    1.44000006    2.59999990
   19.52194405  181.97399902    1.46000004    2.59999990
   19.52527809  187.35499573    1.44000006    2.59999990
   19.52611160  179.82000732    1.44000006    2.59999990
   19.52888870  186.58700562    1.44000006    2.59999990
   19.53194427  201.42799377    1.46000004    2.59999990
   19.53527641  184.30999756    1.46000004    2.59999990
   19.53861046  189.88900757    1.46000004    2.59999990
   19.54166603  183.65199280    1.44000006    2.59999990
   19.54500008  187.41999817    1.46000004    2.59999990
   19.55111122  187.41999817    1.44000006    2.59999990
   19.55499840  184.41499329    1.46000004    2.59999990
   19.55833244  183.51300049    1.46000004    2.59999990
   19.55944443  173.86599731    1.46000004    2.59999990
   19.56194305  183.47000122    1.48000002    2.57999992
   19.56499863  180.85600281    1.50000000    2.57999992
   19.56833458  193.54499817    1.50000000    2.59999990
   19.57166672  197.47799683    1.50000000    2.57999992
   19.57500076  196.74000549    1.51999998    2.57999992
   19.57833481  202.50900269    1.51999998    2.59999990
   19.58166695  201.58999634    1.53999996    2.57999992
   19.58472252  203.05999756    1.53999996    2.57999992
   19.58805656  198.69999695    1.53999996    2.57999992
   19.59388924  198.69999695    1.58000004    2.57999992
   19.59805679  215.58900452    1.58000004    2.55999994
   19.60111237  237.94200134    1.60000002    2.57999992
   19.60444450  214.47900391    1.60000002    2.57999992
   19.60777855  197.91000366    1.61000001    2.57999992
   19.61083412  207.74800110    1.61000001    2.55999994
   19.61416626  217.77000427    1.63000000    2.55999994
   19.61722183  219.23899841    1.63000000    2.55999994
   19.62055588  191.97300720    1.63000000    2.55999994
   19.62388992  188.12199402    1.61000001    2.55999994
   19.62611198  192.58999634    1.61000001    2.57999992
   19.62750053  186.77200317    1.61000001    2.57999992
   19.63055611  183.50599670    1.61000001    2.57999992
   19.63666725  183.50599670    1.63000000    2.57999992
   19.64083290  151.85600281    1.63000000    2.57999992
   19.64416695  146.55900574    1.63000000    2.57999992
   19.64722252  139.74400330    1.63000000    2.57999992
   19.65055466  145.42599487    1.63000000    2.57999992
   19.65361023  155.37899780    1.61000001    2.55999994
   19.65694427  179.60499573    1.61000001    2.55999994
   19.65944481  192.82000732    1.61000001    2.55999994
   19.66055489  186.48100281    1.63000000    2.55999994
   19.66361046  121.36100006    1.63000000    2.55999994
   19.66694450   -1.00000000    1.63000000    2.55999994
   19.67027664   -1.00000000    1.63000000    2.55999994
   19.67333221   -1.00000000    1.63000000    2.55999994
   19.68361092   -1.00000000    1.63000000    2.55999994
   19.68694305   -1.00000000    1.63000000    2.55999994
   19.68999863   -1.00000000    1.63000000    2.55999994
   19.69361115   -1.00000000    1.64999998    2.55999994
   19.69694328   -1.00000000    1.66999996    2.55999994
   19.70027924   -1.00000000    1.64999998    2.55999994
   19.70333481   -1.00000000    1.64999998    2.55999994
   19.70666695   -1.00000000    1.66999996    2.55999994
   19.71000099   -1.00000000    1.66999996    2.55999994
   19.71305656   -1.00000000    1.69000006    2.55999994
   19.71638870   -1.00000000    1.71000004    2.55999994
   19.72638893   -1.00000000    1.76999998    2.53999996
   19.72972298   -1.00000000    1.76999998    2.53999996
   19.73277855   -1.00000000    1.76999998    2.53999996
   19.73611069   -1.00000000    1.85000002    2.53999996
   19.73944473   -1.00000000    1.85000002    2.53999996
   19.74250031   -1.00000000    1.85000002    2.53999996
   19.74583435   -1.00000000    1.85000002    2.55999994
   19.74916649   -1.00000000    1.85000002    2.55999994
   19.75222206   -1.00000000    1.85000002    2.55999994
   19.75555611   -1.00000000    1.85000002    2.53999996
   19.75861168   -1.00000000    1.86000001    2.53999996
   19.76916695   -1.00000000    1.89999998    2.55999994
   19.77249908   -1.00000000    1.89999998    2.51999998
   19.77583313   -1.00000000    1.91999996    2.53999996
   19.77888870   -1.00000000    1.89999998    2.53999996
   19.78222275   -1.00000000    1.89999998    2.53999996
   19.78555489   -1.00000000    1.91999996    2.53999996
   19.78861046   -1.00000000    1.91999996    2.53999996
   19.79194450   -1.00000000    1.89999998    2.53999996
   19.79527664   -1.00000000    1.88000000    2.53999996
