    HOUR (UT)   FLARE FACTOR    SKY TESTER    SUN TESTER
   15.16694450   -1.00000000   -1.00000000   -1.00000000
   15.19499969  101.01100159    4.90999985    2.28999996
   15.19805527  122.06099701    4.90999985    2.34999990
   15.20138836  105.60299683    4.90999985    2.39000010
   15.20472240  112.14800262    4.90999985    2.44000006
   15.20777798  116.71399689    4.90999985    2.30999994
   15.21222210  116.71399689    4.90999985    2.28999996
   15.21638870  124.68199921    4.90999985    2.42000008
   15.21944427  122.47499847    4.90999985    2.25000000
   15.22277737  131.43099976    4.90999985    2.28999996
   15.22527695  113.94400024    4.90999985    2.30999994
   15.22638798  102.30100250    4.90999985    2.32999992
   15.22972202   96.40920258    4.90999985    2.42000008
   15.23277760   95.82959747    4.90999985    2.44000006
   15.23611164   98.06770325    4.90999985    2.39000010
   15.23944473   89.60579681    4.90999985    2.46000004
   15.24250031   93.32330322    4.90999985    2.39000010
   15.24583340  117.71700287    4.90999985    2.34999990
   15.24916649  105.86599731    4.90999985    2.36999989
   15.25500011  105.86599731    4.90999985    2.32999992
   15.25916672  122.00000000    4.90999985    2.30999994
   15.26222229  103.13600159    4.90999985    2.46000004
   15.26555538  100.97799683    4.90999985    2.51999998
   15.26861095  123.65599823    4.90999985    2.36999989
   15.27194405   99.35030365    4.90999985    2.32999992
   15.27527714  106.76399994    4.90999985    2.46000004
   15.27833271  139.35099792    4.90999985    2.25000000
   15.28166676  109.67400360    4.90999985    2.28999996
   15.28500080  116.45899963    4.90999985    2.42000008
   15.28805637  100.58799744    4.90999985    2.39000010
   15.29138947  113.55599976    4.90999985    2.34999990
   15.29194450  112.11399841    4.90999985    2.34999990
   15.29777813  112.11399841    4.90999985    2.42000008
   15.30194473  104.52400208    4.90999985    2.40000010
   15.30500031  113.70600128    4.90999985    2.36999989
   15.30833340   95.69650269    4.90999985    2.30999994
   15.31166649  100.92199707    4.90999985    2.46000004
   15.31472206  113.64299774    4.90999985    2.34999990
   15.31805515   99.36720276    4.90999985    2.42000008
   15.32138920   87.63649750    4.90999985    2.39000010
   15.32444477   99.10310364    4.90999985    2.51999998
   15.32527733   95.90110016    4.90999985    2.48000002
   15.32805538  107.76999664    4.90999985    2.42000008
   15.33138847   98.01450348    4.90999985    2.36999989
   15.33472157  112.13999939    4.90999985    2.46000004
   15.34055519  112.13999939    4.90999985    2.51999998
   15.34472179   83.86260223    4.90999985    2.39000010
   15.34805489   90.78160095    4.90999985    2.44000006
   15.35111141   97.93119812    4.90999985    2.42000008
   15.35444450  111.90499878    4.90999985    2.44000006
   15.35777855   91.45690155    4.90999985    2.40000010
   15.35861111   95.24749756    4.90999985    2.40000010
   15.36111164  103.11699677    4.90999985    2.48000002
   15.36444473   97.47699738    4.90999985    2.40000010
   15.36777782   97.04460144    4.90999985    2.46000004
   15.37083340   98.43470001    4.90999985    2.46000004
   15.37416649   93.78070068    4.90999985    2.46000004
   15.37750053   91.83760071    4.90999985    2.48000002
   15.38333321   91.83760071    4.90999985    2.40000010
   15.38749981   88.93550110    4.90999985    2.50000000
   15.39083290   92.72599792    4.90999985    2.50000000
   15.39194393   91.18959808    4.90999985    2.50000000
   15.39444447   87.68360138    4.90999985    2.44000006
   15.39777756   91.36869812    4.90999985    2.55999994
   15.40111065   86.42479706    4.90999985    2.50000000
   15.40416622   89.30889893    4.90999985    2.57999992
   15.40749931   88.56330109    4.90999985    2.61999989
   15.41083336   87.07730103    4.90999985    2.61999989
   15.41388893   91.10769653    4.90999985    2.61999989
   15.41722298   87.13130188    4.90999985    2.59999990
   15.42027855   84.08059692    4.90999985    2.55999994
   15.42638874   84.08059692    4.90999985    2.53999996
   15.43055630   84.27140045    4.90999985    2.61999989
   15.43361092   84.43129730    4.90999985    2.59999990
   15.43694496   83.25499725    4.90999985    2.59999990
   15.44000053   79.72810364    4.90999985    2.61999989
   15.44333363   84.07859802    4.90999985    2.57999992
   15.44666672   84.98719788    4.90999985    2.57999992
   15.44972229   78.27300262    4.90999985    2.61999989
   15.45305538   82.11569977    4.90999985    2.64000010
   15.45638847   87.01470184    4.90999985    2.59999990
   15.45861053   95.25540161    4.90999985    2.59999990
   15.45972157   96.86260223    4.90999985    2.61999989
   15.46305561   92.06649780    4.90999985    2.64000010
   15.46916580   92.06649780    4.90999985    2.59999990
   15.47333336   85.64720154    4.90999985    2.61999989
   15.47638798   89.52380371    4.90999985    2.61999989
   15.47972202   89.73829651    4.90999985    2.64000010
   15.48305511   85.60700226    4.90999985    2.57999992
   15.48611164   95.11039734    4.90999985    2.59999990
   15.48944473   91.05970001    4.90999985    2.59999990
   15.49194431  103.43800354    4.90999985    2.57999992
   15.49305534  101.04599762    4.90999985    2.55999994
   15.49638939   97.77259827    4.90999985    2.55999994
   15.49972248   90.73829651    4.90999985    2.59999990
   15.50277805   93.02929688    4.90999985    2.55999994
   15.50611115   90.53009796    4.90999985    2.53999996
   15.51194477   90.53009796    4.90999985    2.53999996
   15.51611137   97.25620270    4.90999985    2.53999996
   15.51944447   95.28810120    4.90999985    2.50000000
   15.52250004   94.46640015    4.90999985    2.51999998
   15.52527714   97.41100311    4.90999985    2.53999996
   15.52611065  102.00099945    4.90999985    2.51999998
   15.52944374   99.03309631    4.90999985    2.55999994
   15.53277779  101.97200012    4.90999985    2.55999994
   15.53583336   97.22319794    4.90999985    2.53999996
   15.53916740   95.94129944    4.90999985    2.55999994
   15.54250050   92.48290253    4.90999985    2.57999992
   15.54555607   85.34639740    4.90999985    2.57999992
   15.54888916   91.77210236    4.90999985    2.57999992
   15.55472279   91.77210236    4.90999985    2.57999992
   15.55888939  101.28399658    4.90999985    2.53999996
   15.56222248  101.17199707    4.90999985    2.48000002
   15.56555557   95.60500336    4.90999985    2.53999996
   15.56861115   90.91970062    4.90999985    2.53999996
   15.57194424   96.12779999    4.90999985    2.57999992
   15.57499981   93.86170197    4.90999985    2.51999998
   15.57833290  100.92800140    4.90999985    2.53999996
   15.58166695   93.33200073    4.90999985    2.51999998
   15.58472157   97.73719788    4.90999985    2.50000000
   15.58805561   98.77310181    4.90999985    2.53999996
   15.59138870  110.94100189    4.90999985    2.48000002
   15.59194374  117.66799927    4.90999985    2.48000002
   15.59777737  117.66799927    4.90999985    2.46000004
   15.60194492   92.71540070    4.90999985    2.55999994
   15.60500050  107.70200348    4.90999985    2.50000000
   15.60833359   98.17960358    4.90999985    2.50000000
   15.61138916  108.25000000    4.90999985    2.48000002
   15.61472225  113.52600098    4.90999985    2.46000004
   15.61805534  102.45800018    4.90999985    2.40000010
   15.62111092  103.85800171    4.90999985    2.48000002
   15.62444496  109.39099884    4.90999985    2.46000004
   15.62527752   98.02079773    4.90999985    2.42000008
   15.62805557  103.03199768    4.90999985    2.46000004
   15.63111115  102.54199982    4.90999985    2.46000004
   15.63444424  102.25399780    4.90999985    2.42000008
   15.64055538  102.25399780    4.90999985    2.51999998
   15.64472198   94.46810150    4.90999985    2.57999992
   15.64777756  100.35099792    4.90999985    2.55999994
   15.65111065  112.09899902    4.90999985    2.50000000
   15.65444374   96.74050140    4.90999985    2.53999996
   15.65749931  108.19799805    4.90999985    2.57999992
   15.65861034   99.42400360    4.90999985    2.55999994
   15.66138840  105.47699738    4.90999985    2.53999996
   15.66444397   93.74490356    4.90999985    2.55999994
   15.66777802   90.32119751    4.90999985    2.57999992
   15.67083359   82.66390228    4.90999985    2.53999996
   15.67416668   97.95960236    4.90999985    2.50000000
   15.67750072   88.95559692    4.90999985    2.55999994
   15.68333340   88.95559692    4.90999985    2.55999994
   15.68750000   95.56610107    4.90999985    2.55999994
   15.69083309   89.51920319    4.90999985    2.57999992
   15.69194412   98.76020050    4.90999985    2.55999994
   15.69444466   93.23339844    4.90999985    2.59999990
   15.69750023   95.45899963    4.90999985    2.55999994
   15.70083332  100.59600067    4.90999985    2.59999990
   15.70388889   92.97370148    4.90999985    2.57999992
   15.70722198   95.81909943    4.90999985    2.51999998
   15.71055508   96.97299957    4.90999985    2.61999989
   15.71361065   90.23960114    4.90999985    2.59999990
   15.71694374   94.05490112    4.90999985    2.59999990
   15.72027779   98.73690033    4.90999985    2.55999994
   15.72611046   98.73690033    4.90999985    2.61999989
   15.73027706   97.17880249    4.90999985    2.51999998
   15.73361111   92.51709747    4.90999985    2.53999996
   15.73694515   96.89179993    4.90999985    2.48000002
   15.74000072   94.72409821    4.90999985    2.53999996
   15.74333382   96.90820313    4.90999985    2.48000002
   15.74638939   94.83999634    4.90999985    2.51999998
   15.74972248  111.75800323    4.90999985    2.50000000
   15.75305557  101.86199951    4.90999985    2.46000004
   15.75611115  110.49299622    4.90999985    2.46000004
   15.75861073  104.80999756    4.90999985    2.46000004
   15.76000023  107.44300079    4.90999985    2.46000004
   15.76305580  106.80899811    4.90999985    2.46000004
   15.76916599  106.80899811    4.90999985    2.42000008
   15.77333355  112.91400146    4.90999985    2.40000010
   15.77638817  102.80999756    4.90999985    2.44000006
   15.77972221  109.50099945    4.90999985    2.42000008
   15.78277779  100.00700378    4.90999985    2.46000004
   15.78611183  118.07499695    4.90999985    2.50000000
   15.78944492  105.44200134    4.90999985    2.46000004
   15.79194450  117.69899750    4.90999985    2.48000002
   15.79305553  101.38400269    4.90999985    2.48000002
   15.79611111  105.13400269    4.90999985    2.50000000
   15.79944515   96.95079803    4.90999985    2.50000000
   15.80249977  108.19100189    4.90999985    2.46000004
   15.80583382  104.83300018    4.90999985    2.51999998
   15.81194496  104.83300018    4.90999985    2.53999996
   15.81611156   96.85269928    4.90999985    2.50000000
   15.81916618  108.44300079    4.90999985    2.55999994
   15.82250023   87.71980286    4.90999985    2.53999996
   15.82527733  101.19699860    4.90999985    2.50000000
   15.82638836   96.87069702    4.90999985    2.50000000
   15.82944393   97.50509644    4.90999985    2.55999994
   15.83277798   95.49990082    4.90999985    2.53999996
   15.83583260   91.26049805    4.90999985    2.59999990
   15.83916664   94.67400360    4.90999985    2.55999994
   15.84249973   95.41320038    4.90999985    2.53999996
   15.84555531   96.42990112    4.90999985    2.55999994
   15.84888840   94.58740234    4.90999985    2.55999994
   15.85472298   94.58740234    4.90999985    2.55999994
   15.85888958  105.26000214    4.90999985    2.55999994
   15.86222267  100.50000000    4.90999985    2.55999994
   15.86527824  102.19699860    4.90999985    2.55999994
   15.86861134  101.77400208    4.90999985    2.55999994
   15.87194443  103.97399902    4.90999985    2.59999990
   15.87500000  101.29499817    4.90999985    2.55999994
   15.87833309   90.78359985    4.90999985    2.57999992
   15.88166714   90.82019806    4.90999985    2.55999994
   15.88472176   93.19709778    4.90999985    2.57999992
   15.88805580   97.50859833    4.90999985    2.59999990
   15.89138889   95.74490356    4.90999985    2.59999990
   15.89194393   93.95780182    4.90999985    2.57999992
   15.89777756   93.95780182    4.90999985    2.59999990
   15.90166664   88.61380005    4.90999985    2.61999989
   15.90499973   89.69229889    4.90999985    2.64000010
   15.90833282   88.32630157    4.90999985    2.64000010
   15.91138840   85.12400055    4.90999985    2.64000010
   15.91472149   95.42440033    4.90999985    2.66000009
   15.91777802   88.01370239    4.90999985    2.67000008
   15.92111111   88.35839844    4.90999985    2.66000009
   15.92444515   87.49079895    4.90999985    2.66000009
   15.92527771   92.86900330    4.90999985    2.66000009
   15.92805576   97.76249695    4.90999985    2.64000010
   15.93111134  104.39399719    4.90999985    2.64000010
   15.93444443   93.78890228    4.90999985    2.64000010
   15.94055557   93.78890228    4.90999985    2.61999989
   15.94472218   88.95749664    4.90999985    2.61999989
   15.94777775   95.15100098    4.90999985    2.59999990
   15.95111084   96.31629944    4.90999985    2.61999989
   15.95416641   96.02310181    4.90999985    2.61999989
   15.95749950   94.77559662    4.90999985    2.57999992
   15.95861053  102.51399994    4.90999985    2.57999992
   15.96138859   94.17379761    4.90999985    2.57999992
   15.96444416   94.88529968    4.90999985    2.59999990
   15.96777725   96.17179871    4.90999985    2.59999990
   15.97111034   93.96189880    4.90999985    2.61999989
   15.97416592   90.85030365    4.90999985    2.57999992
   15.97749996   94.19460297    4.90999985    2.59999990
   15.98333359   94.19460297    4.90999985    2.57999992
   15.98750019   93.98739624    4.90999985    2.55999994
   15.99055576   87.74939728    4.90999985    2.53999996
   15.99194431   96.63619995    4.90999985    2.55999994
   15.99444485   91.79450226    4.90999985    2.57999992
   15.99750042   96.13569641    4.90999985    2.55999994
   16.00083351   94.07060242    4.90999985    2.61999989
   16.00416756   91.99720001    4.90999985    2.59999990
   16.00722313  101.45899963    4.90999985    2.57999992
   16.01055527   91.62419891    4.90999985    2.53999996
   16.01361084   91.12349701    4.90999985    2.55999994
   16.01694489   92.49140167    4.90999985    2.59999990
   16.02027702   97.32939911    4.90999985    2.53999996
   16.02611160   97.32939911    4.90999985    2.57999992
   16.03027725   95.87079620    4.90999985    2.53999996
   16.03361130  100.15899658    4.90999985    2.50000000
   16.03666687  101.50399780    4.90999985    2.59999990
   16.03999901  101.67900085    4.90999985    2.48000002
   16.04333305  103.31500244    4.90999985    2.53999996
   16.04638863  107.60099792    4.90999985    2.55999994
   16.04972076  104.15200043    4.90999985    2.59999990
   16.05277634   98.99530029    4.90999985    2.55999994
   16.05611038  100.62500000    4.90999985    2.55999994
   16.05861092   95.40229797    4.90999985    2.59999990
   16.05972099   96.82649994    4.90999985    2.59999990
   16.06277657  102.66500092    4.90999985    2.46000004
   16.06916809  102.66500092    4.90999985    2.59999990
   16.07305717   96.45729828    4.90999985    2.53999996
   16.07638931  103.57299805    4.90999985    2.64000010
   16.07972336   98.39730072    4.90999985    2.51999998
   16.08277893  122.40799713    4.90999985    2.51999998
   16.08611107   96.30380249    4.90999985    2.42000008
   16.08944511  102.21499634    4.90999985    2.48000002
   16.09194565  106.85600281    4.90999985    2.55999994
   16.09305573  103.50800323    4.90999985    2.50000000
   16.09611130  107.43499756    4.90999985    2.64000010
   16.09944534  123.17099762    4.90999985    2.46000004
   16.10277748  125.45899963    4.90999985    2.51999998
   16.10583305  109.75599670    4.90999985    2.59999990
   16.11194420  109.75599670    4.90999985    2.48000002
   16.11611176  129.51699829    4.90999985    2.32999992
   16.23722267   -1.00000000   -1.00000000   -1.00000000
   16.33722305   -1.00000000   -1.00000000   -1.00000000
   16.44972038   -1.00000000   -1.00000000   -1.00000000
   16.50527763   58.92750168    4.90999985    2.61999989
   16.50861168   56.08720016    4.90999985    2.55999994
   16.51166725   58.15230179    4.90999985    2.57999992
   16.51499939   58.25510025    4.90999985    2.55999994
   16.51805496   57.88949966    4.90999985    2.59999990
   16.52138901   61.26779938    4.90999985    2.57999992
   16.52555466   61.26779938    4.90999985    2.55999994
   16.52972221   57.43130112    4.90999985    2.55999994
   16.53277779   56.20050049    4.90999985    2.55999994
   16.53610992   58.09130096    4.90999985    2.57999992
   16.53861046   59.34709930    4.90999985    2.57999992
   16.53972244   57.81620026    4.90999985    2.66000009
   16.54305458   60.50600052    4.90999985    2.64000010
   16.54611015   56.16529846    4.90999985    2.53999996
   16.54944420   57.01480103    4.90999985    2.48000002
   16.55277634   57.79389954    4.90999985    2.57999992
   16.55583191   56.44409943    4.90999985    2.59999990
   16.55916595   56.97380066    4.90999985    2.50000000
   16.56250000   58.58530045    4.90999985    2.51999998
   16.56833458   58.58530045    4.90999985    2.61999989
   16.57250023   56.13309860    4.90999985    2.64000010
   16.57583427   57.34540176    4.90999985    2.57999992
   16.57888985   56.99800110    4.90999985    2.55999994
   16.58222389   57.15999985    4.90999985    2.59999990
   16.58555603   57.84970093    4.90999985    2.67000008
   16.58861160   60.27529907    4.90999985    2.61999989
   16.59194565   57.44779968    4.90999985    2.59999990
   16.59500122   56.05799866    4.90999985    2.57999992
   16.59833336   56.97700119    4.90999985    2.61999989
   16.60166740   58.66189957    4.90999985    2.59999990
   16.60472298   58.74399948    4.90999985    2.51999998
   16.60527802   57.86380005    4.90999985    2.50000000
   16.61111069   57.86380005    4.90999985    2.67000008
   16.61527824   55.07979965    4.90999985    2.59999990
   16.61861038   60.08950043    4.90999985    2.64000010
   16.62194443   56.27280045    4.90999985    2.66000009
   16.62500000   59.40290070    4.90999985    2.66000009
   16.62833405   58.11169815    4.90999985    2.57999992
   16.63138962   57.10520172    4.90999985    2.64000010
   16.63472176   59.15950012    4.90999985    2.73000002
   16.63805580   59.07419968    4.90999985    2.51999998
   16.63861084   58.30870056    4.90999985    2.51999998
   16.64166641   58.09469986    4.90999985    2.61999989
   16.64500046   61.17290115    4.90999985    2.67000008
   16.64805603   60.30319977    4.90999985    2.57999992
   16.65416718   60.30319977    4.90999985    2.66000009
   16.65833282   56.09909821    4.90999985    2.64000010
   16.66138840   58.17599869    4.90999985    2.67000008
   16.66472244   57.72869873    4.90999985    2.64000010
   16.66777802   57.95520020    4.90999985    2.67000008
   16.67111015   57.18550110    4.90999985    2.66000009
   16.67194366   58.51860046    4.90999985    2.59999990
   16.67472076   58.63579941    4.90999985    2.59999990
   16.67805481   57.39659882    4.90999985    2.61999989
   16.68111038   59.59489822    4.90999985    2.64000010
   16.68444443   60.10100174    4.90999985    2.53999996
   16.68750000   60.90299988    4.90999985    2.53999996
   16.69083214   62.36709976    4.90999985    2.57999992
   16.69694328   62.36709976    4.90999985    2.53999996
   16.70111275   59.87070084    4.90999985    2.59999990
   16.70416832   60.44599915    4.90999985    2.64000010
   16.70527840   61.07300186    4.90999985    2.61999989
   16.70805550   59.67150116    4.90999985    2.59999990
   16.71138954   65.49739838    4.90999985    2.57999992
   16.71444511   61.01829910    4.90999985    2.59999990
   16.71777916   60.45199966    4.90999985    2.64000010
   16.72083473   60.30720139    4.90999985    2.64000010
   16.72416687   62.83229828    4.90999985    2.64000010
   16.72750092   60.55239868    4.90999985    2.59999990
   16.73055649   62.20679855    4.90999985    2.61999989
   16.73388863   61.14720154    4.90999985    2.67000008
   16.73972321   61.14720154    4.90999985    2.64000010
   16.74388885   67.93810272    4.90999985    2.67000008
   16.74722290   66.15779877    4.86999989    2.69000006
   16.75027847   67.29679871    4.46999979    2.69000006
   16.75361061   66.52439880    4.48999977    2.67000008
   16.75694466   70.41210175    4.46999979    2.67000008
   16.76000023   66.64640045    3.99000001    2.67000008
   16.76333427   67.14659882    3.32999992    2.69000006
   16.76638794   68.22010040    3.00000000    2.73000002
   16.76972198   68.11370087    2.50000000    2.71000004
   16.77194405   69.02020264    2.17000008    2.71000004
   16.77333260   68.21340179    2.11999989    2.71000004
   16.77666664   69.69429779    2.01999998    2.71000004
   16.78249931   69.69429779    1.38000000    2.73000002
   16.78666687   72.34709930    1.33000004    2.73000002
   16.78999901   74.55180359    1.26999998    2.73000002
   16.79333305   69.34870148    1.30999994    2.71000004
   16.79638863   70.61080170    1.28999996    2.71000004
   16.79972076   72.69670105    1.23000002    2.73000002
   16.80277634   74.26540375    1.34000003    2.75000000
   16.80527687   74.82579803    1.36000001    2.73000002
   16.80666542   77.51319885    1.36000001    2.73000002
   16.80999947   74.07759857    1.41999996    2.73000002
   16.81305504   74.05239868    1.51999998    2.73000002
   16.81638718   76.36730194    1.51999998    2.73000002
   16.81944466   75.24629974    1.55999994    2.73000002
   16.82555580   75.24629974    1.36000001    2.75000000
   16.82972336   77.69560242    1.13000000    2.75000000
   16.83277893   79.37249756    0.69000000    2.73000002
   16.83611107   80.79000092    0.69000000    2.73000002
   16.83861160   75.14029694    0.46000001    2.73000002
   16.83972359   76.00340271    0.46000001    2.73000002
   16.84305573   78.63079834    0.46000001    2.75000000
   16.84611130   75.08399963    0.46000001    2.73000002
   16.84944534   77.49720001    0.44000000    2.75000000
   16.85250092   78.88510132    0.44000000    2.75000000
   16.85583305   79.24929810    0.44000000    2.73000002
   16.85916710   77.67469788    0.50000000    2.75000000
   16.86222267   76.89839935    0.47999999    2.73000002
   16.86833382   76.89839935    0.46000001    2.73000002
   16.87249947   79.53890228    0.46000001    2.73000002
   16.87555504   78.56179810    0.44000000    2.73000002
   16.87888908   83.16280365    0.41999999    2.75000000
   16.88222313   84.83589935    0.41999999    2.75000000
   16.88527679   79.94879913    0.44000000    2.73000002
   16.88861084   78.00930023    0.44000000    2.73000002
   16.89194489   79.42109680    0.41999999    2.73000002
   16.89500046   79.41400146    0.41999999    2.73000002
   16.89833260   81.80590057    0.40000001    2.73000002
   16.90138817   81.83429718    0.40000001    2.75000000
   16.90472221   79.63980103    0.40000001    2.73000002
   16.90527725   82.66770172    0.40000001    2.73000002
   16.91110992   82.66770172    0.40000001    2.73000002
   16.91527748   81.03410339    0.40000001    2.75000000
   16.91860962   81.53710175    0.40000001    2.73000002
   16.92166519   83.26770020    0.40000001    2.75000000
   16.92499924   79.96549988    0.41999999    2.75000000
   16.92833328   80.78079987    0.41999999    2.75000000
   16.93138885   77.76760101    0.41999999    2.73000002
   16.93472099   80.50890350    0.41999999    2.75000000
   16.93777657   75.92410278    0.41999999    2.75000000
   16.93861008   80.43229675    0.41999999    2.73000002
   16.94138718   78.88990021    0.44000000    2.73000002
   16.94472122   78.74909973    0.46000001    2.73000002
   16.94777679   77.92079926    0.46000001    2.73000002
   16.95416832   77.92079926    0.46000001    2.75000000
   16.95805550   78.97000122    0.46000001    2.75000000
   16.96138954   80.63649750    0.47999999    2.75000000
   16.96472359   79.79900360    0.47999999    2.73000002
   16.96777916   85.90029907    0.47999999    2.75000000
   16.97111130   81.71170044    0.46000001    2.73000002
   16.97194481   79.72979736    0.46000001    2.73000002
   16.97472191   80.90519714    0.46000001    2.73000002
   16.97805595   79.86180115    0.44000000    2.73000002
   16.98111153   83.67960358    0.44000000    2.75000000
   16.98444557   77.40209961    0.44000000    2.73000002
   16.98777771   77.95639801    0.44000000    2.75000000
   16.99083328   80.23899841    0.41999999    2.75000000
   16.99694443   80.23899841    0.41999999    2.75000000
   17.00111198   76.84639740    0.40000001    2.73000002
   17.00416756   75.66380310    0.41999999    2.73000002
   17.00527763   78.46659851    0.41999999    2.73000002
   17.00777817   74.41649628    0.41999999    2.73000002
   17.01111031   77.29239655    0.40000001    2.75000000
   17.01416588   85.80380249    0.40000001    2.75000000
   17.01749992   79.47689819    0.40000001    2.73000002
   17.02083397   78.44069672    0.40000001    2.73000002
   17.02388954   79.44580078    0.40000001    2.73000002
   17.02722168   80.42579651    0.40000001    2.75000000
   17.03027725   84.26760101    0.41999999    2.75000000
   17.03361130   80.81690216    0.41999999    2.73000002
   17.03972244   80.81690216    0.41999999    2.73000002
   17.04388809   77.94670105    0.41999999    2.73000002
   17.04694366   86.01640320    0.41999999    2.75000000
   17.05027771   87.57129669    0.41999999    2.73000002
   17.05360985   82.41030121    0.41999999    2.73000002
   17.05666542   82.89250183    0.41999999    2.75000000
   17.05999947   83.95059967    0.40000001    2.73000002
   17.06333351   86.00309753    0.40000001    2.75000000
   17.06638718   83.99469757    0.38000000    2.73000002
   17.06972313   87.14369965    0.36000001    2.75000000
   17.07194519   80.45089722    0.36000001    2.73000002
   17.07333374   82.02200317    0.36000001    2.73000002
   17.07666779   84.98650360    0.36000001    2.73000002
   17.08250046   84.98650360    0.36000001    2.73000002
   17.08666801   84.25589752    0.38000000    2.73000002
   17.09000015   82.79209900    0.36000001    2.75000000
   17.09305573   80.29889679    0.38000000    2.73000002
   17.09638977   87.75650024    0.36000001    2.75000000
   17.09972191   81.67070007    0.38000000    2.75000000
   17.10277748   84.09470367    0.36000001    2.75000000
   17.10527802   83.43350220    0.36000001    2.73000002
   17.10639000   80.55850220    0.36000001    2.75000000
   17.10972214   86.14669800    0.36000001    2.73000002
   17.11277771   81.83730316    0.36000001    2.73000002
   17.11611176   78.99770355    0.36000001    2.73000002
   17.11944389   78.49530029    0.36000001    2.73000002
   17.12527847   78.49530029    0.38000000    2.73000002
   17.12944412   82.68759918    0.36000001    2.75000000
   17.13277817   83.12950134    0.36000001    2.73000002
   17.13611031   87.50270081    0.36000001    2.73000002
   17.13861084   89.25489807    0.36000001    2.75000000
   17.13972282   80.15209961    0.36000001    2.73000002
   17.14305496   82.41449738    0.36000001    2.73000002
   17.14611053   84.79429626    0.36000001    2.73000002
   17.14944458   89.01799774    0.36000001    2.73000002
   17.15277672   87.76529694    0.36000001    2.73000002
   17.15583229   86.53620148    0.38000000    2.73000002
   17.15916634   83.95210266    0.36000001    2.73000002
   17.16222191   92.28209686    0.36000001    2.73000002
   17.16833305   92.28209686    0.36000001    2.75000000
   17.17249870   88.02660370    0.36000001    2.75000000
   17.17555428   81.90959930    0.38000000    2.73000002
   17.17888832   85.23169708    0.38000000    2.75000000
   17.18222237   85.99330139    0.38000000    2.73000002
   17.18527603   91.15679932    0.38000000    2.73000002
   17.18861008   88.27079773    0.38000000    2.73000002
   17.19166565   86.02120209    0.36000001    2.75000000
   17.19499969   84.96739960    0.38000000    2.73000002
   17.19833183   86.60759735    0.36000001    2.73000002
   17.20138931   86.38259888    0.36000001    2.75000000
   17.20472336   83.33489990    0.36000001    2.73000002
   17.20555687   83.47470093    0.36000001    2.73000002
   17.21111107   83.47470093    0.36000001    2.73000002
   17.21527863   83.15720367    0.36000001    2.73000002
   17.21833420   81.73650360    0.36000001    2.73000002
   17.22166634   84.00700378    0.36000001    2.73000002
   17.22500038   84.45590210    0.36000001    2.73000002
   17.22833443   82.52529907    0.36000001    2.75000000
   17.23139000   90.34639740    0.38000000    2.75000000
   17.23472214   83.63710022    0.36000001    2.73000002
   17.23777771   88.28350067    0.38000000    2.75000000
   17.23861122   85.50420380    0.36000001    2.75000000
   17.24138832   89.30020142    0.36000001    2.75000000
   17.24472237   89.04740143    0.38000000    2.75000000
   17.24777794   85.54879761    0.36000001    2.73000002
   17.25388908   85.54879761    0.36000001    2.75000000
   17.25805473   84.05259705    0.36000001    2.73000002
   17.26138878   88.66429901    0.36000001    2.73000002
   17.26444435   84.79979706    0.36000001    2.73000002
   17.26777840   87.74590302    0.36000001    2.73000002
   17.27111053   85.76000214    0.36000001    2.73000002
   17.27222252   88.88449860    0.36000001    2.73000002
   17.27444458   86.07070160    0.36000001    2.73000002
   17.27777672   85.19789886    0.36000001    2.73000002
   17.28083229   87.10019684    0.36000001    2.75000000
   17.28416634   88.27590179    0.36000001    2.73000002
   17.28750038   86.97760010    0.36000001    2.73000002
   17.29055595   85.40350342    0.38000000    2.73000002
   17.29666710   85.40350342    0.38000000    2.73000002
   17.30083275   89.25099945    0.38000000    2.73000002
   17.30416679   82.25350189    0.38000000    2.73000002
   17.30555534   84.88130188    0.36000001    2.75000000
   17.30777740   87.74160004    0.36000001    2.75000000
   17.31110954   84.66249847    0.36000001    2.73000002
   17.31416512   83.07920074    0.36000001    2.75000000
   17.31750107   81.71859741    0.36000001    2.75000000
   17.32083511   83.87650299    0.36000001    2.75000000
   17.32389069   84.36340332    0.38000000    2.73000002
   17.32722282   81.59680176    0.36000001    2.75000000
   17.33055687   78.23040009    0.38000000    2.73000002
   17.33361244   83.32009888    0.36000001    2.73000002
   17.33972359   83.32009888    0.38000000    2.73000002
   17.34388924   83.38619995    0.36000001    2.73000002
   17.34694481   84.15070343    0.36000001    2.73000002
   17.35027885   84.74859619    0.36000001    2.73000002
   17.35333443   82.80789948    0.36000001    2.73000002
   17.35666656   91.03009796    0.36000001    2.73000002
   17.36000061   83.58769989    0.36000001    2.73000002
   17.36305618   83.88549805    0.36000001    2.73000002
   17.36638832   86.43530273    0.36000001    2.73000002
   17.36972237   87.67220306    0.36000001    2.73000002
   17.37222290   79.85150146    0.38000000    2.73000002
   17.37305641   81.44460297    0.36000001    2.73000002
   17.37638855   88.08869934    0.38000000    2.75000000
   17.38249969   88.08869934    0.38000000    2.73000002
   17.38666725   84.66020203    0.36000001    2.73000002
   17.38999939   89.80850220    0.38000000    2.75000000
   17.39305496   82.04250336    0.38000000    2.73000002
   17.39638901   90.04109955    0.36000001    2.73000002
   17.39944458   86.30919647    0.38000000    2.73000002
   17.40277672   92.87300110    0.36000001    2.73000002
   17.40555573   85.80079651    0.38000000    2.73000002
   17.40638924   84.24160004    0.38000000    2.73000002
   17.40972137   90.32620239    0.36000001    2.73000002
   17.41277695   88.98840332    0.36000001    2.73000002
   17.41611099   88.14920044    0.38000000    2.75000000
   17.41944313   97.47579956    0.36000001    2.73000002
   17.42527771   97.47579956    0.38000000    2.73000002
   17.42944336   94.90750122    0.36000001    2.73000002
   17.43277740   88.36990356    0.38000000    2.73000002
   17.43583298   86.20989990    0.36000001    2.73000002
   17.43888855   88.75720215    0.38000000    2.73000002
   17.43944359   87.87950134    0.38000000    2.73000002
   17.44277763   87.21450043    0.44000000    2.73000002
   17.44610977   83.92330170    0.44000000    2.73000002
   17.44916534   83.13050079    0.44000000    2.73000002
   17.45250130   84.93180084    0.44000000    2.75000000
   17.45555687   87.99749756    0.41999999    2.73000002
   17.45888901   84.06089783    0.41999999    2.73000002
   17.46222305   87.26550293    0.40000001    2.73000002
   17.46805573   87.26550293    0.38000000    2.73000002
   17.47222328   86.07749939    0.38000000    2.71000004
   17.47555542   89.04199982    0.38000000    2.73000002
   17.47888947   86.09290314    0.40000001    2.73000002
   17.48194504   91.02429962    0.38000000    2.73000002
   17.48527718   87.51560211    0.38000000    2.73000002
   17.48833275   83.47419739    0.38000000    2.73000002
   17.49166679   91.64520264    0.38000000    2.73000002
   17.49500084   86.63469696    0.38000000    2.73000002
   17.49805641   85.31569672    0.38000000    2.73000002
   17.50138855   86.68740082    0.38000000    2.73000002
   17.50472260   86.38770294    0.38000000    2.73000002
   17.50555611   89.36190033    0.38000000    2.73000002
   17.52611160   89.36190033    0.36000001    2.73000002
   17.53027725   81.15670013    0.36000001    2.73000002
   17.53333282   80.34290314    0.36000001    2.73000002
   17.53666687   82.59439850    0.38000000    2.73000002
   17.53888893   82.61090088    0.36000001    2.73000002
   17.54027748   85.63020325    0.36000001    2.73000002
   17.54361153   86.43379974    0.36000001    2.73000002
   17.54694366   83.39710236    0.36000001    2.73000002
   17.54999924   78.13919830    0.36000001    2.73000002
   17.55333328   79.92790222    0.36000001    2.73000002
   17.55638885   85.54799652    0.36000001    2.73000002
   17.55972099   78.61699677    0.38000000    2.75000000
   17.56305504   82.23509979    0.38000000    2.75000000
   17.56888962   82.23509979    0.36000001    2.73000002
   17.57305717   79.65090179    0.38000000    2.75000000
   17.57611275   80.56410217    0.38000000    2.73000002
   17.57944489   79.16799927    0.38000000    2.73000002
   17.58277893   79.33090210    0.38000000    2.73000002
   17.58583450   86.01039886    0.40000001    2.73000002
   17.58916664   86.79010010    0.40000001    2.73000002
   17.59222221   92.24449921    0.44000000    2.73000002
   17.59555626   82.56510162    0.40000001    2.73000002
   17.59889030   84.51909637    0.40000001    2.73000002
   17.60194397   82.76139832    0.40000001    2.73000002
   17.60527802   84.52980042    0.41999999    2.73000002
   17.60583305   88.19239807    0.41999999    2.73000002
   17.61166763   88.19239807    0.41999999    2.73000002
   17.61583328   92.13130188    0.41999999    2.73000002
   17.61916733   89.99420166    0.41999999    2.73000002
   17.62222290   88.95130157    0.40000001    2.73000002
   17.62555504   92.70400238    0.40000001    2.73000002
   17.62861061   91.82569885    0.40000001    2.73000002
   17.63194466   91.12509918    0.41999999    2.73000002
   17.63527679   86.96520233    0.44000000    2.73000002
   17.63833237   82.94869995    0.44000000    2.73000002
   17.63916588   80.79799652    0.46000001    2.71000004
   17.64222145   86.10299683    0.46000001    2.71000004
   17.64527702   83.71920013    0.50000000    2.71000004
   17.64861107   77.74220276    0.47999999    2.73000002
   17.65444374   77.74220276    0.44000000    2.73000002
   17.65861130   81.40409851    0.44000000    2.73000002
   17.66194344   78.95300293    0.41999999    2.73000002
   17.66527748   88.45829773    0.41999999    2.73000002
   17.66833305   88.94259644    0.41999999    2.73000002
   17.67166519   82.30449677    0.40000001    2.73000002
   17.67249870   83.83480072    0.40000001    2.73000002
   17.67527771   80.59230042    0.41999999    2.73000002
   17.67833328   85.86260223    0.41999999    2.73000002
   17.68166542   83.39089966    0.41999999    2.73000002
   17.68472099   82.53029633    0.41999999    2.73000002
   17.68805504   81.99099731    0.41999999    2.73000002
   17.69138718   80.60220337    0.41999999    2.73000002
   17.69749832   80.60220337    0.41999999    2.73000002
   17.70138931   81.25430298    0.40000001    2.71000004
   17.70472336   91.05419922    0.40000001    2.73000002
   17.70583344   80.10639954    0.40000001    2.73000002
   17.70861244   80.28070068    0.40000001    2.71000004
   17.71166801   84.47080231    0.40000001    2.71000004
   17.71500015   87.23410034    0.40000001    2.71000004
   17.71805573   85.70749664    0.40000001    2.73000002
   17.72138977   93.05290222    0.40000001    2.73000002
   17.72472191   83.60189819    0.40000001    2.73000002
   17.72777748   81.28880310    0.40000001    2.73000002
   17.73111153   85.31150055    0.40000001    2.71000004
   17.73444557   81.08630371    0.40000001    2.71000004
   17.74027824   81.08630371    0.40000001    2.73000002
   17.74444389   85.80519867    0.38000000    2.73000002
   17.74749947   81.89230347    0.40000001    2.73000002
   17.75083351   84.36990356    0.38000000    2.73000002
   17.75416756   84.71060181    0.40000001    2.73000002
   17.75722313   82.81159973    0.40000001    2.71000004
   17.76055527   82.93350220    0.40000001    2.73000002
   17.76361084   90.03099823    0.40000001    2.73000002
   17.76694489   84.18440247    0.40000001    2.71000004
   17.77027702   86.71749878    0.40000001    2.73000002
   17.77249908   88.60369873    0.40000001    2.73000002
   17.77388954   85.84629822    0.40000001    2.73000002
   17.77694511   85.36930084    0.40000001    2.73000002
   17.78305435   85.36930084    0.40000001    2.71000004
   17.78722191   85.96610260    0.40000001    2.73000002
   17.79055595   88.94889832    0.40000001    2.71000004
   17.79361153   89.59860229    0.40000001    2.71000004
   17.79694366   85.03379822    0.40000001    2.71000004
   17.79999924   87.13670349    0.38000000    2.71000004
   17.80333328   83.60749817    0.40000001    2.71000004
   17.80583191   84.71170044    0.40000001    2.73000002
   17.80722237   80.76809692    0.40000001    2.73000002
   17.81027794   79.97029877    0.40000001    2.73000002
   17.81361008   89.37100220    0.40000001    2.71000004
   17.81666756   81.47080231    0.40000001    2.71000004
   17.82000160   78.93789673    0.40000001    2.71000004
   17.82583427   78.93789673    0.40000001    2.73000002
   17.83000183   82.35919952    0.40000001    2.71000004
   17.83333397   82.23760223    0.40000001    2.73000002
   17.83638954   80.42140198    0.38000000    2.73000002
   17.83916664   79.58920288    0.38000000    2.71000004
   17.84027863   80.77249908    0.38000000    2.71000004
   17.84333420   80.93440247    0.38000000    2.71000004
   17.84666824   80.76899719    0.36000001    2.73000002
   17.84972191   79.83399963    0.38000000    2.71000004
   17.85305595   81.42970276    0.38000000    2.73000002
   17.85639000   83.93360138    0.38000000    2.71000004
   17.85944557   87.38520050    0.38000000    2.71000004
   17.86277771   81.69509888    0.40000001    2.71000004
   17.86888885   81.69509888    0.40000001    2.71000004
   17.87277794   81.99729919    0.40000001    2.71000004
   17.87611198   84.43650055    0.40000001    2.73000002
   17.87944412   82.27110291    0.41999999    2.71000004
   17.88249969   78.56559753    0.41999999    2.71000004
   17.88583374   77.63310242    0.40000001    2.73000002
   17.88916588   87.83139801    0.41999999    2.71000004
   17.89222145   90.10399628    0.40000001    2.71000004
   17.89555550   79.78019714    0.40000001    2.71000004
   17.89861107   84.57830048    0.40000001    2.71000004
   17.90194321   79.22899628    0.40000001    2.71000004
   17.90527725   79.73699951    0.47999999    2.71000004
   17.90583229   93.27030182    0.44000000    2.71000004
   17.91166687   93.27030182    0.41999999    2.71000004
   17.91583252   85.24259949    0.41999999    2.71000004
   17.91888809   87.39540100    0.41999999    2.71000004
   17.92222214   89.04540253    0.41999999    2.71000004
   17.92555428   97.52269745    0.40000001    2.71000004
   17.92860985   93.16750336    0.40000001    2.71000004
   17.93194389   94.98770142    0.41999999    2.71000004
   17.93527603   90.82089996    0.46000001    2.71000004
   17.93833160   94.59570313    0.51999998    2.71000004
   17.93916512  100.60399628    0.52999997    2.71000004
   17.94222069   90.47959900    0.55000001    2.73000002
   17.94527626   86.61910248    0.55000001    2.73000002
   17.94861031   91.49369812    0.55000001    2.71000004
   17.95444489   91.49369812    0.50000000    2.71000004
   17.95861244   86.10449982    0.47999999    2.71000004
   17.96194458   87.15769958    0.50000000    2.71000004
   17.96500015   87.74099731    0.50000000    2.71000004
   17.96833420   94.11920166    0.50000000    2.71000004
   17.97138977   88.41380310    0.50000000    2.71000004
   17.97249985   87.75299835    0.55000001    2.71000004
   17.97527885   91.42109680    0.55000001    2.71000004
   17.97833443   86.27839661    0.63000000    2.71000004
   17.98166656   84.11039734    0.69000000    2.71000004
   17.98500061   88.30690002    0.52999997    2.71000004
   17.98805618   79.06320190    0.51999998    2.71000004
   17.99138832   80.25000000    0.52999997    2.71000004
   17.99472237   77.03540039    0.52999997    2.71000004
   17.99611092   78.77410126    0.52999997    2.71000004
   18.00083351   81.51920319    0.55000001    2.71000004
   18.00527763   86.03399658    0.58999997    2.71000004
   18.00861168   81.69499969    0.58999997    2.71000004
   18.01055527   85.72969818    0.58999997    2.71000004
   18.01194382   86.18009949    0.56999999    2.71000004
   18.01333427   97.34889984    0.58999997    2.71000004
   18.01472282   87.12359619    0.56999999    2.71000004
   18.01611137   95.18599701    0.56999999    2.71000004
   18.01749992   85.77909851    0.58999997    2.69000006
   18.01888847   86.93350220    0.58999997    2.69000006
   18.02027702   84.58239746    0.58999997    2.71000004
   18.02166557   86.77159882    0.58999997    2.71000004
   18.02305603   82.05380249    0.63000000    2.71000004
   18.02444458   86.44699860    0.63000000    2.71000004
   18.02583313   81.45200348    0.63000000    2.71000004
   18.02722168   79.78489685    0.63000000    2.71000004
   18.02861023   84.84510040    0.63000000    2.71000004
   18.03000069   80.24230194    0.63000000    2.71000004
   18.03138924   79.88310242    0.63000000    2.71000004
   18.03277779   85.61460114    0.64999998    2.71000004
   18.03416634   80.08679962    0.64999998    2.71000004
   18.03555489   80.07469940    0.69000000    2.71000004
   18.03694344   82.79840088    0.69000000    2.71000004
   18.03833199   81.96099854    0.69000000    2.71000004
   18.03972244   79.55960083    0.81999999    2.71000004
   18.04111099   75.87840271    0.81999999    2.71000004
   18.04249954   78.95520020    0.81999999    2.71000004
   18.04388809   82.84539795    0.92000002    2.71000004
   18.04527664   80.19869995    0.92000002    2.71000004
   18.04666710   78.82299805    0.92000002    2.71000004
   18.04805565   78.53359985    0.92000002    2.71000004
   18.04944420   76.10810089    0.88000000    2.69000006
   18.05083275   81.64240265    0.88000000    2.69000006
   18.05222130   79.62100220    0.88000000    2.69000006
   18.05360985   78.86219788    1.00000000    2.71000004
   18.05499840   82.60620117    1.00000000    2.71000004
   18.05638885   79.42819977    1.00000000    2.71000004
   18.05777740   76.47409821    0.95999998    2.71000004
   18.05916595   76.33999634    0.95999998    2.71000004
   18.06055450   76.07649994    0.95999998    2.71000004
   18.06194305   76.07240295    0.89999998    2.71000004
   18.06333351   79.35070038    0.89999998    2.71000004
   18.06472206   79.40830231    0.95999998    2.71000004
   18.06611061   80.49130249    0.95999998    2.71000004
   18.06750107   84.46240234    0.95999998    2.71000004
   18.06888962   80.33159637    0.98000002    2.69000006
   18.07027817   79.40899658    1.01999998    2.71000004
   18.07166672   83.04319763    1.05999994    2.71000004
   18.07305717   75.67350006    1.07000005    2.69000006
   18.07444572   77.78279877    1.09000003    2.71000004
   18.07583427   80.03610229    1.13000000    2.71000004
   18.07722282   78.94899750    1.21000004    2.69000006
   18.07861137   78.20279694    1.28999996    2.71000004
   18.08000183   75.89170074    1.30999994    2.69000006
   18.08139038   78.58820343    1.34000003    2.69000006
   18.08277893   79.47589874    1.34000003    2.69000006
   18.08416748   80.10220337    1.58000004    2.71000004
   18.08555603   81.85810089    1.66999996    2.69000006
   18.08694458   79.79540253    1.66999996    2.69000006
   18.08833313   78.87640381    1.66999996    2.69000006
   18.08972359   76.98040009    1.66999996    2.69000006
   18.09111214   80.94149780    1.66999996    2.69000006
   18.09250069   82.41089630    1.66999996    2.69000006
   18.09388924   81.73470306    1.66999996    2.69000006
   18.09527779   79.55220032    1.48000002    2.69000006
   18.09666824   79.15429688    1.34000003    2.69000006
   18.09805679   79.57499695    1.33000004    2.69000006
   18.09944534   82.51409912    1.33000004    2.69000006
   18.10083389   77.02390289    1.33000004    2.69000006
   18.10222244   81.66419983    1.33000004    2.69000006
   18.10361099   77.72429657    1.28999996    2.71000004
   18.10499954   80.23660278    1.28999996    2.71000004
   18.10639000   80.94300079    1.23000002    2.69000006
   18.10777855   84.65470123    1.23000002    2.69000006
   18.10916710   79.55909729    1.23000002    2.69000006
   18.11055565   81.39739990    1.26999998    2.71000004
   18.11194420   86.07140350    1.44000006    2.69000006
   18.11333466   82.82630157    1.44000006    2.69000006
   18.11472321   82.71690369    1.44000006    2.69000006
   18.11611176   81.91600037    1.48000002    2.69000006
   18.11750031   83.01679993    1.48000002    2.69000006
   18.11888885   87.44599915    1.48000002    2.69000006
   18.12027740   85.59490204    1.55999994    2.69000006
   18.12166595   84.52619934    1.55999994    2.69000006
   18.12305641   83.76830292    1.55999994    2.69000006
   18.12444496   89.50640106    1.53999996    2.69000006
   18.12583351   85.73629761    1.53999996    2.69000006
   18.12722206   84.14730072    1.60000002    2.66000009
   18.12861061   84.44889832    1.60000002    2.66000009
   18.13000107   90.35859680    1.60000002    2.66000009
   18.13138962   95.49690247    1.73000002    2.69000006
   18.13277817   86.73190308    1.73000002    2.69000006
   18.13416672   85.15129852    1.73000002    2.69000006
   18.13555527   90.29000092    1.73000002    2.69000006
   18.13694382   82.74770355    1.63000000    2.69000006
   18.13833237   88.75170135    1.63000000    2.69000006
   18.13972282   87.22799683    1.63000000    2.69000006
   18.14111137   81.22560120    1.71000004    2.67000008
   18.14249992   85.77870178    1.71000004    2.67000008
   18.14388847   88.15920258    1.71000004    2.67000008
   18.14527702   95.60299683    1.71000004    2.69000006
   18.14666748   83.15969849    1.71000004    2.69000006
   18.14805603   85.83760071    1.55999994    2.67000008
   18.14944458   87.41649628    1.61000001    2.69000006
   18.15083313   84.56300354    1.58000004    2.69000006
   18.15222168   82.44349670    1.44000006    2.69000006
   18.15361023   86.06849670    1.38000000    2.69000006
   18.15499878   87.20020294    1.33000004    2.69000006
   18.15638924   88.84919739    1.34000003    2.67000008
   18.15777779   94.91690063    1.33000004    2.69000006
   18.15916634   96.65879822    1.28999996    2.69000006
   18.16055489   84.52600098    1.28999996    2.69000006
   18.16194344   85.82489777    1.28999996    2.69000006
   18.16333389   88.54389954    1.28999996    2.69000006
   18.16472244   86.44210052    1.26999998    2.69000006
   18.16611099   88.94830322    1.26999998    2.69000006
   18.16749954   88.43419647    1.23000002    2.69000006
   18.16888809   92.50399780    1.14999998    2.69000006
   18.17027664   81.58319855    1.14999998    2.69000006
   18.17166519   90.69409943    1.13000000    2.69000006
   18.17305565   94.11699677    1.13000000    2.69000006
   18.17444420   83.13079834    1.13000000    2.69000006
   18.17583275   90.87030029    1.01999998    2.69000006
   18.17722130   86.37120056    1.01999998    2.69000006
   18.17860985   87.37249756    1.01999998    2.69000006
   18.18000031   81.29740143    1.01999998    2.71000004
   18.18138885   85.65869904    1.03999996    2.71000004
   18.18277740   80.02580261    1.00000000    2.71000004
   18.18416595   84.87799835    0.89999998    2.71000004
   18.18555450   88.43470001    0.88000000    2.71000004
   18.18694305   88.46700287    0.88000000    2.71000004
   18.18833160   83.13729858    0.88000000    2.71000004
   18.18972206   86.26820374    0.86000001    2.69000006
   18.19111061   82.02010345    0.86000001    2.69000006
   18.19249916   90.66079712    0.86000001    2.69000006
   18.19388771   89.11260223    0.86000001    2.71000004
   18.19527626   81.53720093    0.86000001    2.71000004
   18.19666672   86.05509949    0.86000001    2.71000004
   18.19805527   89.35299683    1.07000005    2.69000006
   18.19944382   82.21779633    1.07000005    2.69000006
   18.20083427   91.11280060    1.28999996    2.69000006
   18.20222282   82.43160248    1.28999996    2.69000006
   18.20361137   87.87879944    1.28999996    2.69000006
   18.20499992   85.61039734    0.88000000    2.69000006
   18.20639038   87.86199951    0.88000000    2.69000006
   18.20777893   82.16259766    0.88000000    2.69000006
   18.20916748   93.95200348    0.88000000    2.69000006
   18.21055603   93.12419891    0.88000000    2.69000006
   18.21194458   91.47789764    0.88000000    2.69000006
   18.21333504   89.76319885    0.88000000    2.69000006
   18.21472359   85.61569977    0.88000000    2.69000006
   18.21611214   94.80799866    0.88000000    2.69000006
   18.21750069   99.50209808    0.94000000    2.71000004
   18.21888924   88.53350067    0.94000000    2.71000004
   18.22027779   82.43900299    0.94000000    2.71000004
   18.22166634   84.42259979    0.76999998    2.69000006
   18.22305679   85.00540161    0.76999998    2.69000006
   18.22444534   91.43879700    0.75000000    2.69000006
   18.22583389   92.10669708    0.75000000    2.69000006
   18.22722244   87.91159821    0.75000000    2.69000006
   18.22861099   87.82430267    0.75000000    2.69000006
   18.23000145   81.30789948    0.75000000    2.69000006
   18.23139000   81.04589844    0.73000002    2.69000006
   18.23277855   84.46219635    0.73000002    2.69000006
   18.23416710   86.10900116    0.73000002    2.69000006
   18.23555565   87.27230072    0.70999998    2.69000006
   18.23694420   95.80049896    0.70999998    2.69000006
   18.23833275   86.79940033    0.69000000    2.69000006
   18.23972321   83.88369751    0.69000000    2.69000006
   18.24111176   99.34259796    0.69000000    2.69000006
   18.24250031   81.61250305    0.67000002    2.67000008
   18.24388885   81.44689941    0.64999998    2.69000006
   18.24527740   82.03679657    0.63000000    2.71000004
   18.24666786   81.35310364    0.61000001    2.69000006
   18.24805641   92.41439819    0.61000001    2.69000006
   18.24944496   80.36350250    0.63000000    2.71000004
   18.25083351   91.26249695    0.63000000    2.71000004
   18.25222206   89.30860138    0.64999998    2.69000006
   18.25361061   77.16819763    0.64999998    2.69000006
   18.25499916   91.92410278    0.67000002    2.71000004
   18.25638962   91.10520172    0.67000002    2.71000004
   18.25777817   79.68810272    0.64999998    2.69000006
   18.25916672   91.02059937    0.64999998    2.69000006
   18.26055527   79.43190002    0.64999998    2.69000006
   18.26194382   83.47129822    0.63000000    2.71000004
   18.26333427   92.76709747    0.63000000    2.71000004
   18.26472282  102.70600128    0.63000000    2.71000004
   18.26611137   83.12229919    0.63000000    2.69000006
   18.26749992   82.81250000    0.58999997    2.69000006
   18.26888847   86.70970154    0.61000001    2.69000006
   18.27027702   90.51149750    0.58999997    2.69000006
   18.27166557   82.89389801    0.56999999    2.69000006
   18.27305603   86.82510376    0.56999999    2.69000006
   18.27444458   94.15969849    0.56999999    2.69000006
   18.27583313   90.46700287    0.58999997    2.69000006
   18.27722168   84.25319672    0.61000001    2.69000006
   18.27861023   78.38490295    0.61000001    2.69000006
   18.28000069   83.27709961    0.61000001    2.69000006
   18.28138924   81.83029938    0.63000000    2.69000006
   18.28277779   90.88179779    0.63000000    2.69000006
   18.28416634   79.85489655    0.61000001    2.69000006
   18.28555489   85.57319641    0.56999999    2.71000004
   18.28694344   83.64260101    0.56999999    2.69000006
   18.28833199   81.96890259    0.56999999    2.69000006
   18.28972244   82.64330292    0.56999999    2.69000006
   18.29111099   87.20899963    0.55000001    2.69000006
   18.29249954   88.24659729    0.56999999    2.69000006
   18.29388809   86.32299805    0.61000001    2.69000006
   18.29527664   86.63480377    0.61000001    2.69000006
   18.29666710   83.44300079    0.63000000    2.69000006
   18.29805565   86.23190308    0.63000000    2.69000006
   18.29944420   92.19139862    0.63000000    2.69000006
   18.30083275   86.39050293    0.64999998    2.69000006
   18.30222130   83.26409912    0.64999998    2.69000006
   18.30360985   87.84410095    0.64999998    2.69000006
   18.30499840   82.66290283    0.64999998    2.69000006
   18.30638885   87.86450195    0.64999998    2.69000006
   18.30777740   86.77960205    0.63000000    2.69000006
   18.30916595   85.22730255    0.64999998    2.69000006
   18.31055450   88.82980347    0.69000000    2.69000006
   18.31194305   86.05690002    0.64999998    2.69000006
   18.31333351   84.27390289    0.64999998    2.69000006
   18.31472206   81.48259735    0.64999998    2.69000006
   18.31611061   84.29190063    0.64999998    2.69000006
   18.31750107   81.20610046    0.67000002    2.69000006
   18.31888962   86.39129639    0.67000002    2.69000006
   18.32027817   80.72760010    0.67000002    2.69000006
   18.32166672   87.44419861    0.67000002    2.69000006
   18.32305717   85.76090240    0.67000002    2.69000006
   18.32444572   91.90499878    0.69000000    2.69000006
   18.32583427   81.54299927    0.69000000    2.69000006
   18.32722282   87.33940125    0.69000000    2.69000006
   18.32861137   78.84960175    0.73000002    2.67000008
   18.33000183   81.04270172    0.73000002    2.67000008
   18.33139038   89.93720245    0.73000002    2.67000008
   18.33277893   85.86170197    0.80000001    2.69000006
   18.33416748   81.29070282    0.80000001    2.69000006
   18.33555603   87.60620117    0.80000001    2.69000006
   18.33694458   82.60820007    0.79000002    2.69000006
   18.33833313   80.59999847    0.79000002    2.69000006
   18.33972359   85.70459747    0.76999998    2.69000006
   18.34111214   82.57890320    0.79000002    2.69000006
   18.34250069   87.94840240    0.79000002    2.69000006
   18.34388924   79.34049988    0.80000001    2.69000006
   18.34527779   86.17919922    0.81999999    2.69000006
   18.34666824   84.06289673    0.80000001    2.69000006
   18.34805679   80.36560059    0.79000002    2.69000006
   18.34944534   89.71829987    0.79000002    2.69000006
   18.35083389   78.34719849    0.79000002    2.67000008
   18.35222244   79.97709656    0.79000002    2.67000008
   18.35361099   80.76770020    0.81999999    2.67000008
   18.35499954   80.91100311    0.81999999    2.67000008
   18.35639000   81.84539795    0.83999997    2.67000008
   18.35777855   86.76460266    0.88000000    2.67000008
   18.35916710   80.54329681    0.89999998    2.69000006
   18.36055565   82.01889801    0.89999998    2.69000006
   18.36194420   79.82180023    0.88000000    2.69000006
   18.36333466   85.64980316    0.88000000    2.69000006
   18.36472321   84.53780365    0.88000000    2.69000006
   18.36611176   76.30549622    0.86000001    2.69000006
   18.36750031   82.87969971    0.86000001    2.69000006
   18.36888885   83.35900116    0.73000002    2.69000006
   18.37027740   80.64910126    0.73000002    2.69000006
   18.37166595   83.81050110    0.76999998    2.69000006
   18.37305641   79.89109802    0.88000000    2.67000008
   18.37444496   77.43779755    0.92000002    2.67000008
   18.37583351   83.59420013    0.95999998    2.69000006
   18.37722206   81.15070343    0.98000002    2.67000008
   18.37861061   84.02400208    1.00000000    2.69000006
   18.38000107   85.18949890    1.00000000    2.69000006
   18.38138962   84.40149689    1.00000000    2.69000006
   18.38277817   86.81120300    0.98000002    2.69000006
   18.38416672   80.99749756    0.98000002    2.69000006
   18.38555527   91.67569733    0.94000000    2.69000006
   18.38694382   86.36889648    0.94000000    2.69000006
   18.38833237   91.50640106    0.94000000    2.69000006
   18.38972282   97.63310242    0.89999998    2.69000006
   18.39111137   90.16739655    0.89999998    2.69000006
   18.39249992   96.91390228    0.89999998    2.69000006
   18.39388847   86.63179779    0.89999998    2.67000008
   18.39527702   92.55740356    0.89999998    2.67000008
   18.39666748  103.49500275    0.89999998    2.67000008
   18.39805603  100.94899750    0.95999998    2.67000008
   18.39944458  120.24600220    0.95999998    2.67000008
   18.40083313   96.89839935    1.05999994    2.69000006
   18.40222168  104.54799652    1.11000001    2.67000008
   18.40361023   99.01809692    1.16999996    2.67000008
   18.40499878  103.51999664    1.16999996    2.67000008
   18.40638924  105.48400116    1.16999996    2.67000008
   18.40777779   91.77279663    1.16999996    2.67000008
   18.40916634  104.24700165    1.16999996    2.67000008
   18.41055489   99.33090210    1.16999996    2.67000008
   18.41194344   88.39340210    1.16999996    2.67000008
   18.41333389   96.91989899    1.23000002    2.67000008
   18.41472244  104.76599884    1.23000002    2.67000008
   18.41611099   99.58129883    1.23000002    2.67000008
   18.41749954   87.94550323    1.26999998    2.67000008
   18.41888809   95.08300018    1.26999998    2.67000008
   18.42027664   96.25489807    1.25000000    2.67000008
   18.42166519   91.13249969    1.30999994    2.67000008
   18.42305565   91.16490173    1.26999998    2.67000008
   18.42444420   96.19779968    1.23000002    2.67000008
   18.42583275   89.20459747    1.16999996    2.69000006
   18.42722130   84.31529999    1.14999998    2.69000006
   18.42860985   89.20939636    1.13000000    2.67000008
   18.43000031   95.20099640    1.13000000    2.69000006
   18.43138885   98.94529724    1.14999998    2.69000006
   18.43277740   92.97979736    1.13000000    2.67000008
   18.43416595   89.59809875    1.13000000    2.67000008
   18.43555450   92.43489838    1.13000000    2.67000008
   18.43694305   95.73000336    1.13000000    2.67000008
   18.43833160   90.76470184    1.13000000    2.67000008
   18.43972206   94.15480042    1.16999996    2.67000008
   18.44111061   87.70159912    1.23000002    2.67000008
   18.44249916   88.17400360    1.23000002    2.67000008
   18.44388771   90.35119629    1.25000000    2.67000008
   18.44527626   94.67430115    1.25000000    2.67000008
   18.44666672   92.35569763    1.25000000    2.67000008
   18.44805527   89.38069916    1.25000000    2.67000008
   18.44944382   85.47599792    1.36000001    2.66000009
   18.45083427   90.80899811    1.89999998    2.66000009
   18.45222282   95.32759857    1.96000004    2.66000009
   18.45361137   91.34300232    2.05999994    2.66000009
   18.45499992   87.60859680    2.09999990    2.66000009
   18.45639038   79.95670319    2.13000011    2.67000008
   18.45777893   85.40029907    2.13000011    2.67000008
   18.45916748   83.88960266    2.13000011    2.66000009
   18.46055603   84.56510162    2.21000004    2.67000008
   18.46194458   83.53220367    2.32999992    2.66000009
   18.46333504   87.16809845    2.36999989    2.66000009
   18.46472359   85.47350311    2.36999989    2.66000009
   18.46611214   80.76989746    2.40000010    2.66000009
   18.46750069   88.49160004    2.40000010    2.66000009
   18.46888924   82.15360260    2.40000010    2.66000009
   18.47027779   88.87830353    2.61999989    2.66000009
   18.47166634   82.70220184    2.61999989    2.64000010
   18.47305679   85.43900299    2.55999994    2.66000009
   18.47444534   87.90450287    2.55999994    2.66000009
   18.47583389   86.11090088    2.55999994    2.66000009
   18.47722244   79.52950287    2.64000010    2.66000009
   18.47861099   83.55560303    2.73000002    2.66000009
   18.48000145   83.93180084    2.82999992    2.66000009
   18.48139000   83.22399902    2.94000006    2.64000010
   18.48277855   82.34559631    2.94000006    2.64000010
   18.48416710   85.47570038    2.91000009    2.64000010
   18.48555565   88.55020142    2.80999994    2.64000010
   18.48694420   84.27519989    2.75000000    2.61999989
   18.48833275   83.48880005    2.71000004    2.61999989
   18.48972321   86.54070282    2.57999992    2.64000010
   18.49111176   82.52130127    2.53999996    2.64000010
   18.49250031   81.74099731    2.53999996    2.64000010
   18.49388885   82.67919922    2.67000008    2.67000008
   18.49527740   87.72409821    2.75000000    2.67000008
   18.49666786   88.22010040    3.00000000    2.66000009
   18.49805641   85.76390076    3.11999989    2.66000009
   18.49944496   82.51560211    3.20000005    2.67000008
   18.50083351   83.46219635    3.23000002    2.66000009
   18.50222206   85.02040100    3.18000007    2.67000008
   18.50361061   82.98329926    3.09999990    2.67000008
   18.50499916   85.55979919    2.78999996    2.64000010
   18.50638962   92.83910370    2.55999994    2.66000009
   18.50777817   88.29429626    2.26999998    2.67000008
   18.50916672   84.74369812    2.23000002    2.66000009
   18.51055527   86.85980225    2.26999998    2.66000009
   18.51194382   82.61009979    2.32999992    2.66000009
   18.51333427   82.65200043    2.53999996    2.66000009
   18.51472282   83.49120331    2.59999990    2.66000009
   18.51611137   83.48739624    2.61999989    2.67000008
   18.51749992   81.61229706    2.53999996    2.66000009
   18.51888847   84.43160248    2.51999998    2.66000009
   18.52027702   85.79820251    2.55999994    2.66000009
   18.52166557   84.07160187    2.57999992    2.64000010
   18.52305603   84.55750275    2.57999992    2.61999989
   18.52444458   87.62390137    2.61999989    2.64000010
   18.52583313   87.11190033    2.69000006    2.64000010
   18.52722168   85.67259979    2.75000000    2.66000009
   18.52861023   88.36509705    2.86999989    2.64000010
   18.53000069   85.30000305    2.84999990    2.64000010
   18.53138924   83.78849792    2.78999996    2.64000010
   18.53277779   81.86100006    2.69000006    2.66000009
   18.53416634   80.96309662    2.61999989    2.67000008
   18.53555489   85.66660309    2.50000000    2.66000009
   18.53694344   84.35919952    2.30999994    2.66000009
   18.53833199   87.28769684    2.17000008    2.64000010
   18.53972244   85.62770081    2.15000010    2.61999989
   18.54111099   85.06259918    2.25000000    2.61999989
   18.54249954   85.18299866    2.36999989    2.66000009
   18.54388809   81.08860016    2.42000008    2.67000008
   18.54527664   85.79900360    2.46000004    2.66000009
   18.54666710   82.65709686    2.36999989    2.66000009
   18.54805565   83.29609680    2.26999998    2.64000010
   18.54944420   84.12920380    2.25000000    2.64000010
   18.55083275   88.60040283    2.17000008    2.66000009
   18.55222130   78.22389984    2.13000011    2.66000009
   18.55360985   81.84220123    2.07999992    2.67000008
   18.55499840   81.19129944    1.96000004    2.67000008
   18.55638885   80.21360016    1.69000006    2.67000008
   18.55777740   83.04810333    1.41999996    2.66000009
   18.55916595   79.49690247    1.19000006    2.66000009
   18.56055450   80.09700012    1.19000006    2.66000009
   18.56138802   81.51920319    0.55000001    2.71000004
   18.56138802   86.03399658    0.58999997    2.71000004
   18.56138802   81.69499969    0.58999997    2.71000004
   18.56638718   80.98989868    1.14999998    2.67000008
   18.56944466   80.73239899    1.14999998    2.67000008
   18.57277870   84.75489807    1.19000006    2.66000009
   18.57583427   84.11710358    1.23000002    2.66000009
   18.57916832   81.59680176    1.58000004    2.67000008
   18.58250046   83.57510376    1.58000004    2.67000008
   18.58666801   83.57510376    1.63000000    2.67000008
   18.59055710   81.35279846    1.30999994    2.66000009
   18.59388924   86.27660370    1.26999998    2.64000010
   18.59722328   81.59359741    1.44000006    2.66000009
   18.59972191   83.96219635    1.39999998    2.66000009
   18.60083389   82.85929871    1.39999998    2.66000009
   18.60416794   82.38739777    1.36000001    2.67000008
   18.60722351   80.89800262    1.50000000    2.66000009
   18.61055565   82.64070129    1.53999996    2.66000009
   18.61388969   83.22329712    1.66999996    2.67000008
   18.61694527   81.79910278    1.66999996    2.67000008
   18.62027740   83.74909973    1.28999996    2.66000009
   18.62361145   83.81800079    1.44000006    2.64000010
   18.62944412   83.81800079    1.55999994    2.66000009
   18.63361168   81.59780121    1.53999996    2.66000009
   18.63666725   85.12909698    1.38000000    2.66000009
   18.63999939   87.39839935    1.53999996    2.66000009
   18.64333344   83.76930237    1.86000001    2.67000008
   18.64638901   86.36399841    1.86000001    2.64000010
   18.64972115   81.52739716    1.83000004    2.64000010
   18.65277672   82.38310242    1.89999998    2.66000009
   18.65611076   84.37799835    1.91999996    2.66000009
   18.65944481   88.48619843    1.94000006    2.66000009
   18.66250038   83.10359955    1.69000006    2.66000009
   18.66583252   87.76979828    1.71000004    2.66000009
   18.66638756   82.60800171    1.71000004    2.66000009
   18.67222214   82.60800171    1.64999998    2.64000010
   18.67638779   85.31109619    2.26999998    2.66000009
   18.67972183   90.86009979    2.39000010    2.67000008
   18.68277740   83.53659821    2.53999996    2.64000010
   18.68610954   84.96379852    2.61999989    2.66000009
   18.68916512   79.23400116    2.51999998    2.66000009
   18.69249916   86.09850311    2.19000006    2.66000009
   18.69583321   84.72219849    2.03999996    2.66000009
   18.69888878   87.84619904    1.78999996    2.64000010
   18.69972038   81.37429810    1.75000000    2.64000010
   18.70277786   84.44419861    1.75000000    2.66000009
   18.70583344   83.88880157    1.91999996    2.64000010
   18.70916748   80.81680298    2.11999989    2.66000009
   18.71500015   80.81680298    2.50000000    2.66000009
   18.71916771   95.74430084    2.98000002    2.64000010
   18.72249985   85.62039948    3.11999989    2.64000010
   18.72583389   81.58139801    3.48000002    2.66000009
   18.72888947   87.27220154    2.76999998    2.66000009
   18.73222351   83.91210175    1.66999996    2.64000010
   18.73305511   83.19259644    1.58000004    2.64000010
   18.73583412   86.01149750    1.36000001    2.64000010
   18.73888969   84.90989685    1.34000003    2.64000010
   18.74222183   86.19000244    1.33000004    2.64000010
   18.74527740   86.76589966    1.39999998    2.64000010
   18.74861145   86.89260101    1.36000001    2.64000010
   18.75194359   89.61609650    1.34000003    2.64000010
   18.75805473   89.61609650    1.19000006    2.66000009
   18.76194382   82.35169983    1.01999998    2.66000009
   18.76527786   79.00489807    1.00000000    2.66000009
   18.76638794   78.98380280    0.98000002    2.66000009
   18.76916695   84.42330170    0.94000000    2.66000009
   18.77222252   84.68810272    0.89999998    2.64000010
   18.77555466   85.77069855    0.92000002    2.66000009
   18.77861023   89.72489929    0.92000002    2.66000009
   18.78194427   88.18099976    0.92000002    2.66000009
   18.78527641   88.84770203    0.94000000    2.66000009
   18.78833199   83.48880005    0.89999998    2.66000009
   18.79166603   80.36910248    1.01999998    2.64000010
   18.79500008   79.92209625    1.09000003    2.66000009
   18.80083275   79.92209625    0.92000002    2.66000009
   18.80499840   85.86440277    0.58999997    2.64000010
   18.80805397   88.11560059    0.58999997    2.64000010
   18.81138802   82.89379883    0.58999997    2.66000009
   18.81472206   92.82409668    0.56999999    2.66000009
   18.81777954   84.69580078    0.55000001    2.66000009
   18.82111168   85.50489807    0.55000001    2.66000009
   18.82416725   85.80909729    0.52999997    2.64000010
   18.82750130   88.03119659    0.52999997    2.66000009
   18.83083344   87.67949677    0.55000001    2.66000009
   18.83305550   82.86869812    0.52999997    2.66000009
   18.83444595   84.98380280    0.52999997    2.66000009
   18.83750153   81.71299744    0.51999998    2.66000009
   18.84361267   81.71299744    0.50000000    2.66000009
   18.84777832   86.44349670    0.50000000    2.66000009
   18.85111237   83.79070282    0.51999998    2.66000009
   18.85416794   80.97750092    0.52999997    2.66000009
   18.85750008   79.15650177    0.52999997    2.66000009
   18.86055565   92.10320282    0.52999997    2.66000009
   18.86388969   86.52469635    0.52999997    2.64000010
   18.86638832   83.22740173    0.56999999    2.66000009
   18.86777878   84.41590118    0.58999997    2.64000010
   18.87083435   85.89720154    0.63000000    2.64000010
   18.87416649   85.08529663    0.58999997    2.64000010
   18.87750053   81.93820190    0.58999997    2.64000010
   18.88055611   91.74939728    0.56999999    2.66000009
   18.88638878   91.74939728    0.52999997    2.64000010
   18.89055634   85.89849854    0.52999997    2.64000010
   18.89388847   84.54969788    0.52999997    2.64000010
   18.89694405   89.62999725    0.52999997    2.64000010
   18.89972115   79.22850037    0.52999997    2.66000009
   18.90083313   80.57019806    0.52999997    2.64000010
   18.90388870   84.32640076    0.52999997    2.64000010
   18.90722275   93.72380066    0.52999997    2.64000010
   18.91055489   83.68699646    0.56999999    2.64000010
   18.91361046   80.11930084    0.56999999    2.64000010
   18.91694450   82.00599670    0.58999997    2.64000010
   18.92000008   80.83200073    0.61000001    2.64000010
   18.92333221   83.62139893    0.67000002    2.64000010
   18.92944336   83.62139893    0.76999998    2.64000010
   18.93333244   80.66850281    0.79000002    2.64000010
   18.93666649   84.20850372    0.80000001    2.64000010
   18.93999863   79.72239685    0.80000001    2.64000010
   18.94305420   86.02140045    0.80000001    2.64000010
   18.94638824   79.69249725    0.79000002    2.64000010
   18.94972038   81.07340240    0.75000000    2.64000010
   18.95277786   80.68640137    0.75000000    2.64000010
   18.95611191   83.39350128    0.75000000    2.64000010
   18.95916748   86.27729797    0.70999998    2.64000010
   18.96250153   87.20259857    0.69000000    2.64000010
   18.96583366   85.90419769    0.69000000    2.64000010
   18.96638870   85.38150024    0.67000002    2.64000010
   18.97222328   85.38150024    0.69000000    2.64000010
   18.97638893   79.00949860    0.64999998    2.64000010
   18.97944450   82.79869843    0.64999998    2.64000010
   18.98277855   83.99140167    0.61000001    2.64000010
   18.98611069   81.20030212    0.61000001    2.64000010
   18.98916626   79.85959625    0.61000001    2.64000010
   18.99250031   80.02110291    0.61000001    2.64000010
   18.99583435   85.28690338    0.61000001    2.64000010
   18.99888992   83.31120300    0.61000001    2.64000010
   18.99972153   85.56220245    0.61000001    2.64000010
   19.00277710   84.35150146    0.61000001    2.64000010
   19.00583267   78.22299957    0.58999997    2.61999989
   19.00916672   82.69960022    0.58999997    2.61999989
   19.01499939   82.69960022    0.63000000    2.64000010
   19.01916695   80.08769989    0.63000000    2.64000010
   19.02249908   83.05770111    0.63000000    2.64000010
   19.02555466   84.83419800    0.64999998    2.64000010
   19.02888870   85.81919861    0.67000002    2.64000010
   19.03194427   86.26789856    0.69000000    2.64000010
   19.03305435   82.77529907    0.69000000    2.64000010
   19.03583336   79.41709900    0.70999998    2.61999989
   19.03888893   79.95110321    0.70999998    2.64000010
   19.04222107   80.78659821    0.70999998    2.64000010
   19.04555511   88.43750000    0.70999998    2.64000010
   19.04861069   86.37220001    0.73000002    2.61999989
   19.05194283   82.04239655    0.73000002    2.61999989
   19.05777740   82.04239655    0.69000000    2.61999989
   19.06194305   80.16739655    0.64999998    2.64000010
   19.06527710   89.05590057    0.64999998    2.64000010
   19.06638718   86.58429718    0.64999998    2.64000010
   19.06888962   80.79419708    0.63000000    2.61999989
   19.07194519   84.73130035    0.63000000    2.61999989
   19.07527924   78.91989899    0.61000001    2.61999989
   19.07861137   79.00090027    0.58999997    2.61999989
   19.08166695   81.68710327    0.58999997    2.64000010
   19.08500099   83.35549927    0.61000001    2.61999989
   19.08833313   85.44329834    0.61000001    2.61999989
   19.09138870   78.32559967    0.61000001    2.61999989
   19.09472275   82.05609894    0.58999997    2.61999989
   19.10083389   82.05609894    0.58999997    2.61999989
   19.10472298   86.39089966    0.58999997    2.64000010
   19.10805511   82.78430176    0.58999997    2.64000010
   19.11138916   82.54360199    0.58999997    2.61999989
   19.11444473   80.34140015    0.58999997    2.61999989
   19.11777878   78.64749908    0.58999997    2.61999989
   19.12111092   82.70980072    0.58999997    2.64000010
   19.12416649   80.08429718    0.58999997    2.61999989
   19.12750053   81.49579620    0.58999997    2.61999989
   19.13055611   81.36450195    0.56999999    2.64000010
   19.13305473   80.84519958    0.55000001    2.64000010
   19.13444519   78.20469666    0.56999999    2.61999989
   19.13750076   81.96849823    0.56999999    2.61999989
   19.14361191   81.96849823    0.55000001    2.61999989
   19.14777756   85.00540161    0.55000001    2.61999989
   19.15083313   87.09799957    0.55000001    2.61999989
   19.15416718   87.84230042    0.52999997    2.61999989
   19.15749931   90.00530243    0.55000001    2.61999989
   19.16083336   83.46610260    0.55000001    2.61999989
   19.16388893   82.00640106    0.55000001    2.61999989
   19.16638756   82.04199982    0.55000001    2.61999989
   19.16749954   82.86710358    0.55000001    2.61999989
   19.17055511   81.57820129    0.55000001    2.61999989
   19.17388916   85.63349915    0.55000001    2.61999989
   19.17722130   82.93170166    0.55000001    2.59999990
   19.18027687   80.38110352    0.55000001    2.61999989
   19.18638802   80.38110352    0.55000001    2.59999990
   19.19055557   81.70929718    0.55000001    2.59999990
   19.19388771   85.20690155    0.55000001    2.61999989
   19.19694328   91.70510101    0.55000001    2.61999989
   19.19972038   82.54699707    0.52999997    2.61999989
   19.20055580   88.29750061    0.52999997    2.61999989
   19.20361137   80.58110046    0.52999997    2.61999989
   19.20694542   87.76809692    0.55000001    2.61999989
   19.21027946   81.24759674    0.55000001    2.59999990
   19.21333504   87.15489960    0.55000001    2.61999989
   19.21666718   83.83860016    0.55000001    2.61999989
   19.22000122   84.85089874    0.55000001    2.61999989
   19.22305679   88.31169891    0.55000001    2.59999990
   19.22916794   88.31169891    0.56999999    2.59999990
   19.23333359   81.01149750    0.56999999    2.59999990
   19.23666763   81.56900024    0.56999999    2.59999990
   19.23972321   86.64019775    0.56999999    2.59999990
   19.24305534   80.92590332    0.56999999    2.59999990
   19.24638939   85.83869934    0.56999999    2.59999990
   19.24944496   85.93979645    0.56999999    2.59999990
   19.25277710   83.18869781    0.55000001    2.59999990
   19.25611115   78.11840057    0.55000001    2.59999990
   19.25916672   83.67610168    0.55000001    2.59999990
   19.26250076   86.41390228    0.55000001    2.59999990
   19.26583290   88.28880310    0.55000001    2.59999990
   19.26638794   86.62090302    0.55000001    2.59999990
   19.27222252   86.62090302    0.55000001    2.59999990
   19.27611160   81.56050110    0.55000001    2.59999990
   19.27944374   85.53549957    0.51999998    2.59999990
   19.28277779   86.96839905    0.51999998    2.59999990
   19.28583336   82.14389801    0.50000000    2.59999990
   19.28916550   85.44339752    0.50000000    2.59999990
   19.29249954   79.06759644    0.50000000    2.59999990
   19.29555511   82.82019806    0.51999998    2.59999990
   19.29888916   81.81210327    0.50000000    2.59999990
   19.29972076   81.43479919    0.50000000    2.59999990
   19.30249977   85.04039764    0.50000000    2.59999990
   19.30583191   84.17980194    0.50000000    2.59999990
   19.30888748   81.50779724    0.50000000    2.59999990
   19.31499863   81.50779724    0.50000000    2.59999990
   19.31916809   83.46569824    0.47999999    2.59999990
   19.32222366   81.74050140    0.47999999    2.59999990
   19.32555580   84.92230225    0.47999999    2.59999990
   19.32861137   87.33000183    0.50000000    2.59999990
   19.33194542   88.28399658    0.50000000    2.59999990
   19.33305550   83.70880127    0.50000000    2.59999990
   19.33555603   83.74829865    0.51999998    2.59999990
   19.33889008   89.86710358    0.51999998    2.59999990
   19.34194565   82.07099915    0.51999998    2.59999990
   19.34527779   86.08480072    0.52999997    2.59999990
   19.34833336   90.28720093    0.61000001    2.59999990
   19.35166740   89.16860199    0.63000000    2.59999990
   19.35777855   89.16860199    0.83999997    2.59999990
   19.36194420   88.08519745    0.88000000    2.59999990
   19.36499977   86.49700165    0.89999998    2.59999990
   19.36638832   86.70189667    0.89999998    2.59999990
   19.36888885   89.68740082    0.92000002    2.59999990
   19.37222290   87.36309814    0.92000002    2.59999990
   19.37527847   85.43499756    0.92000002    2.59999990
   19.37861061   92.72589874    0.92000002    2.59999990
   19.38166618   85.83290100    0.92000002    2.59999990
   19.38500023   83.35900116    0.89999998    2.59999990
   19.38833237   90.92289734    0.80000001    2.57999992
   19.39138794   92.72290039    0.76999998    2.57999992
   19.39472198   82.93509674    0.75000000    2.59999990
   19.40055466   82.93509674    0.73000002    2.61999989
   19.40472221   94.60119629    0.75000000    2.57999992
   19.40805435   91.42279816    0.79000002    2.57999992
   19.41110992   87.27519989    0.73000002    2.57999992
   19.41444397   86.33860016    0.75000000    2.57999992
   19.41777802   83.67060089    0.80000001    2.57999992
   19.42083359   86.48329926    0.81999999    2.59999990
   19.42416573   89.64700317    0.83999997    2.59999990
   19.42722130   90.04270172    0.83999997    2.59999990
   19.43055534   96.53769684    0.81999999    2.57999992
   19.43305397   88.14929962    0.81999999    2.57999992
   19.43416595   85.88770294    0.81999999    2.57999992
   19.43750000   86.22489929    0.79000002    2.57999992
   19.44333267   86.22489929    0.86000001    2.57999992
   19.44749832   94.57209778    0.86000001    2.57999992
   19.45083427   87.02210236    0.88000000    2.59999990
   19.45416832   78.51969910    0.94000000    2.57999992
   19.45722389   82.67019653    1.07000005    2.59999990
   19.46055603   79.76909637    1.25000000    2.57999992
   19.46361160   82.32800293    1.25000000    2.57999992
   19.46638870   82.12870026    1.38000000    2.57999992
   19.46750069   81.79840088    1.38000000    2.57999992
   19.47083473   84.24009705    1.83000004    2.57999992
   19.47389030   82.82939911    2.21000004    2.57999992
   19.47722244   83.91290283    2.39000010    2.57999992
   19.48027802   88.11000061    2.51999998    2.57999992
   19.48638916   88.11000061    2.82999992    2.57999992
   19.49055672   87.17009735    2.96000004    2.57999992
   19.49361229   80.65129852    3.14000010    2.59999990
   19.49694443   91.90940094    3.43000007    2.57999992
   19.49972153   83.82599640    3.68000007    2.57999992
   19.50055504   89.53389740    3.75000000    2.57999992
   19.50388908   89.13500214    3.95000005    2.57999992
   19.50694466   86.75039673    4.17999983    2.59999990
   19.51027870   88.50440216    4.40999985    2.59999990
   19.51333427   89.37560272    4.59999990    2.59999990
   19.51666641   81.49759674    4.80999994    2.59999990
   19.52000046   90.50710297    4.90999985    2.57999992
   19.52305603   85.12930298    4.90999985    2.59999990
   19.52916718   85.12930298    4.90999985    2.57999992
   19.53333282   88.67549896    4.90999985    2.57999992
   19.53638840   91.94920349    4.90999985    2.59999990
   19.53972244   88.04799652    4.90999985    2.57999992
   19.54305458   91.43710327    4.90999985    2.59999990
   19.54611015   92.86540222    4.90999985    2.59999990
   19.54944420   88.46549988    4.90999985    2.59999990
   19.55277634   87.43190002    4.90999985    2.59999990
   19.55583191   87.44080353    4.90999985    2.59999990
   19.55916595   88.51719666    4.90999985    2.57999992
   19.56222153   82.97000122    4.90999985    2.57999992
   19.56555557   84.87439728    4.90999985    2.57999992
   19.56638718   86.31340027    4.90999985    2.59999990
   19.58722305   86.31340027    4.90999985    2.59999990
   19.59138870   83.18039703    4.90999985    2.57999992
   19.59444427   83.87879944    4.90999985    2.57999992
   19.59777832   91.31320190    4.90999985    2.57999992
   19.59972191   81.12770081    4.90999985    2.57999992
   19.60138893   87.19300079    4.90999985    2.57999992
   19.60472298   90.18890381    4.90999985    2.57999992
   19.60777855   84.45670319    4.90999985    2.57999992
   19.61111069   92.94470215    4.90999985    2.59999990
   19.61416626  113.97200012    4.90999985    2.59999990
   19.61750031  138.55799866    4.90999985    2.57999992
   19.62083435  158.49899292    4.90999985    2.57999992
   19.62388992  204.79499817    4.90999985    2.57999992
   19.63000107  204.79499817    4.90999985    2.57999992
   19.63416672  354.71600342    4.90999985    2.59999990
   19.63611031  381.71600342    4.90999985    2.59999990
   19.63750076  348.09899902    4.90999985    2.59999990
   19.63888931  182.08299255    4.90999985    2.59999990
   19.63888931   87.19300079    4.90999985    2.57999992
   19.63888931   90.18890381    4.90999985    2.57999992
   19.63916588   84.45670319    4.90999985    2.57999992
   19.63916588   92.94470215    4.90999985    2.59999990
   19.63916588  113.97200012    4.90999985    2.59999990
   19.63944435  138.55799866    4.90999985    2.57999992
   19.63944435  158.49899292    4.90999985    2.57999992
   19.63944435  204.79499817    4.90999985    2.57999992
   19.63972282  354.71600342    4.90999985    2.59999990
   19.64027786  115.62899780    4.90999985    2.59999990
   19.64333344   -1.00000000    4.90999985    2.59999990
   19.64666748   -1.00000000    4.90999985    2.59999990
   19.64999962   -1.00000000    4.90999985    2.59999990
   19.65305519   -1.00000000    4.90999985    2.61999989
   19.66361046   -1.00000000    4.90999985    2.61999989
   19.66694450   -1.00000000    4.90999985    2.61999989
   19.67000008   -1.00000000    4.90999985    2.59999990
   19.67361069   -1.00000000    4.90999985    2.59999990
   19.67694473   -1.00000000    4.90999985    2.61999989
   19.68000031   -1.00000000    4.90999985    2.59999990
   19.68333244   -1.00000000    4.90999985    2.61999989
   19.68638802   -1.00000000    4.90999985    2.61999989
   19.68972206   -1.00000000    4.90999985    2.59999990
   19.69305420   -1.00000000    4.90999985    2.61999989
   19.69610977   -1.00000000    4.90999985    2.61999989
   19.70639038   -1.00000000    4.90999985    2.59999990
   19.70972252   -1.00000000    4.90999985    2.61999989
   19.71305656   -1.00000000    4.90999985    2.59999990
   19.71611214   -1.00000000    4.90999985    2.61999989
   19.71944427   -1.00000000    4.90999985    2.59999990
   19.72277832   -1.00000000    4.90999985    2.61999989
   19.72583389   -1.00000000    4.90999985    2.59999990
   19.72916794   -1.00000000    4.90999985    2.59999990
   19.73222351   -1.00000000    4.90999985    2.59999990
   19.73555565   -1.00000000    4.90999985    2.59999990
   19.73888969   -1.00000000    4.90999985    2.57999992
   19.74944496   -1.00000000    4.90999985    2.57999992
   19.75250053   -1.00000000    4.90999985    2.57999992
   19.75583267   -1.00000000    4.90999985    2.57999992
   19.75916672   -1.00000000    4.90999985    2.55999994
   19.76222229   -1.00000000    4.90999985    2.55999994
   19.76555634   -1.00000000    4.90999985    2.55999994
   19.76861000   -1.00000000    4.90999985    2.55999994
   19.77194405   -1.00000000    4.90999985    2.55999994
   19.77555466   -1.00000000    4.90999985    2.55999994
   19.77888870   -1.00000000    4.90999985    2.55999994
   19.78194427   -1.00000000    4.90999985    2.55999994
   19.79222107   -1.00000000    4.90999985    2.55999994
   19.79555511   -1.00000000    4.90999985    2.55999994
   19.79861069   -1.00000000    4.90999985    2.53999996
   19.80194283   -1.00000000    4.90999985    2.55999994
   19.80499840   -1.00000000    4.90999985    2.55999994
   19.80861092   -1.00000000    4.90999985    2.55999994
   19.81194305   -1.00000000    4.90999985    2.55999994
   19.81499863   -1.00000000    4.90999985    2.55999994
   19.81833458   -1.00000000    4.90999985    2.55999994
   19.82166672   -1.00000000    4.90999985    2.55999994
   19.82472229   -1.00000000    4.90999985    2.55999994
   19.83500099   -1.00000000    4.90999985    2.55999994
   19.83833313   -1.00000000    4.90999985    2.57999992
   19.84194565   -1.00000000    4.90999985    2.55999994
   19.84527779   -1.00000000    4.90999985    2.55999994
   19.84833336   -1.00000000    4.90999985    2.55999994
   19.85166740   -1.00000000    4.90999985    2.57999992
   19.85499954   -1.00000000    4.90999985    2.57999992
   19.85805511   -1.00000000    4.90999985    2.57999992
   19.86138916   -1.00000000    4.90999985    2.57999992
   19.86444473   -1.00000000    4.90999985    2.59999990
   19.86777878   -1.00000000    4.90999985    2.57999992
   19.87777710   -1.00000000    4.90999985    2.59999990
   19.88111115   -1.00000000    4.90999985    2.61999989
   19.88444519   -1.00000000    4.90999985    2.59999990
   19.88750076   -1.00000000    4.90999985    2.61999989
   19.89083290   -1.00000000    4.90999985    2.61999989
   19.89416695   -1.00000000    4.90999985    2.61999989
   19.89722252   -1.00000000    4.90999985    2.64000010
   19.90055466   -1.00000000    4.90999985    2.61999989
   19.90361023   -1.00000000    4.90999985    2.64000010
   19.90722275   -1.00000000    4.90999985    2.61999989
   19.91055489   -1.00000000    4.90999985    2.61999989
   19.92083359   -1.00000000    4.90999985    2.59999990
   19.92388916   -1.00000000    4.90999985    2.61999989
   19.92722130   -1.00000000    4.90999985    2.61999989
   19.93055534   -1.00000000    4.90999985    2.61999989
   19.93361092   -1.00000000    4.90999985    2.61999989
   19.93694305   -1.00000000    4.90999985    2.55999994
   19.94055557   -1.00000000    4.90999985    2.55999994
   19.94388771   -1.00000000    4.90999985    2.57999992
   19.94694328   -1.00000000    4.90999985    2.55999994
   19.95027924   -1.00000000    4.90999985    2.55999994
   19.95361137   -1.00000000    4.90999985    2.53999996
   19.96361160   -1.00000000    4.90999985    2.57999992
   19.96694565   -1.00000000    4.90999985    2.51999998
   19.97000122   -1.00000000    4.90999985    2.50000000
   19.97361183   -1.00000000    4.90999985    2.53999996
   19.97694588   -1.00000000    4.90999985    2.53999996
   19.98000145   -1.00000000    4.90999985    2.53999996
   19.98333359   -1.00000000    4.90999985    2.53999996
   19.98666763   -1.00000000    4.90999985    2.53999996
   19.98972321   -1.00000000    4.90999985    2.53999996
   19.99305534   -1.00000000    4.90999985    2.51999998
   19.99611092   -1.00000000    4.90999985    2.51999998
   20.00638962   -1.00000000    4.90999985    2.46000004
   20.00972176   -1.00000000    4.90999985    2.48000002
   20.01277733   -1.00000000    4.90999985    2.50000000
   20.01611137   -1.00000000    4.90999985    2.48000002
   20.01944351   -1.00000000    4.90999985    2.48000002
   20.02249908   -1.00000000    4.90999985    2.48000002
   20.02583313   -1.00000000    4.90999985    2.46000004
   20.02916718   -1.00000000    4.90999985    2.46000004
   20.03222275   -1.00000000    4.90999985    2.46000004
   20.03555489   -1.00000000    4.90999985    2.46000004
   20.03861046   -1.00000000    4.90999985    2.46000004
   20.04916573   -1.00000000    4.90999985    2.44000006
   20.05249977   -1.00000000    3.68000007    2.44000006
   20.05583191   -1.00000000    2.64000010    2.44000006
   20.05888748   -1.00000000    1.76999998    2.42000008
   20.06222153   -1.00000000    1.30999994    2.42000008
   20.06555557   -1.00000000    1.21000004    2.42000008
   20.06861115   -1.00000000    1.09000003    2.42000008
   20.07194519   -1.00000000    0.98000002    2.42000008
   20.07527924   -1.00000000    0.95999998    2.40000010
   20.07861137   -1.00000000    0.98000002    2.42000008
   20.08166695   -1.00000000    0.98000002    2.42000008
   20.09222221   -1.00000000    0.88000000    2.42000008
   20.09555626   -1.00000000    0.86000001    2.40000010
   20.09861183   -1.00000000    0.86000001    2.40000010
   20.10194397   -1.00000000    0.83999997    2.40000010
   20.10527802   -1.00000000    0.76999998    2.40000010
   20.10861206   -1.00000000    0.75000000    2.40000010
   20.11194420   -1.00000000    0.76999998    2.40000010
   20.11499977   -1.00000000    0.76999998    2.40000010
   20.11833382   -1.00000000    0.76999998    2.40000010
   20.12166595   -1.00000000    0.80000001    2.40000010
   20.12472153   -1.00000000    0.79000002    2.40000010
   20.13500023   -1.00000000    0.80000001    2.40000010
   20.13833237   -1.00000000    0.80000001    2.40000010
   20.14166641   -1.00000000    0.80000001    2.39000010
   20.14500046   -1.00000000    0.83999997    2.39000010
   20.14805603   -1.00000000    0.88000000    2.40000010
   20.15138817   -1.00000000    0.89999998    2.40000010
   20.15472221   -1.00000000    0.92000002    2.39000010
   20.15777779   -1.00000000    0.92000002    2.39000010
   20.16110992   -1.00000000    0.94000000    2.39000010
   20.16444397   -1.00000000    0.94000000    2.39000010
   20.16749954   -1.00000000    0.95999998    2.39000010
   20.17777634   -1.00000000    0.98000002    2.39000010
   20.18111038   -1.00000000    0.98000002    2.39000010
   20.18416595   -1.00000000    0.98000002    2.39000010
   20.18750000   -1.00000000    0.98000002    2.39000010
   20.19083214   -1.00000000    0.95999998    2.39000010
   20.19388771   -1.00000000    0.98000002    2.39000010
   20.19722176   -1.00000000    0.98000002    2.39000010
   20.20055580   -1.00000000    0.95999998    2.39000010
   20.20361137   -1.00000000    0.95999998    2.39000010
   20.20722389   -1.00000000    0.98000002    2.39000010
   20.21055603   -1.00000000    1.00000000    2.36999989
   20.22055626   -1.00000000    0.94000000    2.36999989
   20.22389030   -1.00000000    0.94000000    2.36999989
   20.22722244   -1.00000000    0.94000000    2.34999990
   20.23027802   -1.00000000    0.94000000    2.36999989
   20.23361206   -1.00000000    0.94000000    2.36999989
   20.23666763   -1.00000000    0.94000000    2.34999990
   20.24027824   -1.00000000    0.95999998    2.36999989
   20.24361229   -1.00000000    0.94000000    2.36999989
   20.24666786   -1.00000000    0.95999998    2.36999989
   20.25000000   -1.00000000    0.94000000    2.34999990
   20.25333405   -1.00000000    0.92000002    2.34999990
   20.26361084   -1.00000000    0.89999998    2.36999989
   20.26666641   -1.00000000    0.89999998    2.34999990
   20.27000046   -1.00000000    0.89999998    2.34999990
   20.27333260   -1.00000000    0.89999998    2.34999990
   20.27666664   -1.00000000    0.89999998    2.34999990
   20.27972221   -1.00000000    0.88000000    2.34999990
   20.28305435   -1.00000000    0.88000000    2.34999990
   20.28638840   -1.00000000    0.88000000    2.34999990
   20.28944397   -1.00000000    0.88000000    2.32999992
   20.29277802   -1.00000000    0.88000000    2.34999990
   20.29611015   -1.00000000    0.88000000    2.34999990
   20.30638885   -1.00000000    0.88000000    2.32999992
   20.30944443   -1.00000000    0.89999998    2.32999992
   20.31277657   -1.00000000    0.89999998    2.32999992
   20.31611061   -1.00000000    0.89999998    2.32999992
   20.31916809   -1.00000000    0.92000002    2.32999992
   20.32250023   -1.00000000    0.92000002    2.32999992
   20.32583427   -1.00000000    0.92000002    2.32999992
   20.32888985   -1.00000000    0.92000002    2.30999994
   20.33222389   -1.00000000    0.92000002    2.32999992
   20.33527756   -1.00000000    0.92000002    2.30999994
   20.33861160   -1.00000000    0.92000002    2.32999992
   20.34916687   -1.00000000    0.92000002    2.32999992
   20.35250092   -1.00000000    0.92000002    2.30999994
   20.35555649   -1.00000000    0.92000002    2.32999992
   20.35888863   -1.00000000    0.92000002    2.30999994
   20.36222267   -1.00000000    0.94000000    2.30999994
   20.36527824   -1.00000000    0.94000000    2.30999994
   20.36861038   -1.00000000    0.94000000    2.32999992
   20.37166595   -1.00000000    0.94000000    2.30999994
   20.37527847   -1.00000000    0.94000000    2.30999994
   20.37861061   -1.00000000    0.94000000    2.30999994
   20.38194466   -1.00000000    0.94000000    2.30999994
   20.39194489   -1.00000000    0.94000000    2.28999996
   20.39555550   -1.00000000    0.92000002    2.28999996
   20.39861107   -1.00000000    0.92000002    2.28999996
   20.40194321   -1.00000000    0.94000000    2.28999996
   20.40499878   -1.00000000    0.94000000    2.28999996
   20.40861130   -1.00000000    0.95999998    2.28999996
   20.41194344   -1.00000000    0.95999998    2.28999996
   20.41527748   -1.00000000    0.95999998    2.26999998
   20.41833305   -1.00000000    0.98000002    2.28999996
   20.42166519   -1.00000000    0.98000002    2.28999996
   20.42472076   -1.00000000    1.00000000    2.28999996
   20.43499947   -1.00000000    0.98000002    2.26999998
   20.43805504   -1.00000000    0.98000002    2.26999998
   20.44166565   -1.00000000    1.00000000    2.26999998
   20.44499969   -1.00000000    1.01999998    2.26999998
