    HOUR (UT)   FLARE FACTOR    SKY TESTER    SUN TESTER
   11.91499996   -1.00000000   -1.00000000   -1.00000000
   12.52111053  251.62399292    2.36999989    1.96000004
   12.52416611  264.75201416    2.34999990    1.98000002
   12.52750015  259.57000732    2.34999990    1.96000004
   12.53083324  248.99899292    2.32999992    1.98000002
   12.53388977  247.02799988    2.32999992    1.98000002
   12.53722286  252.07099915    2.32999992    1.98000002
   12.54138947  252.07099915    2.32999992    1.98000002
   12.54555607  239.00100708    2.30999994    1.98000002
   12.54861164  237.42300415    2.30999994    2.00000000
   12.55194473  254.71499634    2.32999992    2.00000000
   12.55444431  263.81900024    2.30999994    2.00000000
   12.55555534  248.22700500    2.30999994    2.00000000
   12.55888939  248.53300476    2.30999994    2.00000000
   12.56194496  254.58099365    2.30999994    2.01999998
   12.56527805  253.91600037    2.30999994    2.00000000
   12.56861115  255.50500488    2.30999994    2.01999998
   12.57166672  244.34500122    2.30999994    2.01999998
   12.57499981  245.25199890    2.30999994    2.01999998
   12.57833290  248.18400574    2.30999994    2.01999998
   12.58416653  248.18400574    2.30999994    2.03999996
   12.58833313  243.99899292    2.30999994    2.01999998
   12.59138870  238.48399353    2.30999994    2.01999998
   12.59472179  243.39700317    2.30999994    2.03999996
   12.59805489  253.66900635    2.32999992    2.03999996
   12.60111141  244.51699829    2.32999992    2.03999996
   12.60444450  235.22900391    2.32999992    2.03999996
   12.60777855  232.48100281    2.30999994    2.03999996
   12.61083412  227.59800720    2.28999996    2.03999996
   12.61416721  221.31399536    2.28999996    2.03999996
   12.61722279  240.85899353    2.26999998    2.03999996
   12.62055588  223.16700745    2.26999998    2.03999996
   12.62111092  231.01199341    2.26999998    2.03999996
   12.62694454  231.01199341    2.26999998    2.05999994
   12.63111115  226.02499390    2.26999998    2.05999994
   12.63444424  222.38099670    2.26999998    2.05999994
   12.63749981  220.07400513    2.28999996    2.05999994
   12.64083290  210.86099243    2.26999998    2.05999994
   12.64416695  211.80299377    2.25000000    2.05999994
   12.64722252  223.60600281    2.25000000    2.05999994
   12.65055561  215.62899780    2.25000000    2.05999994
   12.65361118  227.37899780    2.23000002    2.05999994
   12.65444374  243.23199463    2.23000002    2.07999992
   12.65749931  267.09399414    2.23000002    2.05999994
   12.66055489  291.05899048    2.25000000    2.07999992
   12.66388893  236.52400208    2.25000000    2.05999994
   12.66972256  236.52400208    2.23000002    2.07999992
   12.67388916  238.06100464    2.23000002    2.07999992
   12.67722225  291.91400146    2.23000002    2.07999992
   12.68055630  224.69599915    2.19000006    2.09999990
   12.68361092  222.91400146    2.17000008    2.09999990
   12.68694496  224.73800659    2.17000008    2.11999989
   12.68777752  218.02200317    2.15000010    2.09999990
   12.69055557  242.62800598    2.15000010    2.09999990
   12.69361115  224.19900513    2.15000010    2.09999990
   12.69694424  217.24400330    2.15000010    2.09999990
   12.70027733  234.06700134    2.13000011    2.09999990
   12.70333290  239.85800171    2.11999989    2.09999990
   12.70666695  238.43600464    2.09999990    2.09999990
   12.71277714  238.43600464    2.07999992    2.09999990
   12.71694374  227.19000244    2.05999994    2.09999990
   12.71999931  221.48599243    2.05999994    2.11999989
   12.72111034  212.48599243    2.05999994    2.09999990
   12.72388840  225.28999329    2.05999994    2.09999990
   12.72694397  217.76400757    2.05999994    2.11999989
   12.73027706  215.12399292    2.05999994    2.11999989
   12.73361111  226.33599854    2.05999994    2.11999989
   12.73666668  209.39500427    2.05999994    2.11999989
   12.74000072  218.43699646    2.05999994    2.13000011
   12.74305534  216.62500000    2.03999996    2.13000011
   12.74638939  219.09899902    2.03999996    2.13000011
   12.74972248  215.37800598    2.03999996    2.13000011
   12.75555515  215.37800598    2.03999996    2.13000011
   12.75972176  215.51899719    2.01999998    2.13000011
   12.76277733  214.69799805    2.01999998    2.13000011
   12.76611137  215.14999390    2.01999998    2.13000011
   12.76944447  209.86599731    2.01999998    2.13000011
   12.77250004  215.44799805    2.01999998    2.13000011
   12.77583313  218.58799744    2.01999998    2.13000011
   12.77916622  214.32400513    2.01999998    2.15000010
   12.78222179  223.73300171    2.01999998    2.15000010
   12.78555584  222.39399719    2.01999998    2.13000011
   12.78777790  214.82400513    2.01999998    2.15000010
   12.78916740  212.01400757    2.01999998    2.15000010
   12.79222298  206.07699585    2.00000000    2.13000011
   12.79833412  206.07699585    2.00000000    2.15000010
   12.80249977  216.81100464    2.00000000    2.17000008
   12.80583382  199.06300354    2.00000000    2.15000010
   12.80888939  214.50000000    2.00000000    2.17000008
   12.81222248  196.78199768    1.98000002    2.17000008
   12.81555557  201.38699341    2.00000000    2.15000010
   12.81861115  199.08999634    1.98000002    2.15000010
   12.82111073  194.32699585    1.98000002    2.15000010
   12.82250023  208.72799683    1.98000002    2.15000010
   12.82555580  199.62600708    1.98000002    2.15000010
   12.82888889  209.84300232    1.96000004    2.15000010
   12.83222198  217.08000183    1.96000004    2.17000008
   12.83527756  204.14799500    1.96000004    2.17000008
   12.84111118  204.14799500    1.96000004    2.17000008
   12.84527779  209.01199341    1.94000006    2.17000008
   12.84861088  208.85000610    1.94000006    2.19000006
   12.85194492  202.36900330    1.94000006    2.17000008
   12.85444450  209.11599731    1.94000006    2.17000008
   12.85555553  209.22900391    1.94000006    2.17000008
   12.85861111  200.57600403    1.94000006    2.17000008
   12.86194515  197.11999512    1.91999996    2.19000006
   12.86527824  205.97399902    1.91999996    2.19000006
   12.86833382  196.36199951    1.91999996    2.19000006
   12.87166691  213.93699646    1.89999998    2.19000006
   12.87472248  200.96400452    1.89999998    2.21000004
   12.87805557  195.95399475    1.88000000    2.21000004
   12.88416672  195.95399475    1.88000000    2.19000006
   12.88833332  209.88499451    1.88000000    2.21000004
   12.89138889  209.94299316    1.88000000    2.21000004
   12.89472198  198.42999268    1.88000000    2.19000006
   12.89777756  225.43200684    1.86000001    2.21000004
   12.90111065  205.58900452    1.86000001    2.19000006
   12.90444374  208.16799927    1.86000001    2.21000004
   12.90749931  214.88200378    1.86000001    2.21000004
   12.91083336  204.74400330    1.88000000    2.21000004
   12.91416645  206.33399963    1.86000001    2.21000004
   12.91722298  208.19500732    1.86000001    2.21000004
   12.92055607  210.55599976    1.86000001    2.21000004
   12.92111111  191.62800598    1.86000001    2.21000004
   12.92694473  191.62800598    1.86000001    2.23000002
   12.93111134  201.08599854    1.86000001    2.23000002
   12.93444443  203.07699585    1.86000001    2.23000002
   12.93750000  202.77099609    1.85000002    2.23000002
   12.94083309  204.10499573    1.85000002    2.23000002
   12.94388866  203.98100281    1.85000002    2.23000002
   12.94722271  202.53999329    1.85000002    2.23000002
   12.95055580  198.77999878    1.83000004    2.21000004
   12.95388889  206.68099976    1.83000004    2.21000004
   12.95444393  195.63999939    1.83000004    2.23000002
   12.95749950  210.41499329    1.83000004    2.23000002
   12.96055508  189.31300354    1.85000002    2.23000002
   12.96388912  192.56199646    1.83000004    2.23000002
   12.96972179  192.56199646    1.83000004    2.23000002
   12.97388840  200.00799561    1.80999994    2.25000000
   12.97722149  189.23699951    1.80999994    2.25000000
   12.98027706  196.68899536    1.80999994    2.25000000
   12.98361111  196.19500732    1.78999996    2.25000000
   12.98694515  182.61700439    1.78999996    2.25000000
   12.98777771  198.86300659    1.78999996    2.26999998
   12.99055576  196.63800049    1.78999996    2.25000000
   12.99361134  206.38499451    1.78999996    2.25000000
   12.99694443  193.77400208    1.76999998    2.25000000
   13.00027752  199.10299683    1.76999998    2.26999998
   13.00333309  190.20700073    1.76999998    2.25000000
   13.00666714  199.57299805    1.76999998    2.25000000
   13.01249981  199.57299805    1.76999998    2.26999998
   13.01666641  187.70700073    1.76999998    2.25000000
   13.01999950  199.36099243    1.75000000    2.25000000
   13.02111053  205.38099670    1.76999998    2.26999998
   13.02361107  192.01800537    1.75000000    2.25000000
   13.02666664  192.98899841    1.75000000    2.25000000
   13.02999973  193.06100464    1.75000000    2.26999998
   13.03333378  199.54699707    1.75000000    2.26999998
   13.03638935  187.40699768    1.75000000    2.26999998
   13.03972244  193.22599792    1.75000000    2.26999998
   13.04305553  187.53799438    1.75000000    2.26999998
   13.04611111  187.04899597    1.75000000    2.26999998
   13.04944515  183.33299255    1.75000000    2.26999998
   13.05555534  183.33299255    1.73000002    2.26999998
   13.05972195  188.86000061    1.73000002    2.26999998
   13.06277752  183.20199585    1.73000002    2.26999998
   13.06611156  190.24600220    1.73000002    2.26999998
   13.06916618  177.91299438    1.73000002    2.28999996
   13.07250023  194.75500488    1.73000002    2.26999998
   13.07583332  191.58099365    1.73000002    2.28999996
   13.07888889  192.71600342    1.71000004    2.28999996
   13.08222198  186.86199951    1.71000004    2.28999996
   13.08555508  187.64300537    1.71000004    2.28999996
   13.08777714  184.43200684    1.71000004    2.28999996
   13.08916664  186.38499451    1.71000004    2.28999996
   13.09222221  191.51400757    1.71000004    2.28999996
   13.09833336  191.51400757    1.71000004    2.28999996
   13.10249996  182.61799622    1.71000004    2.30999994
   13.10555553  199.57699585    1.71000004    2.28999996
   13.10888958  196.48800659    1.69000006    2.30999994
   13.11222267  189.14599609    1.69000006    2.30999994
   13.11527824  197.33599854    1.69000006    2.28999996
   13.11861134  192.64599609    1.69000006    2.28999996
   13.12111092  194.58799744    1.69000006    2.28999996
   13.12222195  195.85699463    1.69000006    2.28999996
   13.12555599  197.20399475    1.69000006    2.30999994
   13.12861156  192.90600586    1.69000006    2.30999994
   13.13194466  185.41299438    1.69000006    2.30999994
   13.13500023  193.36599731    1.69000006    2.30999994
   13.14111137  193.36599731    1.69000006    2.28999996
   13.14527798  187.86999512    1.66999996    2.30999994
   13.14861107  198.42300415    1.66999996    2.30999994
   13.15166664  186.70500183    1.66999996    2.30999994
   13.15444374  191.45399475    1.69000006    2.30999994
   13.15555477  183.00000000    1.69000006    2.30999994
   13.15888882  188.24800110    1.66999996    2.32999992
   13.16194439  197.27499390    1.66999996    2.30999994
   13.16527748  184.71600342    1.66999996    2.30999994
   13.16861153  194.13400269    1.66999996    2.32999992
   13.17166710  195.79899597    1.66999996    2.28999996
   13.17500019  201.58200073    1.66999996    2.32999992
   13.17805576  190.47300720    1.66999996    2.32999992
   13.18388939  190.47300720    1.66999996    2.32999992
   13.18805599  193.01199341    1.69000006    2.30999994
   13.19138908  185.76600647    1.66999996    2.30999994
   13.19472218  198.19299316    1.66999996    2.32999992
   13.19777775  192.62399292    1.69000006    2.32999992
   13.20111084  193.83599854    1.69000006    2.32999992
   13.20416641  194.59100342    1.69000006    2.34999990
   13.20749950  188.87600708    1.69000006    2.32999992
   13.21083355  179.04899597    1.69000006    2.32999992
   13.21388912  209.54800415    1.69000006    2.32999992
   13.21722221  191.95899963    1.69000006    2.32999992
   13.22055531  185.85899353    1.69000006    2.32999992
   13.22111034  192.30599976    1.69000006    2.32999992
   13.22694397  192.30599976    1.66999996    2.32999992
   13.23111057  181.07499695    1.66999996    2.34999990
   13.23416710  184.91999817    1.69000006    2.32999992
   13.23750019  188.50199890    1.69000006    2.32999992
   13.24083328  178.90600586    1.66999996    2.32999992
   13.24388885  181.20500183    1.66999996    2.32999992
   13.24722290  182.03500366    1.64999998    2.32999992
   13.25027752  164.39799500    1.64999998    2.34999990
   13.25361156  170.60400391    1.64999998    2.34999990
   13.25444412  194.66200256    1.64999998    2.34999990
   13.25722218  186.68200684    1.64999998    2.34999990
   13.26055527  182.65499878    1.64999998    2.34999990
   13.26361084  187.81300354    1.64999998    2.34999990
   13.26972198  187.81300354    1.63000000    2.36999989
   13.27388859  188.09399414    1.63000000    2.34999990
   13.27694416  179.05599976    1.63000000    2.34999990
   13.28027725  183.88800049    1.63000000    2.34999990
   13.28361130  187.32299805    1.63000000    2.36999989
   13.28666687  181.93200684    1.63000000    2.36999989
   13.28777790  184.74099731    1.64999998    2.34999990
   13.29027843  182.19200134    1.64999998    2.36999989
   13.29361153  186.78700256    1.63000000    2.36999989
   13.29666710  186.76600647    1.64999998    2.36999989
   13.30000019  187.44799805    1.64999998    2.36999989
   13.30305576  187.40499878    1.64999998    2.34999990
   13.30638885  183.15499878    1.64999998    2.36999989
   13.31250000  183.15499878    1.64999998    2.36999989
   13.31666660  194.80299377    1.66999996    2.36999989
   13.31999969  188.55799866    1.66999996    2.36999989
   13.32111073  179.87899780    1.66999996    2.36999989
   13.32361126  190.89100647    1.66999996    2.36999989
   13.32694435  190.92100525    1.69000006    2.36999989
   13.32999992  188.05000305    1.71000004    2.36999989
   13.33333302  201.84599304    1.71000004    2.36999989
   13.33638859  198.48599243    1.73000002    2.36999989
   13.33972168  191.83299255    1.73000002    2.36999989
   13.34305477  181.94799805    1.73000002    2.36999989
   13.34611034  184.80499268    1.73000002    2.36999989
   13.34944439  193.41600037    1.73000002    2.36999989
   13.35527802  193.41600037    1.71000004    2.36999989
   13.35944462  204.34300232    1.69000006    2.36999989
   13.36277771  214.21299744    1.69000006    2.36999989
   13.36583328  209.06399536    1.69000006    2.36999989
   13.36916637  198.04899597    1.69000006    2.39000010
   13.37250042  199.35600281    1.64999998    2.36999989
   13.37583351  189.30400085    1.64999998    2.39000010
   13.37888908  187.01100159    1.63000000    2.39000010
   13.38222218  189.09700012    1.63000000    2.36999989
   13.38527775  188.91099548    1.60000002    2.40000010
   13.38777733  181.06199646    1.61000001    2.39000010
   13.38916683  186.74499512    1.60000002    2.39000010
   13.39249992  188.00500488    1.61000001    2.39000010
   13.39833355  188.00500488    1.60000002    2.39000010
   13.40222168  191.80000305    1.61000001    2.39000010
   13.40555477  197.10299683    1.61000001    2.39000010
   13.40888882  198.03799438    1.63000000    2.39000010
   13.41194439  195.10699463    1.63000000    2.39000010
   13.41527748  194.72900391    1.63000000    2.39000010
   13.41861153  193.09500122    1.63000000    2.39000010
   13.42111111  185.97200012    1.64999998    2.39000010
   13.42222214  174.30299377    1.64999998    2.39000010
   13.42555618  176.16700745    1.64999998    2.39000010
   13.42861176  197.83200073    1.64999998    2.40000010
   13.43194485  186.97700500    1.63000000    2.40000010
   13.43527794  169.00399780    1.64999998    2.39000010
   13.44111156  169.00399780    1.64999998    2.39000010
   13.44527817  194.64199829    1.64999998    2.40000010
   13.44833374  180.14900208    1.66999996    2.39000010
   13.45166683  180.26100159    1.66999996    2.39000010
   13.45444393  201.09100342    1.66999996    2.40000010
   13.45527744  191.80499268    1.66999996    2.40000010
   13.45861053  196.66099548    1.66999996    2.40000010
   13.46166611  180.45199585    1.66999996    2.40000010
   13.46500015  186.92500305    1.66999996    2.40000010
   13.46833324  193.73699951    1.64999998    2.40000010
   13.47138882  181.92799377    1.63000000    2.40000010
   13.47472191  189.61599731    1.63000000    2.40000010
   13.47777748  197.75999451    1.61000001    2.40000010
   13.48388958  197.75999451    1.60000002    2.40000010
   13.48805618  221.54699707    1.60000002    2.40000010
   13.49138927  205.00399780    1.60000002    2.40000010
   13.49444485  201.83099365    1.60000002    2.40000010
   13.49777794  200.33000183    1.58000004    2.42000008
   13.50083351  182.94000244    1.58000004    2.40000010
   13.50416660  186.34700012    1.58000004    2.42000008
   13.50749969  194.75000000    1.55999994    2.40000010
   13.51055527  209.38499451    1.55999994    2.40000010
   13.51388931  186.56500244    1.55999994    2.42000008
   13.51722240  185.48399353    1.55999994    2.40000010
   13.52027798  190.84700012    1.55999994    2.40000010
   13.52138901  186.65299988    1.55999994    2.42000008
   13.54194450  186.65299988    1.55999994    2.42000008
   13.54611111  185.05999756    1.58000004    2.42000008
   13.54944515  183.14500427    1.58000004    2.42000008
   13.55249977  191.11900330    1.60000002    2.40000010
   13.55444431  189.07800293    1.61000001    2.42000008
   13.55611134  187.24000549    1.61000001    2.42000008
   13.55944443  181.31599426    1.61000001    2.42000008
   13.56250000  185.19799805    1.60000002    2.44000006
   13.56583309  186.93400574    1.61000001    2.44000006
   13.56916618  182.67599487    1.60000002    2.44000006
   13.57222176  196.40299988    1.61000001    2.42000008
   13.57555580  200.07200623    1.61000001    2.42000008
   13.57888889  202.02400208    1.61000001    2.42000008
   13.58472157  202.02400208    1.61000001    2.42000008
   13.58888817  190.79100037    1.61000001    2.42000008
   13.59222221  201.49000549    1.61000001    2.44000006
   13.59527779  186.38999939    1.61000001    2.42000008
   13.59861088  188.36799622    1.60000002    2.44000006
   13.60166740  209.63499451    1.60000002    2.44000006
   13.60500050  188.64999390    1.58000004    2.44000006
   13.60833359  204.39100647    1.60000002    2.44000006
   13.61138916  198.61799622    1.58000004    2.44000006
   13.61472225  167.79499817    1.58000004    2.44000006
   13.61805534  182.39100647    1.58000004    2.44000006
   13.62111092  187.12100220    1.55999994    2.46000004
   13.62166691  181.28799438    1.55999994    2.46000004
   13.62750053  181.28799438    1.55999994    2.44000006
   13.63166714  177.87100220    1.55999994    2.44000006
   13.63500023  183.64300537    1.55999994    2.44000006
   13.63805580  170.53700256    1.55999994    2.44000006
   13.64138889  179.33200073    1.55999994    2.44000006
   13.64472198  188.88499451    1.58000004    2.44000006
   13.64777756  181.02999878    1.58000004    2.46000004
   13.65111065  191.00100708    1.58000004    2.44000006
   13.65416622  181.60000610    1.60000002    2.46000004
   13.65472221  194.58299255    1.58000004    2.46000004
   13.65805531  198.74299622    1.58000004    2.46000004
   13.66138840  189.67599487    1.55999994    2.44000006
   13.66444397  179.32099915    1.55999994    2.44000006
   13.67027855  179.32099915    1.55999994    2.44000006
   13.67444515  183.46899414    1.53999996    2.44000006
   13.67777824  184.93800354    1.53999996    2.46000004
   13.68111134  169.86099243    1.51999998    2.46000004
   13.68416691  168.63200378    1.51999998    2.46000004
   13.68750000  169.66799927    1.51999998    2.44000006
   13.68805599  183.41799927    1.51999998    2.44000006
   13.69111156  169.14900208    1.51999998    2.46000004
   13.69444466  171.69500732    1.51999998    2.46000004
   13.69750023  169.99099731    1.51999998    2.46000004
   13.70083332  170.33299255    1.51999998    2.46000004
   13.70416641  166.38699341    1.51999998    2.46000004
   13.70777798  169.36799622    1.51999998    2.46000004
   13.71333313  169.36799622    1.53999996    2.46000004
   13.71749973  169.65800476    1.53999996    2.46000004
   13.72055531  168.35499573    1.51999998    2.46000004
   13.72138882  169.18400574    1.51999998    2.46000004
   13.72416592  170.63200378    1.51999998    2.46000004
   13.72749996  166.47599792    1.53999996    2.46000004
   13.73055553  177.65400696    1.53999996    2.46000004
   13.73388958  173.30599976    1.51999998    2.46000004
   13.73722267  170.31900024    1.53999996    2.46000004
   13.74027824  155.57099915    1.51999998    2.46000004
   13.74361134  165.42799377    1.51999998    2.48000002
   13.74666691  165.75599670    1.50000000    2.46000004
   13.75000000  164.32000732    1.50000000    2.46000004
   13.75611115  164.32000732    1.50000000    2.46000004
   13.76027775  168.29899597    1.50000000    2.46000004
   13.76333332  173.94000244    1.50000000    2.46000004
   13.76666641  178.78399658    1.51999998    2.46000004
   13.76999950  176.68299866    1.51999998    2.46000004
   13.77305508  168.37300110    1.51999998    2.46000004
   13.77638817  172.37199402    1.51999998    2.46000004
   13.77972221  171.56399536    1.51999998    2.46000004
   13.78277779  164.47200012    1.51999998    2.46000004
   13.78611183  168.14900208    1.50000000    2.46000004
   13.78805637  170.73199463    1.50000000    2.48000002
   13.78972244  174.98500061    1.48000002    2.48000002
   13.79305553  173.75399780    1.48000002    2.46000004
   13.79888916  173.75399780    1.48000002    2.48000002
   13.80305576  189.70199585    1.48000002    2.48000002
   13.80638885  180.17199707    1.48000002    2.48000002
   13.80944443  169.34599304    1.48000002    2.48000002
   13.81277752  186.08799744    1.48000002    2.46000004
   13.81583309  174.64399719    1.50000000    2.46000004
   13.81916618  183.39300537    1.50000000    2.48000002
   13.82166672  173.51400757    1.50000000    2.48000002
   13.82277775  172.34800720    1.50000000    2.46000004
   13.82611084  173.42100525    1.50000000    2.46000004
   13.82916641  178.06500244    1.50000000    2.48000002
   13.83249950  171.53700256    1.48000002    2.48000002
   13.83583260  170.88699341    1.48000002    2.48000002
   13.84166622  170.88699341    1.46000004    2.48000002
   13.84583282  165.69700623    1.46000004    2.48000002
   13.84916592  171.45799255    1.46000004    2.48000002
   13.85222244  168.87300110    1.46000004    2.48000002
   13.85500050  167.81500244    1.44000006    2.50000000
   13.85583401  176.14199829    1.44000006    2.48000002
   13.85916710  166.12699890    1.44000006    2.50000000
   13.86222267  172.00700378    1.44000006    2.50000000
   13.86555576  163.56799316    1.44000006    2.48000002
   13.86888885  176.80999756    1.44000006    2.48000002
   13.87194443  168.46400452    1.44000006    2.50000000
   13.87527752  179.31199646    1.41999996    2.50000000
   13.87861156  180.25700378    1.41999996    2.48000002
   13.88472176  180.25700378    1.44000006    2.48000002
   13.88888836  182.88800049    1.41999996    2.50000000
   13.89194393  186.71699524    1.41999996    2.50000000
   13.89527798  173.45599365    1.41999996    2.50000000
   13.89861107  168.97500610    1.41999996    2.50000000
   13.90166664  173.90499878    1.44000006    2.50000000
   13.90499973  163.34300232    1.44000006    2.50000000
   13.90833282  183.68400574    1.46000004    2.50000000
   13.91166592  175.56399536    1.44000006    2.50000000
   13.91472149  169.72200012    1.46000004    2.48000002
   13.91805553  166.23699951    1.46000004    2.48000002
   13.92111111  170.51899719    1.44000006    2.48000002
   13.92166710  181.85899353    1.46000004    2.50000000
   13.92750072  181.85899353    1.44000006    2.50000000
   13.93166733  173.04299927    1.44000006    2.50000000
   13.93472195  173.79400635    1.44000006    2.50000000
   13.93805599  176.63800049    1.46000004    2.50000000
   13.94138908  182.97599792    1.46000004    2.50000000
   13.94444466  165.04299927    1.46000004    2.50000000
   13.94777775  179.82899475    1.46000004    2.50000000
   13.95111084  172.43600464    1.46000004    2.50000000
   13.95416641  181.35000610    1.46000004    2.50000000
   13.95499992  185.18899536    1.46000004    2.50000000
   13.95777798  177.29699707    1.44000006    2.50000000
   13.96111107  178.41400146    1.46000004    2.48000002
   13.96416664  173.16499329    1.46000004    2.50000000
   13.97027779  173.16499329    1.46000004    2.50000000
   13.97444439  180.02600098    1.46000004    2.50000000
   13.97777748  169.88000488    1.46000004    2.50000000
   13.98083305  177.21299744    1.48000002    2.50000000
   13.98416710  174.97599792    1.48000002    2.50000000
   13.98750019  171.85899353    1.48000002    2.50000000
   13.98833370  178.33900452    1.48000002    2.50000000
   13.99111176  190.57499695    1.48000002    2.50000000
   13.99444485  181.16900635    1.48000002    2.50000000
   13.99750042  190.62199402    1.48000002    2.50000000
   14.00083351  183.47099304    1.50000000    2.50000000
   14.00388908  177.42999268    1.50000000    2.50000000
   14.00722218  178.71800232    1.50000000    2.50000000
   14.01305580  178.71800232    1.48000002    2.51999998
   14.01722240  180.28100586    1.48000002    2.50000000
   14.02055550  174.49499512    1.50000000    2.51999998
   14.02166653  171.42900085    1.50000000    2.50000000
   14.02416611  176.55700684    1.50000000    2.50000000
   14.02750015  185.98800659    1.50000000    2.50000000
   14.03055573  173.12399292    1.46000004    2.50000000
   14.03388977  188.48300171    1.44000006    2.50000000
   14.03694534  195.42100525    1.44000006    2.51999998
   14.04027843  182.35000610    1.46000004    2.50000000
   14.04361153  179.41900635    1.44000006    2.51999998
   14.04666710  192.98300171    1.44000006    2.51999998
   14.05000019  182.16299438    1.44000006    2.50000000
   14.05611134  182.16299438    1.46000004    2.51999998
   14.06000042  172.60400391    1.44000006    2.51999998
   14.06333351  180.43499756    1.44000006    2.51999998
   14.06666660  169.72399902    1.44000006    2.51999998
   14.06972218  166.40800476    1.41999996    2.51999998
   14.07305527  175.90699768    1.41999996    2.51999998
   14.07638836  174.10899353    1.41999996    2.51999998
   14.07944393  184.62500000    1.41999996    2.51999998
   14.08277798  171.08999634    1.41999996    2.51999998
   14.08583260  195.86700439    1.41999996    2.53999996
   14.08833313  195.26699829    1.39999998    2.51999998
   14.08972168  188.63699341    1.39999998    2.51999998
   14.09305477  172.25700378    1.41999996    2.51999998
   14.09888840  172.25700378    1.41999996    2.51999998
   14.10305595  182.87300110    1.41999996    2.51999998
   14.10611153  171.44200134    1.41999996    2.51999998
   14.10944462  192.82200623    1.44000006    2.51999998
   14.11277771  178.02499390    1.44000006    2.51999998
   14.11583328  173.74200439    1.41999996    2.51999998
   14.11916637  169.20500183    1.41999996    2.51999998
   14.12166691  173.49600220    1.41999996    2.51999998
   14.12277794  172.30299377    1.41999996    2.51999998
   14.12611103  177.31900024    1.44000006    2.51999998
   14.12916660  169.21800232    1.44000006    2.51999998
   14.13249969  185.30599976    1.44000006    2.53999996
   14.13583279  186.43200684    1.44000006    2.51999998
   14.14166641  186.43200684    1.44000006    2.51999998
   14.14583302  180.37800598    1.44000006    2.53999996
   14.14916611  165.52999878    1.41999996    2.53999996
   14.15222168  183.06500244    1.41999996    2.53999996
   14.15499973  161.36599731    1.41999996    2.51999998
   14.15583324  183.89300537    1.41999996    2.51999998
   14.15916634  181.55799866    1.41999996    2.53999996
   14.16222191  167.99099731    1.44000006    2.53999996
   14.16555500  172.43499756    1.44000006    2.53999996
   14.16888905  175.61700439    1.44000006    2.53999996
   14.17194462  177.88999939    1.46000004    2.53999996
   14.17527771  170.15699768    1.44000006    2.53999996
   14.17833328  166.63000488    1.44000006    2.53999996
   14.18444443  166.63000488    1.41999996    2.53999996
   14.18861103  172.66200256    1.41999996    2.53999996
   14.19194412  170.38200378    1.44000006    2.53999996
   14.19499969  169.78300476    1.44000006    2.53999996
   14.19833374  169.54699707    1.44000006    2.51999998
   14.20166683  165.94500732    1.44000006    2.51999998
   14.20472240  174.54899597    1.44000006    2.53999996
   14.20805550  188.29600525    1.44000006    2.53999996
   14.21138859  169.40800476    1.44000006    2.53999996
   14.21444416  163.53799438    1.46000004    2.53999996
   14.21777725  171.44400024    1.46000004    2.53999996
   14.22083282  164.95300293    1.48000002    2.53999996
   14.22166634  172.27799988    1.48000002    2.53999996
   14.22749996  172.27799988    1.48000002    2.53999996
   14.23138809  163.49000549    1.48000002    2.53999996
   14.23472214  155.06300354    1.51999998    2.55999994
   14.23805618  165.00700378    1.51999998    2.53999996
   14.24111176  158.89500427    1.55999994    2.53999996
   14.24444485  161.34100342    1.61000001    2.53999996
   14.24777794  156.98399353    1.66999996    2.53999996
   14.25083351  158.40299988    1.64999998    2.53999996
   14.25416660  168.43899536    1.58000004    2.53999996
   14.25500011  161.46099854    1.53999996    2.53999996
   14.25777817  170.19099426    1.53999996    2.55999994
   14.26111126  164.45100403    1.51999998    2.53999996
   14.26416683  187.98199463    1.53999996    2.53999996
   14.27027798  187.98199463    1.51999998    2.53999996
   14.27444458  166.92700195    1.53999996    2.53999996
   14.27750015  166.52499390    1.51999998    2.55999994
   14.28083324  176.00599670    1.51999998    2.55999994
   14.28416729  187.96299744    1.51999998    2.55999994
   14.28722286  180.69500732    1.51999998    2.55999994
   14.28833389  172.03199768    1.51999998    2.55999994
   14.29083347  166.10299683    1.48000002    2.55999994
   14.29416752  172.79899597    1.44000006    2.53999996
   14.29722309  173.64500427    1.41999996    2.53999996
   14.30055618  168.82699585    1.44000006    2.53999996
   14.30388927  181.66900635    1.41999996    2.53999996
   14.30694485  186.69599915    1.41999996    2.53999996
   14.31305599  186.69599915    1.39999998    2.53999996
   14.31722260  179.99699402    1.39999998    2.55999994
   14.32027817  180.58399963    1.39999998    2.55999994
   14.32166672  181.73300171    1.39999998    2.55999994
   14.32388878  186.45599365    1.44000006    2.55999994
   14.32750034  230.02900696    1.46000004    2.55999994
   14.33055592  204.30400085    1.46000004    2.55999994
   14.33388901  191.73300171    1.46000004    2.55999994
   14.33722210  192.37699890    1.48000002    2.55999994
   14.34027767  185.91700745    1.55999994    2.55999994
   14.34361076  179.01199341    1.60000002    2.57999992
   14.34694386  201.07299805    1.60000002    2.55999994
   14.35000038  200.22999573    1.61000001    2.55999994
   14.35583401  200.22999573    1.61000001    2.53999996
   14.36000061  166.60600281    1.69000006    2.55999994
   14.36333370  156.82699585    1.71000004    2.55999994
   14.36638927  166.32099915    1.76999998    2.53999996
   14.36972237  167.40800476    1.75000000    2.55999994
   14.37305546  181.77099609    1.75000000    2.55999994
   14.37611103  160.81700134    1.76999998    2.55999994
   14.37944412  179.63600159    1.76999998    2.55999994
   14.38277817  179.53599548    1.76999998    2.55999994
   14.38583279  164.61199951    1.80999994    2.55999994
   14.38833332  180.69000244    1.80999994    2.55999994
   14.38944435  171.55999756    1.80999994    2.55999994
   14.39277744  161.89700317    1.80999994    2.55999994
   14.39888859  161.89700317    1.75000000    2.55999994
   14.40277767  165.89999390    1.73000002    2.55999994
   14.40611076  154.22999573    1.69000006    2.55999994
   14.40944386  150.05999756    1.66999996    2.55999994
   14.41249943  159.86300659    1.66999996    2.55999994
   14.41583252  167.53199768    1.66999996    2.55999994
   14.41916656  169.79699707    1.64999998    2.55999994
   14.42194462  156.28900146    1.66999996    2.55999994
   14.42277813  156.19299316    1.66999996    2.55999994
   14.42611122  169.33000183    1.64999998    2.55999994
   14.42916679  163.16200256    1.60000002    2.55999994
   14.43249989  161.13200378    1.60000002    2.55999994
   14.43583298  157.47099304    1.60000002    2.57999992
   14.44166660  157.47099304    1.53999996    2.57999992
   14.44583321  160.56700134    1.48000002    2.55999994
   14.44888878  162.35099792    1.46000004    2.55999994
   14.45222187  163.41400146    1.44000006    2.55999994
   14.45527744  161.24699402    1.44000006    2.55999994
   14.45583344  160.26499939    1.44000006    2.55999994
   14.45916653  168.51899719    1.44000006    2.55999994
   14.46222210  168.64500427    1.44000006    2.57999992
   14.46555519  162.33999634    1.44000006    2.57999992
   14.46888828  167.13999939    1.46000004    2.57999992
   14.47194386  158.88400269    1.46000004    2.57999992
   14.47527695  154.41200256    1.44000006    2.55999994
   14.47833252  167.49800110    1.41999996    2.57999992
   14.48444462  167.49800110    1.41999996    2.55999994
   14.48861122  155.81700134    1.41999996    2.55999994
   14.49166679  153.95700073    1.41999996    2.55999994
   14.49499989  160.12800598    1.39999998    2.57999992
   14.49833393  164.38600159    1.39999998    2.57999992
   14.50138855  164.05299377    1.39999998    2.57999992
   14.50472260  144.24099731    1.39999998    2.57999992
   14.50805569  159.57800293    1.39999998    2.57999992
   14.51111126  160.97700500    1.39999998    2.57999992
   14.51444435  169.39700317    1.39999998    2.57999992
   14.51749992  157.40400696    1.39999998    2.57999992
   14.52083302  159.72999573    1.39999998    2.57999992
   14.52194405  170.43600464    1.39999998    2.57999992
   14.52722168  170.43600464    1.39999998    2.57999992
   14.53138828  162.82800293    1.39999998    2.57999992
   14.53472233  157.10200500    1.39999998    2.57999992
   14.53777790  156.28700256    1.39999998    2.57999992
   14.55555534  169.78900146    1.38000000    2.57999992
   14.55777836  163.84599304    1.38000000    2.57999992
   14.56111145  158.55700684    1.38000000    2.57999992
   14.56444454  174.39900208    1.38000000    2.59999990
   14.57027817  174.39900208    1.38000000    2.57999992
   14.57444477  174.63200378    1.36000001    2.57999992
   14.57777786  166.96099854    1.36000001    2.57999992
   14.58083344  155.10299683    1.36000001    2.57999992
   14.58416653  167.42500305    1.36000001    2.57999992
   14.58749962  158.69599915    1.36000001    2.57999992
   14.58861065  180.12399292    1.36000001    2.57999992
   14.59111118  156.88400269    1.36000001    2.59999990
   14.59444427  154.28900146    1.33000004    2.59999990
   14.59749985  173.52900696    1.33000004    2.59999990
   14.60083389  157.67199707    1.33000004    2.59999990
   14.60416698  153.04800415    1.34000003    2.57999992
   14.60722256  146.15699768    1.36000001    2.57999992
   14.61305618  146.15699768    1.36000001    2.59999990
   14.61722279  166.06900024    1.36000001    2.57999992
   14.62055588  165.99699402    1.36000001    2.59999990
   14.62194443  157.35800171    1.36000001    2.59999990
   14.62416649  169.39900208    1.36000001    2.57999992
   14.62750053  155.09100342    1.36000001    2.57999992
   14.63055611  151.11199951    1.38000000    2.57999992
   14.63388920  157.01600647    1.38000000    2.59999990
   14.63722229  148.07899475    1.36000001    2.59999990
   14.64027786  155.48100281    1.34000003    2.59999990
   14.64361095  154.09800720    1.34000003    2.59999990
   14.64694405  152.07000732    1.36000001    2.59999990
   14.64999962  151.91400146    1.36000001    2.59999990
   14.65611076  151.91400146    1.36000001    2.59999990
   14.65999985  150.44099426    1.36000001    2.59999990
   14.66333294  149.97599792    1.36000001    2.59999990
   14.66666698  139.39599609    1.38000000    2.61999989
   14.66972256  154.97700500    1.38000000    2.59999990
   14.67305565  152.94200134    1.39999998    2.59999990
   14.67638874  153.12500000    1.41999996    2.59999990
   14.67944431  156.30700684    1.41999996    2.57999992
   14.68277836  154.97399902    1.44000006    2.59999990
   14.68611145  158.80999756    1.44000006    2.57999992
   14.68861103  155.18400574    1.44000006    2.57999992
   14.68972206  152.12699890    1.44000006    2.57999992
   14.69305515  161.01199341    1.46000004    2.59999990
   14.69888878  161.01199341    1.41999996    2.59999990
   14.70305538  152.74899292    1.39999998    2.59999990
   14.70611095  162.58700562    1.38000000    2.59999990
   14.70944405  175.10600281    1.36000001    2.59999990
   14.71277714  162.79699707    1.36000001    2.59999990
   14.71583271  148.49600220    1.36000001    2.59999990
   14.71916580  163.76899719    1.34000003    2.59999990
   14.72194386  172.91999817    1.36000001    2.59999990
   14.72277737  169.71600342    1.36000001    2.59999990
   14.72611046  162.58700562    1.34000003    2.59999990
   14.72916603  161.49699402    1.33000004    2.59999990
   14.73249912  161.85400391    1.33000004    2.59999990
   14.73583317  168.77600098    1.34000003    2.59999990
   14.74166679  168.77600098    1.34000003    2.59999990
   14.74583340  172.58399963    1.34000003    2.59999990
   14.74916649  162.33599854    1.34000003    2.59999990
   14.75222206  163.64900208    1.34000003    2.59999990
   14.75527763  176.23800659    1.34000003    2.59999990
   14.75583363  173.33900452    1.34000003    2.59999990
   14.75916672  174.00300598    1.34000003    2.59999990
   14.76222229  162.27200317    1.34000003    2.59999990
   14.76555538  172.95300293    1.34000003    2.59999990
   14.76888847  160.26699829    1.34000003    2.59999990
   14.77194405  173.41299438    1.34000003    2.59999990
   14.77527714  159.47000122    1.36000001    2.59999990
   14.77833271  175.04200745    1.36000001    2.59999990
   14.78444481  175.04200745    1.36000001    2.59999990
   14.78888893  174.16000366    1.36000001    2.59999990
   14.78916740  171.44900513    1.36000001    2.59999990
   14.79250050  173.71899414    1.38000000    2.59999990
   14.79555607  165.63299561    1.36000001    2.61999989
   14.79888916  152.32200623    1.38000000    2.59999990
   14.80222225  174.86099243    1.39999998    2.59999990
   14.80527782  185.49699402    1.39999998    2.61999989
   14.80861092  162.04800415    1.39999998    2.59999990
   14.81194496  169.94099426    1.39999998    2.61999989
   14.81500053  165.52299500    1.39999998    2.59999990
   14.81833363  170.79499817    1.39999998    2.59999990
   14.82138920  182.80099487    1.38000000    2.59999990
   14.82222176  174.50999451    1.38000000    2.59999990
   14.82750034  174.50999451    1.36000001    2.59999990
   14.83166695  181.40199280    1.36000001    2.61999989
   14.83472157  157.10499573    1.36000001    2.61999989
   14.83805561  167.41000366    1.36000001    2.59999990
   14.84111118  167.59500122    1.36000001    2.61999989
   14.84444427  178.57099915    1.36000001    2.59999990
   14.84777737  186.91400146    1.36000001    2.59999990
   14.85083389  176.48899841    1.38000000    2.61999989
   14.85416698  162.91700745    1.39999998    2.59999990
   14.85555553  187.56599426    1.39999998    2.59999990
   14.85777855  161.51800537    1.39999998    2.59999990
   14.86111164  185.86399841    1.41999996    2.59999990
   14.86416721  176.70399475    1.41999996    2.59999990
   14.87027836  176.70399475    1.44000006    2.61999989
   14.87444496  186.79600525    1.44000006    2.61999989
   14.87750053  167.39799500    1.41999996    2.61999989
   14.88083363  178.61300659    1.41999996    2.61999989
   14.88416672  177.45500183    1.41999996    2.61999989
   14.88722229  172.67100525    1.44000006    2.61999989
   14.88888836  184.34100342    1.44000006    2.61999989
   14.89083290  179.92399597    1.44000006    2.61999989
   14.89416695  192.44799805    1.44000006    2.61999989
   14.89722252  169.30099487    1.41999996    2.61999989
   14.90055561  175.95899963    1.39999998    2.61999989
   14.90388870  170.38200378    1.39999998    2.61999989
   14.90694427  177.12300110    1.39999998    2.61999989
   14.91305542  177.12300110    1.38000000    2.59999990
   14.91722298  170.78500366    1.38000000    2.59999990
   14.92055607  170.29899597    1.36000001    2.61999989
   14.92222214  172.52400208    1.36000001    2.61999989
   14.92416668  173.18200684    1.34000003    2.61999989
   14.92750072  179.11599731    1.34000003    2.61999989
   14.93055630  154.66900635    1.33000004    2.59999990
   14.93388939  171.18699646    1.33000004    2.61999989
   14.93722248  175.36199951    1.33000004    2.61999989
   14.94027805  174.04699707    1.33000004    2.61999989
   14.94361115  174.66099548    1.33000004    2.61999989
   14.94694424  172.22399902    1.30999994    2.61999989
   14.94999981  172.25300598    1.30999994    2.61999989
   14.95583344  172.25300598    1.30999994    2.61999989
   14.96000004  169.41900635    1.30999994    2.64000010
   14.96333313  162.80700684    1.30999994    2.61999989
   14.96638870  163.29400635    1.30999994    2.61999989
   14.96972179  160.47300720    1.28999996    2.64000010
   14.97305489  163.17500305    1.28999996    2.64000010
   14.97611046  169.87399292    1.30999994    2.61999989
   14.97944355  168.45399475    1.33000004    2.61999989
   14.98277760  163.50300598    1.33000004    2.61999989
   14.98583317  159.55099487    1.33000004    2.61999989
   14.98888874  149.02200317    1.33000004    2.61999989
   14.98944473  162.38499451    1.33000004    2.61999989
   14.99277782  167.93800354    1.33000004    2.61999989
   14.99888897  167.93800354    1.33000004    2.61999989
   15.00277805  152.88000488    1.30999994    2.61999989
   15.00611115  164.21400452    1.30999994    2.61999989
   15.00944424  169.47700500    1.28999996    2.61999989
   15.01249981  157.59599304    1.28999996    2.64000010
   15.01583290  175.89599609    1.28999996    2.64000010
   15.01916599  168.17100525    1.26999998    2.61999989
   15.02222157  170.56700134    1.26999998    2.61999989
   15.02250004  171.45199585    1.26999998    2.61999989
   15.02583313  184.84700012    1.28999996    2.61999989
   15.02888870  174.65499878    1.26999998    2.61999989
   15.03222179  171.52900696    1.26999998    2.61999989
   15.03555584  184.39900208    1.26999998    2.64000010
   15.04166698  184.39900208    1.28999996    2.64000010
   15.04583359  190.74800110    1.26999998    2.64000010
   15.04888916  167.09599304    1.26999998    2.61999989
   15.05222225  173.20500183    1.26999998    2.61999989
   15.05555534  174.11500549    1.26999998    2.61999989
   15.05583382  169.58599854    1.26999998    2.61999989
   15.05916691  177.89500427    1.26999998    2.61999989
   15.06222248  157.95700073    1.26999998    2.64000010
   15.06555557  173.35200500    1.26999998    2.64000010
   15.06888866  146.85299683    1.26999998    2.61999989
   15.07194424  172.03799438    1.26999998    2.64000010
   15.07527733  161.52900696    1.26999998    2.61999989
   15.07861137  168.74899292    1.25000000    2.64000010
   15.08444405  168.74899292    1.26999998    2.61999989
   15.08861065  182.50999451    1.25000000    2.61999989
   15.08916664  170.87699890    1.25000000    2.61999989
   15.09249973  172.41499329    1.25000000    2.61999989
   15.09555531  169.33599854    1.25000000    2.61999989
   15.09888840  174.29800415    1.26999998    2.64000010
   15.10194492  173.59700012    1.26999998    2.61999989
   15.10527802  174.99699402    1.28999996    2.64000010
   15.10861111  153.41000366    1.26999998    2.64000010
   15.11166668  166.42199707    1.28999996    2.64000010
   15.11500072  176.21499634    1.28999996    2.61999989
   15.11833382  174.39500427    1.30999994    2.64000010
   15.12138939  163.42700195    1.30999994    2.61999989
   15.12250042  174.41600037    1.30999994    2.61999989
   15.12722206  174.41600037    1.28999996    2.61999989
   15.13138866  168.88900757    1.28999996    2.61999989
   15.13472176  170.86199951    1.28999996    2.61999989
   15.13777733  178.43699646    1.28999996    2.64000010
   15.14111137  166.88600159    1.28999996    2.64000010
   15.14444447  169.65600586    1.28999996    2.61999989
   15.14777756  173.18699646    1.25000000    2.64000010
   15.15083313  170.62199402    1.25000000    2.64000010
   15.15416622  167.96200562    1.25000000    2.61999989
   15.15611076  171.02000427    1.25000000    2.64000010
   15.15777779  164.65699768    1.25000000    2.64000010
   15.16111088  169.47700500    1.26999998    2.64000010
   15.16444397  153.01499939    1.26999998    2.61999989
   15.17027855  153.01499939    1.26999998    2.61999989
   15.17416668  172.82499695    1.28999996    2.64000010
   15.17750072  168.22500610    1.30999994    2.64000010
   15.18083382  177.05000305    1.30999994    2.64000010
   15.18388939  166.10099792    1.30999994    2.64000010
   15.18722248  161.99899292    1.33000004    2.64000010
   15.18916702  158.36099243    1.34000003    2.64000010
   15.19111156  175.15499878    1.34000003    2.64000010
   15.19416714  163.33900452    1.34000003    2.64000010
   15.19750023  162.77699280    1.34000003    2.61999989
   15.20055580  169.84500122    1.34000003    2.61999989
   15.20388889  162.55200195    1.33000004    2.61999989
   15.20722198  159.82400513    1.33000004    2.64000010
   15.21305561  159.82400513    1.30999994    2.64000010
   15.21722221  163.44500732    1.33000004    2.64000010
   15.22027779  165.45300293    1.33000004    2.64000010
   15.22249985  160.75300598    1.33000004    2.64000010
   15.22416592  169.21299744    1.33000004    2.64000010
   15.22722149  169.25399780    1.33000004    2.64000010
   15.23055553  156.92199707    1.33000004    2.64000010
   15.23388958  163.76600647    1.30999994    2.64000010
   15.23694515  145.45599365    1.30999994    2.64000010
   15.24027824  157.43099976    1.30999994    2.64000010
   15.24361134  184.14300537    1.30999994    2.61999989
   15.24666691  164.08599854    1.28999996    2.64000010
   15.25000000  158.96699524    1.28999996    2.64000010
   15.25583363  158.96699524    1.26999998    2.64000010
   15.26000023  168.93299866    1.26999998    2.64000010
   15.26333332  163.45799255    1.26999998    2.64000010
   15.26638889  166.97399902    1.25000000    2.64000010
   15.26972198  169.91499329    1.25000000    2.64000010
   15.27277756  162.38000488    1.26999998    2.64000010
   15.27611065  157.49899292    1.26999998    2.64000010
   15.27944374  158.82400513    1.26999998    2.64000010
   15.28249931  163.02099609    1.26999998    2.64000010
   15.28583336  157.27499390    1.26999998    2.64000010
   15.28916740  168.18099976    1.28999996    2.61999989
   15.28944492  161.66000366    1.26999998    2.64000010
   15.29277802  162.53199768    1.26999998    2.64000010
   15.29861164  162.53199768    1.28999996    2.61999989
   15.30277824  152.95799255    1.28999996    2.64000010
   15.30611134  167.03199768    1.30999994    2.64000010
   15.30944443  171.94599915    1.33000004    2.61999989
   15.31250000  165.11599731    1.33000004    2.61999989
   15.31583309  152.52000427    1.34000003    2.64000010
   15.31888866  155.31100464    1.38000000    2.64000010
   15.32222176  161.31199646    1.36000001    2.64000010
   15.32277775  163.84199524    1.36000001    2.64000010
   15.32583332  164.25799561    1.36000001    2.64000010
   15.32916641  156.70199585    1.33000004    2.64000010
   15.33222198  156.16400146    1.30999994    2.64000010
   15.33555508  163.77999878    1.30999994    2.64000010
   15.34166622  163.77999878    1.30999994    2.64000010
   15.34555531  159.02200317    1.30999994    2.64000010
   15.34888840  156.47799683    1.28999996    2.66000009
   15.35222244  161.31700134    1.28999996    2.64000010
   15.35527802  160.94500732    1.28999996    2.64000010
   15.35611153  156.57499695    1.28999996    2.64000010
   15.35888958  153.60899353    1.28999996    2.64000010
   15.36222267  156.65600586    1.28999996    2.64000010
   15.36527824  163.98699951    1.30999994    2.64000010
   15.36861134  163.75300598    1.28999996    2.64000010
   15.37194443  154.55999756    1.28999996    2.64000010
   15.37500000  154.63499451    1.28999996    2.64000010
   15.37833309  159.90800476    1.28999996    2.64000010
   15.38444424  159.90800476    1.28999996    2.64000010
   15.38861084  154.20700073    1.26999998    2.66000009
   15.38972187  164.31100464    1.26999998    2.66000009
   15.39222240  168.25700378    1.25000000    2.64000010
   15.39555550  155.10600281    1.25000000    2.64000010
   15.39861107  159.19400024    1.25000000    2.64000010
   15.40194416  159.63299561    1.25000000    2.64000010
   15.40527725  189.07000732    1.26999998    2.64000010
   15.40833282  172.85099792    1.26999998    2.64000010
   15.41166592  170.71000671    1.25000000    2.64000010
   15.41499996  164.96299744    1.25000000    2.64000010
   15.41805553  166.92700195    1.25000000    2.66000009
   15.42138958  148.45300293    1.25000000    2.66000009
   15.42305565  150.61999512    1.25000000    2.64000010
   15.42722225  150.61999512    1.25000000    2.64000010
   15.43138885  156.22000122    1.30999994    2.64000010
   15.43472195  154.09399414    1.28999996    2.64000010
   15.43777752  159.51300049    1.33000004    2.64000010
   15.44111156  151.67799377    1.33000004    2.64000010
   15.44416714  159.17799377    1.33000004    2.64000010
   15.44750023  156.56100464    1.34000003    2.64000010
   15.45083332  161.65699768    1.36000001    2.64000010
   15.45388889  160.68499756    1.38000000    2.66000009
   15.45638847  152.68499756    1.38000000    2.66000009
   15.45749950  156.36199951    1.41999996    2.64000010
   15.46083355  152.25300598    1.41999996    2.64000010
   15.46388912  154.80400085    1.44000006    2.64000010
   15.46999931  154.80400085    1.46000004    2.66000009
   15.47416592  158.83000183    1.44000006    2.64000010
   15.47749996  151.15899658    1.44000006    2.64000010
   15.48083305  149.67399597    1.34000003    2.64000010
   15.48388958  145.11300659    1.33000004    2.64000010
   15.48722267  153.74000549    1.28999996    2.66000009
   15.48972225  144.75199890    1.28999996    2.66000009
   15.49083328  149.30999756    1.28999996    2.64000010
   15.49416733  153.37800598    1.26999998    2.66000009
   15.49722290  155.78700256    1.26999998    2.66000009
   15.50055599  148.04200745    1.26999998    2.66000009
   15.50388908  141.83299255    1.28999996    2.66000009
   15.50694466  155.73800659    1.26999998    2.66000009
   15.51305580  155.73800659    1.33000004    2.66000009
   15.51694393  153.27400208    1.33000004    2.64000010
   15.52027798  158.22999573    1.34000003    2.66000009
   15.52305508  156.54699707    1.34000003    2.66000009
   15.52388859  154.04699707    1.34000003    2.66000009
   15.52722168  159.57000732    1.36000001    2.64000010
   15.53027725  156.94500732    1.38000000    2.66000009
   15.53361130  157.36500549    1.38000000    2.66000009
   15.53694534  155.84399414    1.39999998    2.64000010
   15.54000092  149.72799683    1.41999996    2.66000009
   15.54333401  157.02200317    1.41999996    2.64000010
   15.54666710  151.55999756    1.41999996    2.66000009
   15.64638901   -1.00000000   -1.00000000   -1.00000000
   15.83194447   -1.00000000   -1.00000000   -1.00000000
   16.01499939   -1.00000000   -1.00000000   -1.00000000
   16.03027725  107.81999969    1.21000004    2.67000008
   16.03361130  154.18400574    1.21000004    2.67000008
   16.03694344  153.16700745    1.21000004    2.67000008
   16.03999901  153.98899841    1.21000004    2.66000009
   16.04333305  149.71800232    1.21000004    2.67000008
   16.04666710  153.61300659    1.21000004    2.67000008
   16.05083275  153.61300659    1.21000004    2.67000008
   16.05472183  146.14799500    1.21000004    2.66000009
   16.05805397  140.45599365    1.21000004    2.67000008
   16.06138802  146.43200684    1.21000004    2.67000008
   16.06361008  148.34899902    1.21000004    2.67000008
   16.06499863  143.44599915    1.21000004    2.67000008
   16.06805611  148.54699707    1.21000004    2.67000008
   16.07139015  144.25100708    1.23000002    2.67000008
   16.07444572  144.95199585    1.23000002    2.67000008
   16.07777786  142.76699829    1.21000004    2.66000009
   16.08111191  145.00199890    1.21000004    2.66000009
   16.08416748  150.10400391    1.21000004    2.66000009
   16.08750153  146.74200439    1.21000004    2.67000008
   16.09361267  146.74200439    1.21000004    2.67000008
   16.09777832  146.08000183    1.23000002    2.67000008
   16.10083389  146.21099854    1.25000000    2.66000009
   16.10416794  145.22999573    1.25000000    2.67000008
   16.10750008  147.37300110    1.26999998    2.66000009
   16.11055565  138.99200439    1.26999998    2.67000008
   16.11388969  137.40600586    1.26999998    2.66000009
   16.11694527  153.97900391    1.26999998    2.67000008
   16.12027740  145.32600403    1.25000000    2.67000008
   16.12361145  145.45899963    1.25000000    2.67000008
   16.12694550  150.64500427    1.25000000    2.67000008
   16.13000107  150.42999268    1.23000002    2.67000008
   16.13055611  155.37600708    1.23000002    2.67000008
   16.13638878  155.37600708    1.23000002    2.67000008
   16.14055634  144.68899536    1.21000004    2.67000008
   16.14388847  142.71600342    1.19000006    2.67000008
   16.14694405  152.86700439    1.19000006    2.67000008
   16.15027809  148.88999939    1.19000006    2.67000008
   16.15361023  145.06300354    1.19000006    2.67000008
   16.15666580  148.51100159    1.19000006    2.67000008
   16.15999985  142.96099854    1.19000006    2.66000009
   16.16305542  146.32800293    1.21000004    2.67000008
   16.16388893  140.10400391    1.21000004    2.67000008
   16.16694450  146.23800659    1.19000006    2.67000008
   16.17000008  153.84800720    1.21000004    2.67000008
   16.17333221  141.84399414    1.23000002    2.67000008
   16.17916679  141.84399414    1.23000002    2.67000008
   16.18333244  144.92100525    1.26999998    2.67000008
   16.18666649  147.57200623    1.30999994    2.67000008
   16.18972206  147.28900146    1.33000004    2.67000008
   16.19305420  143.38499451    1.33000004    2.67000008
   16.19638824  147.40600586    1.33000004    2.69000006
   16.19722176  149.59500122    1.33000004    2.67000008
   16.20000076  150.28199768    1.33000004    2.67000008
   16.20305634  145.02600098    1.33000004    2.67000008
   16.20639038  145.12300110    1.30999994    2.67000008
   16.20972252  144.38000488    1.33000004    2.67000008
   16.21305656  141.85899353    1.33000004    2.67000008
   16.21611214  146.83399963    1.33000004    2.66000009
   16.22222328  146.83399963    1.30999994    2.67000008
   16.22611237  144.86799622    1.28999996    2.66000009
   16.22944450  152.82699585    1.28999996    2.67000008
   16.23055649  150.70700073    1.25000000    2.67000008
   16.23305511  147.72900391    1.25000000    2.67000008
   16.23611069  152.68800354    1.25000000    2.67000008
   16.23944473  143.91900635    1.25000000    2.67000008
   16.24277878  148.50799561    1.25000000    2.67000008
   16.24583435  152.35400391    1.23000002    2.67000008
   16.24916649  146.01600647    1.23000002    2.67000008
   16.25250053  151.88099670    1.23000002    2.67000008
   16.25555611  143.71699524    1.19000006    2.67000008
   16.25888824  148.49499512    1.21000004    2.67000008
   16.26499939  148.49499512    1.25000000    2.67000008
   16.26916695  145.04200745    1.23000002    2.67000008
   16.27222252  163.12800598    1.23000002    2.67000008
   16.27555466  150.50300598    1.25000000    2.66000009
   16.27888870  148.69299316    1.25000000    2.67000008
   16.28194427  145.36700439    1.25000000    2.67000008
   16.28527641  143.22599792    1.25000000    2.66000009
   16.28861046  140.88600159    1.23000002    2.66000009
   16.29166603  145.71099854    1.21000004    2.67000008
   16.29500008  147.69299316    1.21000004    2.66000009
   16.29722214  154.28999329    1.21000004    2.67000008
   16.29861069  150.94599915    1.21000004    2.67000008
   16.30166626  150.89500427    1.21000004    2.67000008
   16.30777740  150.89500427    1.21000004    2.67000008
   16.31194305  145.58599854    1.21000004    2.67000008
   16.31527710  163.26499939    1.21000004    2.67000008
   16.31833458  153.56799316    1.21000004    2.67000008
   16.32166672  160.95500183    1.19000006    2.67000008
   16.32472229  150.27000427    1.19000006    2.67000008
   16.32805634  149.49800110    1.19000006    2.67000008
   16.33055687  142.94700623    1.19000006    2.67000008
   16.33166695  150.95799255    1.21000004    2.67000008
   16.33472252  148.96499634    1.21000004    2.67000008
   16.33805656  147.46699524    1.21000004    2.67000008
   16.34138870  144.73300171    1.23000002    2.67000008
   16.34444427  155.40299988    1.23000002    2.67000008
   16.35055542  155.40299988    1.25000000    2.67000008
   16.35472298  147.39300537    1.25000000    2.67000008
   16.35805511  138.23800659    1.25000000    2.67000008
   16.36111069  144.06599426    1.23000002    2.66000009
   16.36388969  154.11000061    1.23000002    2.67000008
   16.36499977  150.91299438    1.23000002    2.67000008
   16.36805534  154.94099426    1.23000002    2.67000008
   16.37138939  147.52999878    1.23000002    2.67000008
   16.37472153  147.82800293    1.23000002    2.67000008
   16.37777710  145.09399414    1.23000002    2.67000008
   16.38111115  145.31500244    1.23000002    2.67000008
   16.38444519  148.46899414    1.25000000    2.67000008
   16.38750076  146.63800049    1.23000002    2.66000009
   16.39333344  146.63800049    1.23000002    2.66000009
   16.39749908  147.88299561    1.23000002    2.67000008
   16.40083313  155.69200134    1.23000002    2.67000008
   16.40416718  142.75700378    1.25000000    2.67000008
   16.40722275  156.08900452    1.26999998    2.67000008
   16.41055489  147.29600525    1.26999998    2.67000008
   16.41388893  148.77000427    1.26999998    2.67000008
   16.41694450  143.05099487    1.28999996    2.67000008
   16.42027664  153.05299377    1.26999998    2.67000008
   16.42333221  153.88400269    1.26999998    2.67000008
   16.42666626  141.43699646    1.25000000    2.69000006
   16.43000031  141.96000671    1.23000002    2.67000008
   16.43055534  145.03799438    1.23000002    2.67000008
   16.43638802  145.03799438    1.21000004    2.67000008
   16.44055557  147.08599854    1.19000006    2.67000008
   16.44361115  151.79699707    1.19000006    2.67000008
   16.44694328  155.04299927    1.19000006    2.67000008
   16.45027924  158.85099792    1.19000006    2.67000008
   16.45333481  142.65899658    1.21000004    2.67000008
   16.45666695  143.44500732    1.21000004    2.67000008
   16.46000099  144.83200073    1.23000002    2.67000008
   16.46305656  157.10400391    1.23000002    2.67000008
   16.46389008  168.25599670    1.23000002    2.67000008
   16.46666718  153.33700562    1.23000002    2.67000008
   16.47000122  150.55999756    1.23000002    2.67000008
   16.47305679  148.08599854    1.25000000    2.67000008
   16.47916794  148.08599854    1.25000000    2.67000008
   16.48333359  151.45500183    1.26999998    2.67000008
   16.48666763  145.63499451    1.26999998    2.67000008
   16.48972321  143.44599915    1.26999998    2.67000008
   16.49305534  144.89500427    1.26999998    2.67000008
   16.49611092  149.88200378    1.26999998    2.67000008
   16.49722290  146.89100647    1.26999998    2.67000008
   16.50000000  149.53300476    1.25000000    2.67000008
   16.50333405  143.67500305    1.25000000    2.67000008
   16.50638962  150.16799927    1.21000004    2.67000008
   16.50972176  141.84899902    1.21000004    2.67000008
   16.51277733  140.62500000    1.21000004    2.67000008
   16.51611137  147.38900757    1.21000004    2.67000008
   16.52194405  147.38900757    1.19000006    2.66000009
   16.52611160  140.57200623    1.16999996    2.67000008
   16.52944374  150.79400635    1.14999998    2.66000009
   16.53055573  144.08299255    1.14999998    2.67000008
   16.53305435  144.23699951    1.14999998    2.67000008
   16.53638840  134.16700745    1.16999996    2.67000008
   16.53944397  146.37399292    1.16999996    2.67000008
   16.54277802  143.67500305    1.14999998    2.67000008
   16.54583359  143.52600098    1.14999998    2.69000006
   16.54916573  144.22599792    1.14999998    2.67000008
   16.55249977  145.25999451    1.14999998    2.67000008
   16.55555534  155.01600647    1.16999996    2.67000008
   16.55888748  148.16999817    1.16999996    2.67000008
   16.56472206  148.16999817    1.13000000    2.67000008
   16.56888962  141.42199707    1.13000000    2.67000008
   16.57222366  142.83000183    1.13000000    2.67000008
   16.57555580  149.06900024    1.14999998    2.67000008
   16.57861137  141.69299316    1.14999998    2.67000008
   16.58194542  140.52799988    1.16999996    2.69000006
   16.58500099  144.76699829    1.16999996    2.67000008
   16.58833313  141.62199402    1.19000006    2.67000008
   16.59166718  138.31799316    1.19000006    2.67000008
   16.59472275  139.75300598    1.19000006    2.67000008
   16.59722328  143.00700378    1.19000006    2.67000008
   16.59833336  136.28199768    1.19000006    2.67000008
   16.60166740  147.97200012    1.21000004    2.69000006
   16.60777855  147.97200012    1.21000004    2.67000008
   16.61194420  141.53799438    1.21000004    2.69000006
   16.61499977  142.38200378    1.19000006    2.67000008
   16.61833382  135.82600403    1.19000006    2.67000008
   16.62138939  144.43499756    1.21000004    2.67000008
   16.62472153  146.96699524    1.21000004    2.67000008
   16.62805557  140.80499268    1.21000004    2.67000008
   16.63055611  147.77299500    1.21000004    2.67000008
   16.63166618  154.25100708    1.21000004    2.67000008
   16.63500023  161.40899658    1.21000004    2.67000008
   16.63805580  140.26600647    1.21000004    2.67000008
   16.64138794  143.60299683    1.21000004    2.67000008
   16.64444351  139.87300110    1.21000004    2.69000006
   16.65055466  139.87300110    1.23000002    2.67000008
   16.65472221  148.02200317    1.23000002    2.67000008
   16.65777779  142.11000061    1.21000004    2.67000008
   16.66110992  161.46800232    1.19000006    2.67000008
   16.66388893  142.36300659    1.16999996    2.67000008
   16.66472244  135.49899292    1.16999996    2.67000008
   16.66805458  174.85200500    1.14999998    2.67000008
   16.67111015  145.09599304    1.13000000    2.69000006
   16.67444420  160.81599426    1.13000000    2.67000008
   16.67749977  155.20199585    1.14999998    2.69000006
   16.68083191  156.30900574    1.13000000    2.67000008
   16.68416595  139.93200684    1.14999998    2.67000008
   16.68722153  163.59100342    1.16999996    2.67000008
   16.69333267  163.59100342    1.14999998    2.69000006
   16.69749832  135.82600403    1.16999996    2.67000008
   16.70083427  141.15800476    1.16999996    2.67000008
   16.70388985  152.68499756    1.14999998    2.67000008
   16.70722389  139.83700562    1.14999998    2.67000008
   16.71055603  144.42599487    1.13000000    2.67000008
   16.71361160  150.56300354    1.13000000    2.69000006
   16.71694565  148.31799316    1.14999998    2.69000006
   16.72027779  141.52499390    1.14999998    2.69000006
   16.72333336  148.23199463    1.14999998    2.67000008
   16.72666740  141.96600342    1.14999998    2.67000008
   16.73000145  138.54699707    1.14999998    2.67000008
   16.73055649  145.98100281    1.14999998    2.67000008
   16.73611069  145.98100281    1.14999998    2.67000008
   16.74027824  142.51300049    1.16999996    2.67000008
   16.74361229  137.35299683    1.14999998    2.67000008
   16.74694443  138.14100647    1.14999998    2.67000008
   16.75000000  139.89599609    1.13000000    2.67000008
   16.75333405  142.05000305    1.13000000    2.67000008
   16.75638962  143.16099548    1.14999998    2.67000008
   16.75972176  141.27600098    1.14999998    2.67000008
   16.76305580  140.71699524    1.14999998    2.67000008
   16.76388931  141.33599854    1.13000000    2.66000009
   16.76666641  142.71800232    1.14999998    2.67000008
   16.77000046  141.08799744    1.14999998    2.67000008
   16.77305603  146.01699829    1.14999998    2.67000008
   16.77916718  146.01699829    1.14999998    2.66000009
   16.78333282  146.30000305    1.13000000    2.67000008
   16.78638840  149.01899719    1.13000000    2.67000008
   16.78972244  146.94299316    1.13000000    2.69000006
   16.79277802  140.94799805    1.11000001    2.69000006
   16.79611015  140.62199402    1.11000001    2.69000006
   16.79722214  145.92100525    1.13000000    2.67000008
   16.79972076  144.77200317    1.13000000    2.67000008
   16.80305481  139.92799377    1.13000000    2.67000008
   16.80611038  146.96600342    1.13000000    2.69000006
   16.80944443  150.10800171    1.14999998    2.67000008
   16.81250000  133.63800049    1.14999998    2.69000006
   16.81583214  143.40400696    1.14999998    2.69000006
   16.82194519  143.40400696    1.13000000    2.67000008
   16.82611275  141.88999939    1.14999998    2.67000008
   16.82916832  143.60200500    1.14999998    2.67000008
   16.83055687  149.64900208    1.14999998    2.67000008
   16.83277893  134.93200684    1.14999998    2.67000008
   16.83611107  137.17799377    1.16999996    2.67000008
   16.83916664  134.11799622    1.14999998    2.66000009
   16.84250069  139.55000305    1.16999996    2.69000006
   16.84555626  133.78199768    1.16999996    2.69000006
   16.84889030  146.76199341    1.16999996    2.69000006
   16.85222244  145.31300354    1.16999996    2.67000008
   16.85527802  141.61599731    1.16999996    2.67000008
   16.85861206  139.49200439    1.19000006    2.69000006
   16.86472321  139.49200439    1.16999996    2.67000008
   16.86888885  142.44999695    1.14999998    2.69000006
   16.87222290  134.49400330    1.14999998    2.67000008
   16.87527847  140.85299683    1.13000000    2.67000008
   16.87861061  139.91799927    1.13000000    2.67000008
   16.88194466  138.01400757    1.13000000    2.67000008
   16.88500023  139.84500122    1.13000000    2.69000006
   16.88833237  137.48100281    1.14999998    2.67000008
   16.89166641  142.85400391    1.16999996    2.67000008
   16.89472198  149.42199707    1.19000006    2.67000008
   16.89722252  137.88200378    1.19000006    2.67000008
   16.89833260  136.42100525    1.16999996    2.69000006
   16.90166664  135.61000061    1.16999996    2.69000006
   16.90777779  135.61000061    1.19000006    2.67000008
   16.91166687  137.73500061    1.16999996    2.69000006
   16.91499901  143.22099304    1.16999996    2.67000008
   16.91833305  137.10699463    1.16999996    2.69000006
   16.92138863  138.26800537    1.16999996    2.67000008
   16.92472076  149.07400513    1.16999996    2.67000008
   16.92777634  143.04299927    1.16999996    2.69000006
   16.93055534  137.46800232    1.16999996    2.69000006
   16.93166542  138.48500061    1.16999996    2.69000006
   16.93499947  139.86300659    1.19000006    2.69000006
   16.93805504  135.77299500    1.19000006    2.67000008
   16.94138718  137.93099976    1.16999996    2.67000008
   16.94444275  143.16700745    1.16999996    2.67000008
   16.95055580  143.16700745    1.16999996    2.67000008
   16.95444489  144.79100037    1.16999996    2.67000008
   16.95777893  141.61700439    1.16999996    2.67000008
   16.96111107  138.36900330    1.16999996    2.67000008
   16.96389008  143.08500671    1.16999996    2.69000006
   16.96472359  139.93600464    1.16999996    2.69000006
   16.96805573  144.67599487    1.11000001    2.67000008
   16.97111130  137.12699890    1.11000001    2.67000008
   16.97444534  139.70599365    1.11000001    2.67000008
   16.97750092  137.16299438    1.11000001    2.67000008
   16.98083305  134.26899719    1.11000001    2.67000008
   16.98416710  138.41499329    1.11000001    2.67000008
   16.98722267  132.35800171    1.11000001    2.67000008
   16.99333382  132.35800171    1.13000000    2.67000008
   16.99749947  132.61599731    1.13000000    2.67000008
   17.00055504  132.45799255    1.16999996    2.67000008
   17.00388908  136.68499756    1.14999998    2.67000008
   17.00722313  137.89999390    1.16999996    2.67000008
   17.01027870  134.90199280    1.16999996    2.67000008
   17.01361084  139.65800476    1.16999996    2.67000008
   17.01666641  133.68099976    1.16999996    2.67000008
   17.02000046  133.87300110    1.14999998    2.67000008
   17.02333260  136.70700073    1.16999996    2.67000008
   17.02638817  132.57400513    1.16999996    2.67000008
   17.02972221  129.67799377    1.19000006    2.69000006
   17.03083229  139.12399292    1.19000006    2.69000006
   17.05138779  139.12399292    1.21000004    2.69000006
   17.05555534  129.18600464    1.21000004    2.67000008
   17.05888748  135.16999817    1.16999996    2.69000006
   17.06194305  134.32499695    1.16999996    2.67000008
   17.06388855  132.83799744    1.14999998    2.67000008
   17.06555557  131.61900330    1.13000000    2.67000008
   17.06888962  125.55699921    1.13000000    2.69000006
   17.07194519  133.18200684    1.13000000    2.69000006
   17.07527924  138.48199463    1.13000000    2.69000006
   17.07861137  132.77499390    1.14999998    2.67000008
   17.08166695  128.37800598    1.16999996    2.67000008
   17.08500099  134.09100342    1.16999996    2.67000008
   17.08805656  130.69000244    1.16999996    2.67000008
   17.09416771  130.69000244    1.19000006    2.69000006
   17.09833336  141.71000671    1.21000004    2.67000008
   17.10138893  129.75000000    1.21000004    2.67000008
   17.10472298  124.98100281    1.21000004    2.67000008
   17.10805511  127.08399963    1.21000004    2.69000006
   17.11111069  130.08799744    1.21000004    2.67000008
   17.11444473  133.10699463    1.21000004    2.67000008
   17.11777878  139.22300720    1.19000006    2.67000008
   17.12083435  130.33299255    1.19000006    2.67000008
   17.12416649  126.18800354    1.19000006    2.67000008
   17.12722206  129.18499756    1.19000006    2.69000006
   17.13055611  136.59100342    1.21000004    2.67000008
   17.13111115  138.46400452    1.21000004    2.67000008
   17.13694382  138.46400452    1.21000004    2.69000006
   17.14111137  136.31199646    1.21000004    2.67000008
   17.14444351  135.26300049    1.19000006    2.67000008
   17.14749908  135.83599854    1.19000006    2.67000008
   17.15083313  131.02499390    1.19000006    2.67000008
   17.15416718  130.13999939    1.19000006    2.66000009
   17.15722275  136.18499756    1.21000004    2.67000008
   17.16055489  133.09700012    1.23000002    2.67000008
   17.16361046  130.19599915    1.23000002    2.67000008
   17.16444397  129.28700256    1.21000004    2.67000008
   17.16749954  134.78999329    1.21000004    2.66000009
   17.17055511  142.07000732    1.19000006    2.67000008
   17.17388916  131.89700317    1.16999996    2.67000008
   17.18000031  131.89700317    1.19000006    2.67000008
   17.18388748  131.34399414    1.19000006    2.67000008
   17.18722153  135.25599670    1.19000006    2.67000008
   17.19055557  136.89799500    1.19000006    2.67000008
   17.19361115  126.97699738    1.21000004    2.67000008
   17.19694328  133.04200745    1.19000006    2.67000008
   17.19777679  130.05400085    1.19000006    2.67000008
   17.20055580  126.96700287    1.19000006    2.67000008
   17.20361137  133.91999817    1.16999996    2.67000008
   17.20694542  135.72599792    1.14999998    2.67000008
   17.21027946  134.92500305    1.14999998    2.67000008
   17.21333504  135.80299377    1.14999998    2.67000008
   17.21666718  132.51300049    1.16999996    2.67000008
   17.22277832  132.51300049    1.14999998    2.67000008
   17.22694588  129.77799988    1.16999996    2.67000008
   17.23000145  139.97000122    1.14999998    2.67000008
   17.23111153  135.72599792    1.14999998    2.67000008
   17.23388863  141.43099976    1.14999998    2.67000008
   17.23694420  136.19599915    1.14999998    2.67000008
   17.24027824  132.84100342    1.16999996    2.66000009
   17.24361229  134.64300537    1.16999996    2.67000008
   17.24666786  131.04600525    1.14999998    2.67000008
   17.25000000  126.67900085    1.14999998    2.67000008
   17.25305557  122.18299866    1.14999998    2.67000008
   17.25638962  124.82499695    1.14999998    2.67000008
   17.25972176  123.36799622    1.14999998    2.67000008
   17.26555634  123.36799622    1.11000001    2.67000008
   17.26972198  131.80599976    1.11000001    2.67000008
   17.27277756  131.11500549    1.11000001    2.67000008
   17.27611160  129.62500000    1.13000000    2.67000008
   17.27972221  140.37399292    1.13000000    2.67000008
   17.28277779  141.13600159    1.13000000    2.67000008
   17.28610992  137.35499573    1.13000000    2.67000008
   17.28944397  138.16200256    1.13000000    2.67000008
   17.29249954  129.86399841    1.16999996    2.67000008
   17.29583359  131.89900208    1.21000004    2.67000008
   17.29805565  132.18499756    1.21000004    2.67000008
   17.29972076  133.15100098    1.23000002    2.69000006
   17.30305481  132.48500061    1.25000000    2.67000008
   17.30833244  132.48500061    1.25000000    2.67000008
   17.31250000  134.10800171    1.21000004    2.67000008
   17.31583214  140.12199402    1.21000004    2.67000008
   17.31888962  136.39999390    1.23000002    2.67000008
   17.32222366  132.96699524    1.23000002    2.67000008
   17.32527924  137.81599426    1.19000006    2.69000006
   17.32861137  138.97999573    1.16999996    2.67000008
   17.33111191  139.50900269    1.16999996    2.67000008
   17.33222389  132.06799316    1.16999996    2.67000008
   17.33527756  141.57000732    1.16999996    2.69000006
   17.33861160  135.34500122    1.16999996    2.67000008
   17.34194565  137.96499634    1.16999996    2.67000008
   17.34500122  142.67100525    1.16999996    2.67000008
   17.35111237  142.67100525    1.16999996    2.67000008
   17.35527802  133.33399963    1.19000006    2.67000008
   17.35861206  136.33099365    1.21000004    2.67000008
   17.36194420  132.05900574    1.25000000    2.69000006
   17.36444473  132.17399597    1.28999996    2.67000008
   17.36555672  129.68600464    1.28999996    2.67000008
   17.36861038  134.44500732    1.28999996    2.67000008
   17.37194443  131.15499878    1.26999998    2.67000008
   17.37527847  132.54899597    1.28999996    2.67000008
   17.37833405  131.84599304    1.26999998    2.66000009
   17.38166618  143.34399414    1.26999998    2.67000008
   17.38500023  133.80700684    1.23000002    2.67000008
   17.38805580  132.44999695    1.21000004    2.67000008
   17.39416695  132.44999695    1.19000006    2.67000008
   17.39805603  133.27099609    1.19000006    2.67000008
   17.40138817  138.52200317    1.19000006    2.67000008
   17.40472221  134.62500000    1.19000006    2.67000008
   17.40777779  137.59599304    1.19000006    2.67000008
   17.41110992  140.66999817    1.16999996    2.67000008
   17.41444397  141.04200745    1.16999996    2.67000008
   17.41749954  136.79200745    1.19000006    2.66000009
   17.42083359  132.85200500    1.19000006    2.66000009
   17.42388916  133.93400574    1.19000006    2.67000008
   17.42722130  144.81199646    1.19000006    2.67000008
   17.43055534  144.03500366    1.16999996    2.66000009
   17.43111038  144.99099731    1.16999996    2.66000009
   17.43694305  144.99099731    1.14999998    2.67000008
   17.44111061  140.39500427    1.16999996    2.67000008
   17.44416618  137.44900513    1.16999996    2.67000008
   17.44749832  143.38499451    1.16999996    2.67000008
   17.45083427  143.06599426    1.19000006    2.67000008
   17.45388985  137.01699829    1.19000006    2.66000009
   17.45722389  144.09399414    1.21000004    2.66000009
   17.46027946  134.17300415    1.21000004    2.66000009
   17.46361160  128.83900452    1.21000004    2.66000009
   17.46444511  132.16799927    1.21000004    2.66000009
   17.46722221  134.22599792    1.16999996    2.67000008
   17.47055626  138.20700073    1.16999996    2.67000008
   17.47361183  140.00999451    1.16999996    2.67000008
   17.47972298  140.00999451    1.19000006    2.67000008
   17.48388863  136.54499817    1.19000006    2.67000008
   17.48722267  132.98899841    1.16999996    2.67000008
   17.49027824  122.82099915    1.16999996    2.66000009
   17.49361229  137.49600220    1.16999996    2.67000008
   17.49666786  139.87300110    1.19000006    2.67000008
   17.49777794  143.42399597    1.19000006    2.67000008
   17.50055504  138.45500183    1.19000006    2.66000009
   17.50388908  147.88200378    1.19000006    2.67000008
   17.50694466  145.64500427    1.19000006    2.67000008
   17.51027870  139.91200256    1.23000002    2.67000008
   17.51333427  130.05900574    1.21000004    2.67000008
   17.51666641  137.50500488    1.23000002    2.67000008
   17.52249908  137.50500488    1.13000000    2.66000009
   17.52666664  142.50999451    1.13000000    2.67000008
   17.53000069  144.43299866    1.13000000    2.67000008
   17.53111076  142.21099854    1.13000000    2.66000009
   17.53361130  140.04899597    1.14999998    2.67000008
   17.53666687  138.29200745    1.14999998    2.67000008
   17.53999901  133.35400391    1.19000006    2.67000008
   17.54333305  136.13299561    1.19000006    2.67000008
   17.54638863  134.75300598    1.19000006    2.67000008
   17.54972076  135.45899963    1.16999996    2.67000008
   17.55305481  135.39300537    1.14999998    2.66000009
   17.55611038  141.08500671    1.13000000    2.66000009
   17.55944443  137.91799927    1.13000000    2.67000008
   17.56555557  137.91799927    1.13000000    2.66000009
   17.56944466  134.41900635    1.13000000    2.66000009
   17.57277870  130.17999268    1.13000000    2.66000009
   17.57611275  140.54400635    1.13000000    2.66000009
   17.57916832  138.72300720    1.13000000    2.67000008
   17.58250046  129.43899536    1.14999998    2.67000008
   17.58583450  141.53700256    1.13000000    2.66000009
   17.58889008  140.46499634    1.13000000    2.66000009
   17.59222221  132.84500122    1.13000000    2.66000009
   17.59527779  128.11900330    1.13000000    2.67000008
   17.59805679  134.47700500    1.11000001    2.66000009
   17.59916687  140.11099243    1.11000001    2.66000009
   17.60250092  132.94500732    1.11000001    2.67000008
   17.60833359  132.94500732    1.16999996    2.66000009
   17.61250114  133.83799744    1.16999996    2.66000009
   17.61555672  138.59899902    1.16999996    2.67000008
   17.61888885  137.11799622    1.21000004    2.66000009
   17.62222290  134.29800415    1.21000004    2.66000009
   17.62527847  135.28599548    1.23000002    2.66000009
   17.62861061  136.59300232    1.23000002    2.67000008
   17.63111115  132.28999329    1.23000002    2.67000008
   17.63222313  140.62199402    1.21000004    2.66000009
   17.63555527  148.18899536    1.16999996    2.66000009
   17.63861084  142.46800232    1.14999998    2.67000008
   17.64194489  135.98699951    1.14999998    2.67000008
   17.64527702  146.79499817    1.14999998    2.67000008
   17.65111160  146.79499817    1.14999998    2.66000009
   17.65527725  146.34300232    1.13000000    2.66000009
   17.65861130  133.13600159    1.14999998    2.66000009
   17.66166687  136.78900146    1.14999998    2.66000009
   17.66444397  138.65299988    1.14999998    2.66000009
   17.66527748  126.92299652    1.14999998    2.66000009
   17.66833305  149.84599304    1.14999998    2.67000008
   17.67166519  139.02400208    1.13000000    2.67000008
   17.67499924  130.25100708    1.14999998    2.66000009
   17.67805481  128.17999268    1.14999998    2.66000009
   17.68138885  133.95500183    1.13000000    2.66000009
   17.68472099  134.04800415    1.11000001    2.67000008
   17.68777657  141.72700500    1.11000001    2.67000008
   17.69388771  141.72700500    1.13000000    2.67000008
   17.69805527  134.27200317    1.11000001    2.66000009
   17.70138931  143.23300171    1.13000000    2.66000009
   17.70444489  132.11300659    1.13000000    2.67000008
   17.70777893  145.17599487    1.13000000    2.67000008
   17.71111107  134.41499329    1.13000000    2.66000009
   17.71416664  133.27400208    1.13000000    2.66000009
   17.71750069  135.52900696    1.11000001    2.66000009
   17.72083473  145.91400146    1.11000001    2.66000009
   17.72389030  143.65800476    1.13000000    2.67000008
   17.72722244  134.58500671    1.13000000    2.66000009
   17.73027802  140.75799561    1.13000000    2.66000009
   17.73111153  144.87100220    1.13000000    2.66000009
   17.73694420  144.87100220    1.13000000    2.67000008
   17.74083328  132.38099670    1.13000000    2.67000008
   17.74416733  145.08900452    1.13000000    2.67000008
   17.74749947  140.10400391    1.13000000    2.67000008
   17.75055504  142.31500244    1.13000000    2.67000008
   17.75388908  134.45199585    1.14999998    2.66000009
   17.75722313  139.93499756    1.14999998    2.66000009
   17.76027870  136.87100220    1.13000000    2.66000009
   17.76361084  138.74000549    1.14999998    2.66000009
   17.76444435  136.82899475    1.14999998    2.66000009
   17.76722145  144.52600098    1.13000000    2.67000008
   17.77055550  138.36799622    1.13000000    2.67000008
   17.77361107  149.49699402    1.13000000    2.67000008
   17.77972221  149.49699402    1.13000000    2.66000009
   17.78388786  134.64599609    1.13000000    2.67000008
   17.78694344  143.05400085    1.13000000    2.66000009
   17.79027748  141.58500671    1.13000000    2.67000008
   17.79361153  135.35200500    1.14999998    2.66000009
   17.79666710  146.52999878    1.14999998    2.67000008
   17.79777718  144.92399597    1.14999998    2.66000009
   17.80027771  145.59899902    1.14999998    2.66000009
   17.80360985  154.58700562    1.13000000    2.66000009
   17.80666542  146.05299377    1.13000000    2.66000009
   17.80999947  139.53100586    1.14999998    2.67000008
   17.81305504  147.91200256    1.14999998    2.67000008
   17.81638718  154.73500061    1.14999998    2.67000008
   17.82250023  154.73500061    1.14999998    2.66000009
   17.82666779  142.85600281    1.14999998    2.66000009
   17.83000183  135.38400269    1.14999998    2.66000009
   17.83139038  140.94299316    1.14999998    2.67000008
   17.83361244  147.60499573    1.14999998    2.67000008
   17.83694458  144.84500122    1.14999998    2.66000009
   17.84000015  146.05999756    1.16999996    2.64000010
   17.84333420  138.62300110    1.16999996    2.66000009
   17.84666824  141.86599731    1.16999996    2.67000008
   17.84972191  135.76800537    1.19000006    2.66000009
   17.85305595  130.55200195    1.19000006    2.66000009
   17.85639000  142.31100464    1.16999996    2.64000010
   17.85944557  141.07899475    1.16999996    2.66000009
   17.86527824  141.07899475    1.16999996    2.66000009
   17.86944389  146.16600037    1.14999998    2.66000009
   17.87277794  132.71299744    1.14999998    2.66000009
   17.87611198  141.71200562    1.14999998    2.66000009
   17.87916756  128.88000488    1.16999996    2.66000009
   17.88249969  143.41000366    1.16999996    2.66000009
   17.88555527  139.29600525    1.16999996    2.66000009
   17.88888931  135.96800232    1.16999996    2.66000009
   17.89222145  137.34500122    1.16999996    2.66000009
   17.89527702  142.64799500    1.16999996    2.66000009
   17.89777756  136.97099304    1.16999996    2.66000009
   17.89888954  147.09199524    1.16999996    2.66000009
   17.90222168  136.37800598    1.16999996    2.66000009
   17.90833282  136.37800598    1.16999996    2.66000009
   17.91222191  136.03500366    1.16999996    2.66000009
   17.91555595  148.88200378    1.13000000    2.66000009
   17.91888809  142.89100647    1.13000000    2.67000008
   17.92194366  141.93800354    1.13000000    2.67000008
   17.92527771  141.35800171    1.14999998    2.67000008
   17.92860985  148.64599609    1.14999998    2.66000009
   17.93111038  144.26600647    1.13000000    2.66000009
   17.93222237  134.94900513    1.13000000    2.66000009
   17.93555450  135.88699341    1.14999998    2.66000009
   17.93861008  143.13200378    1.13000000    2.66000009
   17.94194412  138.72900391    1.14999998    2.66000009
   17.94527626  145.75000000    1.13000000    2.66000009
   17.95111275  145.75000000    1.14999998    2.66000009
   17.95527840  142.37100220    1.14999998    2.66000009
   17.95833397  144.36799622    1.14999998    2.66000009
   17.96166801  157.03199768    1.14999998    2.66000009
   17.96444511  142.05400085    1.16999996    2.64000010
   17.96527863  144.60299683    1.16999996    2.64000010
   17.96861076  140.99899292    1.16999996    2.66000009
   17.97166634  159.80499268    1.16999996    2.66000009
   17.97500038  140.74200439    1.16999996    2.66000009
   17.97833443  135.13499451    1.16999996    2.66000009
   17.98139000  151.75399780    1.14999998    2.66000009
   17.98472214  146.17300415    1.13000000    2.67000008
   17.98805618  165.46000671    1.13000000    2.66000009
   17.99388885  165.46000671    1.11000001    2.66000009
   17.99805641  169.47900391    1.11000001    2.66000009
   18.00138855  180.85499573    1.11000001    2.66000009
   18.00444412  172.34399414    1.11000001    2.66000009
   18.00777817  163.95500183    1.11000001    2.66000009
   18.01083374  184.36000061    1.09000003    2.66000009
   18.01416588  173.39700317    1.09000003    2.66000009
   18.01749992  164.08099365    1.09000003    2.66000009
   18.02055550  144.99400330    1.09000003    2.66000009
   18.02388954  173.30900574    1.09000003    2.66000009
   18.02722168  157.26899719    1.09000003    2.64000010
   18.03027725  170.83099365    1.09000003    2.66000009
   18.03111076  148.94599915    1.09000003    2.66000009
   18.03666687  148.94599915    1.11000001    2.66000009
   18.04083252  164.10600281    1.11000001    2.66000009
   18.04416656  163.28799438    1.11000001    2.66000009
   18.04722214  168.90899658    1.11000001    2.66000009
   18.06499863  138.33200073    1.13000000    2.66000009
   18.06722260  155.96200562    1.16999996    2.66000009
   18.07055664  136.77699280    1.14999998    2.66000009
   18.07389069  149.24299622    1.14999998    2.64000010
   18.07972336  149.24299622    1.21000004    2.64000010
   18.08388901  135.42399597    1.23000002    2.66000009
   18.08722305  142.11399841    1.23000002    2.64000010
   18.09027863  149.58299255    1.23000002    2.66000009
   18.09361267  154.69599915    1.21000004    2.64000010
   18.09694481  143.41299438    1.21000004    2.66000009
   18.09833336  147.35800171    1.21000004    2.66000009
   18.10055542  141.99699402    1.16999996    2.64000010
   18.10388947  137.84800720    1.16999996    2.66000009
   18.10694504  144.30499268    1.16999996    2.66000009
   18.11027908  143.59500122    1.19000006    2.61999989
   18.11361122  135.58200073    1.16999996    2.64000010
   18.11666679  141.63400269    1.16999996    2.66000009
   18.12249947  141.63400269    1.16999996    2.64000010
   18.12666702  141.24000549    1.16999996    2.66000009
   18.13000107  142.20100403    1.19000006    2.67000008
   18.13166618  143.83500671    1.16999996    2.66000009
   18.13361168  137.23100281    1.16999996    2.66000009
   18.13694382  140.31399536    1.14999998    2.64000010
   18.13999939  143.40699768    1.14999998    2.66000009
   18.14333344  136.12800598    1.14999998    2.66000009
   18.14666748  138.47599792    1.14999998    2.64000010
   18.14972115  143.02299500    1.14999998    2.66000009
   18.15305519  141.14900208    1.09000003    2.64000010
   18.15638924  154.46899414    1.07000005    2.66000009
   18.15944481  139.24600220    1.07000005    2.64000010
   18.16555595  139.24600220    1.09000003    2.66000009
   18.16972160  142.27600098    1.09000003    2.64000010
   18.17277718  139.06199646    1.07000005    2.64000010
   18.17611122  139.43499756    1.05999994    2.66000009
   18.17916679  141.52200317    1.05999994    2.66000009
   18.18249893  140.38499451    1.05999994    2.66000009
   18.18583298  143.40899658    1.07000005    2.66000009
   18.18888855  145.88900757    1.09000003    2.64000010
   18.19222069  147.37500000    1.09000003    2.64000010
   18.19555473  134.54299927    1.09000003    2.66000009
   18.19833183  140.07099915    1.09000003    2.64000010
   18.19888878  136.20199585    1.09000003    2.64000010
   18.20222282  142.75100708    1.11000001    2.64000010
   18.20833397  142.75100708    1.11000001    2.64000010
   18.21250153  130.22099304    1.11000001    2.66000009
   18.21583366  146.37500000    1.13000000    2.66000009
   18.21888924  154.91000366    1.14999998    2.64000010
   18.22222328  139.37899780    1.16999996    2.64000010
   18.22527885  143.90400696    1.16999996    2.64000010
   18.22861099  137.68400574    1.16999996    2.64000010
   18.23166656  137.80599976    1.21000004    2.61999989
   18.23222351  137.98399353    1.28999996    2.64000010
   18.23555565  148.74600220    1.33000004    2.64000010
   18.23861122  134.24299622    1.33000004    2.64000010
   18.24194527  137.35600281    1.28999996    2.64000010
   18.24527740  133.66200256    1.33000004    2.64000010
   18.25111198  133.66200256    1.25000000    2.64000010
   18.25527763  139.65800476    1.09000003    2.64000010
   18.25861168  142.90199280    1.09000003    2.64000010
   18.26166725  146.98300171    1.09000003    2.66000009
   18.26499939  146.37899780    1.07000005    2.64000010
   18.26527786  143.87600708    1.07000005    2.64000010
   18.26861000  141.13999939    1.09000003    2.64000010
   18.27166557  140.00700378    1.09000003    2.64000010
   18.27499962  139.61700439    1.11000001    2.64000010
   18.27833366  138.63299561    1.13000000    2.64000010
   18.28138924  141.31399536    1.13000000    2.64000010
   18.28472137  150.36399841    1.13000000    2.64000010
   18.28805542  142.73800659    1.14999998    2.64000010
   18.29416656  142.73800659    1.14999998    2.64000010
   18.29833221  144.54100037    1.14999998    2.64000010
   18.29861069  137.45700073    1.14999998    2.64000010
   18.30194283  134.54100037    1.16999996    2.64000010
   18.30499840  124.08200073    1.14999998    2.64000010
   18.30833244  139.88800049    1.14999998    2.64000010
   18.31166649  140.03799438    1.13000000    2.64000010
   18.31472206  135.40600586    1.13000000    2.64000010
   18.31805611  144.68099976    1.13000000    2.64000010
   18.32139015  134.15899658    1.14999998    2.61999989
   18.32444572  144.11900330    1.19000006    2.64000010
   18.32777786  135.84300232    1.21000004    2.64000010
   18.33111191  141.89700317    1.19000006    2.64000010
   18.33166695  136.37399292    1.21000004    2.64000010
   18.33694458  136.37399292    1.23000002    2.61999989
   18.34111214  133.74899292    1.26999998    2.64000010
   18.34416771  137.98300171    1.26999998    2.64000010
   18.34749985  133.39500427    1.25000000    2.64000010
   18.35083389  139.44900513    1.25000000    2.64000010
   18.35388947  140.41099548    1.25000000    2.64000010
   18.35722351  138.41400146    1.21000004    2.64000010
   18.36027908  141.48199463    1.21000004    2.64000010
   18.36361122  139.99499512    1.21000004    2.64000010
   18.36499977  141.68400574    1.21000004    2.64000010
   18.36722183  140.96899414    1.21000004    2.64000010
   18.37055588  144.02699280    1.21000004    2.64000010
   18.37388992  138.68499756    1.21000004    2.64000010
   18.37972260  138.68499756    1.19000006    2.64000010
   18.38388824  138.84399414    1.16999996    2.64000010
   18.38722229  140.80599976    1.16999996    2.61999989
   18.39027786  138.13099670    1.14999998    2.61999989
   18.39361191  132.91999817    1.14999998    2.64000010
   18.39666748  147.06100464    1.14999998    2.64000010
   18.39833260  143.28300476    1.13000000    2.64000010
   18.40027809  137.38200378    1.11000001    2.64000010
   18.40361023  141.28999329    1.13000000    2.64000010
   18.40694427  138.36199951    1.11000001    2.64000010
   18.40999985  139.88600159    1.13000000    2.61999989
   18.41333389  144.60899353    1.14999998    2.64000010
   18.41638756  143.63499451    1.16999996    2.61999989
   18.42249870  143.63499451    1.19000006    2.61999989
   18.42666626  138.22500610    1.19000006    2.61999989
   18.43000031  136.77499390    1.19000006    2.64000010
   18.43166542  138.15699768    1.21000004    2.64000010
   18.43361092  135.59500122    1.19000006    2.64000010
   18.43694305  135.30400085    1.21000004    2.61999989
   18.44027710  134.96800232    1.21000004    2.61999989
   18.44333267  138.29699707    1.21000004    2.61999989
   18.44666672  139.17300415    1.19000006    2.64000010
   18.44972038  131.85400391    1.19000006    2.64000010
   18.45305634  137.70100403    1.19000006    2.64000010
   18.45639038  130.20899963    1.19000006    2.61999989
   18.45944595  138.30499268    1.19000006    2.61999989
   18.46555710  138.30499268    1.16999996    2.61999989
   18.46944427  136.90899658    1.19000006    2.64000010
   18.47277832  138.82299805    1.16999996    2.61999989
   18.47611237  140.66000366    1.19000006    2.64000010
   18.47916794  138.89199829    1.19000006    2.61999989
   18.48250008  141.39599609    1.19000006    2.61999989
   18.48583412  139.47200012    1.19000006    2.61999989
   18.48888969  141.34599304    1.16999996    2.61999989
   18.49222183  142.31100464    1.16999996    2.61999989
   18.49555588  136.22799683    1.14999998    2.61999989
   18.49833298  133.48699951    1.14999998    2.64000010
   18.49888992  137.26699829    1.14999998    2.64000010
   18.50222206  143.01600647    1.14999998    2.61999989
   18.50833321  143.01600647    1.14999998    2.61999989
   18.51250076  146.36199951    1.14999998    2.61999989
   18.51555634  139.99099731    1.14999998    2.61999989
   18.51888847  136.75100708    1.13000000    2.61999989
   18.52222252  136.19000244    1.14999998    2.61999989
   18.52527809  135.22300720    1.13000000    2.61999989
   18.52861023  139.21099854    1.14999998    2.61999989
   18.53166580  135.81799316    1.14999998    2.61999989
   18.53222275  138.53900146    1.14999998    2.61999989
   18.53555489  134.64500427    1.13000000    2.64000010
   18.53888893  133.02299500    1.14999998    2.64000010
   18.54194450  139.53500366    1.14999998    2.64000010
   18.54527664  140.84599304    1.14999998    2.64000010
   18.55138779  140.84599304    1.14999998    2.61999989
   18.55555534  138.20799255    1.14999998    2.64000010
   18.55888748  137.27400208    1.16999996    2.61999989
   18.56194305  133.14100647    1.16999996    2.61999989
   18.56499863  139.76400757    1.16999996    2.61999989
   18.56555557  149.49000549    1.16999996    2.61999989
   18.56888962  136.90699768    1.16999996    2.61999989
   18.57222366  142.48599243    1.16999996    2.61999989
   18.57527924  140.86799622    1.13000000    2.61999989
   18.57861137  152.57400513    1.13000000    2.61999989
   18.58194542  130.38099670    1.14999998    2.61999989
   18.58500099  130.17100525    1.14999998    2.61999989
   18.58833313  140.84199524    1.16999996    2.61999989
   18.59388924  140.84199524    1.19000006    2.61999989
   18.59805679  140.65499878    1.19000006    2.61999989
   18.59861183  138.06799316    1.19000006    2.61999989
   18.60194397  144.70700073    1.19000006    2.61999989
   18.60499954  145.20100403    1.21000004    2.61999989
   18.60833359  142.82899475    1.19000006    2.61999989
   18.61166763  141.37199402    1.19000006    2.59999990
   18.61472321  129.94299316    1.21000004    2.61999989
   18.61805534  133.78700256    1.21000004    2.61999989
   18.62111092  144.73199463    1.21000004    2.61999989
   18.62444496  136.34599304    1.21000004    2.61999989
   18.62777710  137.54899597    1.21000004    2.61999989
   18.63083267  140.88200378    1.19000006    2.61999989
   18.63194466  147.11000061    1.19000006    2.61999989
   18.63666725  147.11000061    1.16999996    2.59999990
   18.64083290  146.63800049    1.16999996    2.61999989
   18.64416695  141.57000732    1.14999998    2.59999990
   18.64749908  146.15800476    1.16999996    2.61999989
   18.65055466  144.40100098    1.14999998    2.59999990
   18.65388870  148.98500061    1.19000006    2.59999990
   18.65722275  141.55599976    1.19000006    2.59999990
   18.66027832  144.05099487    1.19000006    2.61999989
   18.66361046  127.44100189    1.16999996    2.61999989
   18.66527748  142.76699829    1.19000006    2.59999990
   18.66722107  134.06300354    1.19000006    2.59999990
   18.67027664  143.16600037    1.16999996    2.61999989
   18.67361069  145.07099915    1.19000006    2.59999990
   18.67972183  145.07099915    1.19000006    2.59999990
   18.68388748  139.83299255    1.19000006    2.59999990
   18.68694305  155.57299805    1.19000006    2.59999990
   18.69027710  152.70399475    1.19000006    2.61999989
   18.69333267  138.63900757    1.19000006    2.61999989
   18.69666672  150.74600220    1.19000006    2.59999990
   18.69861031  150.23500061    1.19000006    2.61999989
   18.70027924  144.04800415    1.19000006    2.61999989
   18.70333481  145.33500671    1.19000006    2.59999990
   18.70666695  143.89199829    1.19000006    2.59999990
   18.71000099  133.38900757    1.19000006    2.59999990
   18.71305656  144.88299561    1.19000006    2.59999990
   18.71638870  151.35899353    1.19000006    2.61999989
   18.72249985  151.35899353    1.19000006    2.59999990
   18.72666740  141.69299316    1.19000006    2.59999990
   18.73000145  140.52200317    1.16999996    2.61999989
   18.73194504  133.17799377    1.14999998    2.61999989
   18.73361206  133.81399536    1.16999996    2.61999989
   18.73666763  147.11599731    1.23000002    2.59999990
   18.73999977  131.94000244    1.21000004    2.59999990
   18.74333382  140.99699402    1.19000006    2.59999990
   18.74638939  135.15899658    1.19000006    2.59999990
   18.74972153  148.90600586    1.21000004    2.59999990
   18.75305557  137.19099426    1.19000006    2.59999990
   18.75611115  139.90299988    1.19000006    2.59999990
   18.75944519  158.49699402    1.16999996    2.59999990
   18.76527786  158.49699402    1.19000006    2.61999989
   18.76944351  140.58799744    1.16999996    2.57999992
   18.77277756  151.08099365    1.16999996    2.59999990
   18.77583313  149.92199707    1.19000006    2.59999990
   18.77916718  142.08599854    1.19000006    2.59999990
   18.78249931  162.77400208    1.19000006    2.59999990
   18.78555489  150.36199951    1.19000006    2.59999990
   18.78888893  140.15100098    1.19000006    2.59999990
   18.79194450  146.77699280    1.19000006    2.59999990
   18.79527664  145.41200256    1.16999996    2.59999990
   18.79861069  154.34800720    1.16999996    2.59999990
   18.80027771  136.93200684    1.16999996    2.59999990
   18.80222130  142.12800598    1.16999996    2.59999990
   18.80805397  142.12800598    1.19000006    2.59999990
   18.81222153  144.88099670    1.19000006    2.59999990
   18.81555557  148.89100647    1.21000004    2.59999990
   18.81888962  148.09399414    1.21000004    2.59999990
   18.82194519  145.77999878    1.21000004    2.57999992
   18.82527924  133.21099854    1.21000004    2.59999990
   18.82833481  155.56900024    1.21000004    2.59999990
   18.83166695  148.71800232    1.21000004    2.59999990
   18.83361244  142.39399719    1.21000004    2.59999990
   18.83527756  140.19900513    1.23000002    2.59999990
   18.83861160  145.96099854    1.23000002    2.59999990
   18.84166718  144.02400208    1.23000002    2.59999990
   18.84500122  137.82400513    1.25000000    2.57999992
   18.85111237  137.82400513    1.28999996    2.59999990
   18.85527802  144.34899902    1.30999994    2.57999992
   18.85833359  138.23699951    1.30999994    2.57999992
   18.86166763  137.92300415    1.36000001    2.59999990
   18.86472321  131.55999756    1.34000003    2.57999992
   18.86722183  143.12199402    1.33000004    2.57999992
   18.86861038  136.98500061    1.33000004    2.57999992
   18.87166595  141.94000244    1.25000000    2.57999992
   18.87500000  137.19299316    1.25000000    2.57999992
   18.87833405  143.98599243    1.21000004    2.59999990
   18.88138962  142.86900330    1.19000006    2.57999992
   18.88472176  145.13000488    1.19000006    2.59999990
   18.88805580  139.96099854    1.19000006    2.59999990
   18.89388847  139.96099854    1.16999996    2.57999992
   18.89805603  144.20599365    1.16999996    2.59999990
   18.90055466  150.18299866    1.19000006    2.59999990
   18.90166664  139.58299255    1.19000006    2.59999990
   18.90472221  147.80599976    1.19000006    2.59999990
   18.90805435  135.30400085    1.21000004    2.57999992
   18.91138840  146.84199524    1.23000002    2.57999992
   18.91444397  142.89500427    1.23000002    2.59999990
   18.91777802  142.38900757    1.23000002    2.59999990
   18.92111015  141.33500671    1.25000000    2.59999990
   18.92416573  151.76699829    1.25000000    2.57999992
   18.92749977  137.11099243    1.25000000    2.59999990
   18.93055534  141.18200684    1.23000002    2.57999992
   18.93666649  141.18200684    1.25000000    2.57999992
   18.94083214  136.96400452    1.26999998    2.57999992
   18.94416618  138.40199280    1.28999996    2.57999992
   18.94722176  149.71899414    1.30999994    2.57999992
   18.95055580  150.11599731    1.28999996    2.57999992
   18.95388985  139.61199951    1.28999996    2.57999992
   18.95694542  136.91299438    1.28999996    2.59999990
   18.96027946  143.47300720    1.25000000    2.57999992
   18.96333504  144.00500488    1.25000000    2.57999992
   18.96666718  144.03999329    1.21000004    2.57999992
   18.96750069  149.12800598    1.21000004    2.57999992
   18.97027779  149.44799805    1.21000004    2.57999992
   18.97361183  147.91499329    1.25000000    2.57999992
   18.97944450  147.91499329    1.23000002    2.57999992
   18.98361206  143.41099548    1.61000001    2.57999992
   18.98694420  139.47500610    1.58000004    2.57999992
   18.99027824  144.83000183    1.36000001    2.57999992
   18.99333382  142.99299622    1.30999994    2.57999992
   18.99666786  140.99499512    1.33000004    2.57999992
   19.00000000  141.61999512    1.28999996    2.57999992
   19.00083351  157.55099487    1.28999996    2.57999992
   19.00361061  139.67799377    1.28999996    2.55999994
   19.00694466  144.85299683    1.34000003    2.57999992
   19.01000023  133.93099976    1.33000004    2.57999992
   19.01333427  148.57899475    1.30999994    2.57999992
   19.01666641  143.24299622    1.30999994    2.57999992
   19.02249908  143.24299622    1.33000004    2.57999992
   19.02666664  148.51100159    1.38000000    2.57999992
   19.02972221  140.84899902    1.39999998    2.57999992
   19.03305435  149.33099365    1.39999998    2.57999992
   19.03444481  141.03799438    1.38000000    2.55999994
   19.03666687  149.02299500    1.26999998    2.55999994
   19.03972244  133.68299866    1.25000000    2.57999992
   19.04305458  138.41200256    1.25000000    2.55999994
   19.04638863  141.61300659    1.25000000    2.57999992
   19.04944420  150.05599976    1.23000002    2.57999992
   19.05277634  143.28599548    1.23000002    2.57999992
   19.05611038  145.27699280    1.23000002    2.57999992
   19.05916595  140.79400635    1.23000002    2.57999992
   19.06527710  140.79400635    1.25000000    2.57999992
   19.08361244  142.60400391    1.26999998    2.55999994
   19.08694458  146.77600098    1.26999998    2.55999994
   19.09000015  150.03900146    1.28999996    2.55999994
   19.09333420  140.05700684    1.30999994    2.55999994
   19.09666824  148.01400757    1.28999996    2.55999994
   19.09972191  148.03799438    1.28999996    2.55999994
   19.10305595  149.68099976    1.28999996    2.55999994
   19.10833359  149.68099976    1.30999994    2.55999994
   19.11250114  142.82600403    1.30999994    2.55999994
   19.11583328  140.12600708    1.33000004    2.55999994
   19.11666679  142.38699341    1.33000004    2.55999994
   19.11944389  145.26699829    1.39999998    2.55999994
   19.12249947  146.49000549    1.38000000    2.55999994
   19.12583351  144.19200134    1.30999994    2.55999994
   19.12916756  151.76800537    1.26999998    2.55999994
   19.13222313  142.38699341    1.25000000    2.55999994
   19.13555527  140.89100647    1.25000000    2.55999994
   19.13888931  147.16900635    1.26999998    2.55999994
   19.14194489  143.02200317    1.26999998    2.55999994
   19.14527702  146.84500122    1.28999996    2.55999994
   19.15111160  146.84500122    1.26999998    2.55999994
   19.15527725  142.51400757    1.26999998    2.55999994
   19.15861130  142.82499695    1.28999996    2.55999994
   19.16166687  145.20799255    1.30999994    2.55999994
   19.16499901  151.41499329    1.28999996    2.55999994
   19.16833305  149.18899536    1.30999994    2.55999994
   19.17138863  144.44599915    1.30999994    2.55999994
   19.17472076  140.94200134    1.30999994    2.53999996
   19.17805481  149.61700439    1.33000004    2.55999994
   19.18111038  149.59800720    1.33000004    2.55999994
   19.18333244  145.65299988    1.33000004    2.55999994
   19.18499947  145.69400024    1.33000004    2.55999994
   19.18805504  146.82200623    1.33000004    2.55999994
   19.19416618  146.82200623    1.30999994    2.53999996
   19.19805527  142.76199341    1.30999994    2.55999994
   19.20138931  139.91499329    1.26999998    2.55999994
   19.20472336  149.98800659    1.28999996    2.53999996
   19.20777893  141.90800476    1.28999996    2.55999994
   19.21111107  143.36199951    1.28999996    2.53999996
   19.21444511  142.83999634    1.28999996    2.55999994
   19.21666718  147.64500427    1.28999996    2.53999996
   19.21805573  146.84100342    1.28999996    2.55999994
   19.22111130  141.80999756    1.26999998    2.53999996
   19.22444534  140.79100037    1.26999998    2.53999996
   19.22777748  143.43899536    1.28999996    2.53999996
   19.23083305  151.00500488    1.26999998    2.55999994
   19.23694420  151.00500488    1.28999996    2.53999996
   19.24111176  149.00399780    1.28999996    2.53999996
   19.24416733  138.55299377    1.28999996    2.53999996
   19.24749947  144.46099854    1.30999994    2.53999996
   19.25000000  148.73199463    1.30999994    2.53999996
   19.25111198  148.82699585    1.28999996    2.53999996
   19.25444412  146.90699768    1.28999996    2.53999996
   19.25749969  137.38900757    1.28999996    2.53999996
   19.26083374  146.85899353    1.30999994    2.53999996
   19.26388931  151.92999268    1.28999996    2.53999996
   19.26722145  142.80999756    1.28999996    2.53999996
   19.27055550  146.91600037    1.28999996    2.53999996
   19.27361107  157.00700378    1.28999996    2.53999996
   19.27972221  157.00700378    1.30999994    2.53999996
   19.28388786  153.01199341    1.33000004    2.55999994
   19.28722191  151.72700500    1.30999994    2.53999996
   19.29027748  140.22599792    1.33000004    2.53999996
   19.29361153  141.08999634    1.33000004    2.53999996
   19.29666710  150.65600586    1.33000004    2.53999996
   19.29999924  142.27299500    1.33000004    2.53999996
   19.30333328  146.46200562    1.33000004    2.53999996
   19.30638885  148.53799438    1.34000003    2.53999996
   19.30972099  144.24400330    1.34000003    2.53999996
   19.31305504  144.59199524    1.34000003    2.51999998
   19.31611061  138.61300659    1.34000003    2.53999996
   19.31666756  129.48399353    1.34000003    2.53999996
   19.32250023  129.48399353    1.34000003    2.51999998
   19.32666779  133.70300293    1.33000004    2.53999996
   19.33000183  147.83999634    1.30999994    2.53999996
   19.33305550  144.72399902    1.33000004    2.51999998
   19.33638954  141.38200378    1.33000004    2.51999998
   19.33972359  140.65800476    1.33000004    2.53999996
   19.34305573  143.38299561    1.33000004    2.53999996
   19.34611130  149.37899780    1.30999994    2.53999996
   19.34944534  142.76400757    1.33000004    2.53999996
   19.35000038  156.35299683    1.33000004    2.53999996
   19.35305595  151.11199951    1.30999994    2.53999996
   19.35611153  137.03999329    1.30999994    2.51999998
   19.35944557  150.97300720    1.30999994    2.51999998
   19.36527824  150.97300720    1.34000003    2.53999996
   19.36944389  137.34599304    1.34000003    2.53999996
   19.37277794  136.73100281    1.34000003    2.50000000
   19.37611198  143.87600708    1.34000003    2.53999996
   19.37916756  134.17700195    1.33000004    2.53999996
   19.38249969  145.83999634    1.30999994    2.51999998
   19.38333321  148.27799988    1.28999996    2.51999998
   19.38611031  145.21499634    1.28999996    2.51999998
   19.38916588  144.72200012    1.28999996    2.53999996
   19.39249992  142.96699524    1.28999996    2.51999998
   19.39583397  153.25799561    1.30999994    2.51999998
   19.39888954  147.08900452    1.33000004    2.51999998
   19.40222168  150.07000732    1.33000004    2.51999998
   19.40833282  150.07000732    1.34000003    2.51999998
   19.41250038  151.82400513    1.33000004    2.51999998
   19.41555595  145.21000671    1.33000004    2.51999998
   19.41666603  140.50300598    1.33000004    2.51999998
   19.41916656  147.13000488    1.33000004    2.51999998
   19.42222214  152.08299255    1.33000004    2.51999998
   19.42555428  149.78799438    1.33000004    2.51999998
   19.42888832  143.46400452    1.30999994    2.51999998
   19.43194389  150.00000000    1.30999994    2.51999998
   19.43527603  154.72500610    1.33000004    2.51999998
   19.43861008  148.63299561    1.34000003    2.51999998
   19.44166565  144.36099243    1.34000003    2.50000000
   19.44499969  135.52200317    1.36000001    2.50000000
   19.45111275  135.52200317    1.38000000    2.50000000
   19.45527840  143.97000122    1.39999998    2.50000000
   19.45833397  146.79200745    1.41999996    2.51999998
   19.46166801  159.10699463    1.44000006    2.50000000
   19.46500015  152.01899719    1.41999996    2.50000000
   19.46805573  139.56500244    1.39999998    2.50000000
   19.47138977  153.89599609    1.39999998    2.50000000
   19.47472191  152.28900146    1.38000000    2.50000000
   19.47777748  149.04800415    1.39999998    2.50000000
   19.48111153  149.98899841    1.38000000    2.48000002
   19.48333359  147.07099915    1.38000000    2.48000002
   19.48472214  147.62300110    1.38000000    2.50000000
   19.48777771  156.70300293    1.38000000    2.50000000
   19.49388885  156.70300293    1.41999996    2.50000000
   19.49805641  154.75599670    1.41999996    2.50000000
   19.50138855  147.04800415    1.44000006    2.50000000
   19.50472260  149.45700073    1.44000006    2.50000000
   19.50777817  141.53100586    1.44000006    2.50000000
   19.51111031  150.81100464    1.46000004    2.50000000
   19.51416588  151.01100159    1.44000006    2.50000000
   19.51666641  161.57400513    1.44000006    2.50000000
   19.51805496  143.98500061    1.44000006    2.50000000
   19.52111053  147.09899902    1.44000006    2.48000002
   19.52444458  145.38000488    1.46000004    2.48000002
   19.52777672  148.84399414    1.44000006    2.50000000
   19.53083229  148.11099243    1.46000004    2.48000002
   19.53694344  148.11099243    1.46000004    2.48000002
   19.54083252  154.32699585    1.44000006    2.48000002
   19.54416656  150.38299561    1.44000006    2.48000002
   19.54749870  144.28399658    1.44000006    2.48000002
   19.54999924  150.64100647    1.44000006    2.48000002
   19.55111122  148.29200745    1.44000006    2.48000002
   19.55416679  153.30400085    1.44000006    2.48000002
   19.55749893  154.78500366    1.44000006    2.48000002
   19.56083298  156.22200012    1.44000006    2.48000002
   19.56388855  154.38200378    1.44000006    2.48000002
   19.56722260  148.98899841    1.44000006    2.48000002
   19.57055664  143.72500610    1.50000000    2.48000002
   19.57361221  156.89999390    1.50000000    2.48000002
   19.57972336  156.89999390    1.48000002    2.48000002
   19.58388901  142.09300232    1.50000000    2.48000002
   19.58694458  144.41799927    1.50000000    2.48000002
   19.59027863  153.91099548    1.50000000    2.48000002
   19.59361267  152.73100281    1.50000000    2.48000002
   19.59666824  152.07899475    1.50000000    2.48000002
   19.60000038  150.29299927    1.50000000    2.48000002
   19.60333443  149.26800537    1.51999998    2.48000002
   19.60639000  154.64599609    1.51999998    2.46000004
   19.60972214  147.86399841    1.51999998    2.48000002
   19.61277771  148.77099609    1.51999998    2.48000002
   19.61611176  147.42999268    1.51999998    2.48000002
   19.61666679  150.66099548    1.51999998    2.46000004
   19.62249947  150.66099548    1.51999998    2.48000002
   19.62666702  152.21699524    1.51999998    2.46000004
   19.62972260  154.08900452    1.51999998    2.46000004
   19.63305473  154.31300354    1.53999996    2.46000004
   19.63638878  140.96600342    1.51999998    2.46000004
   19.63944435  144.57099915    1.53999996    2.46000004
   19.64277840  137.50799561    1.53999996    2.46000004
   19.64611053  142.00199890    1.53999996    2.46000004
   19.64916611  161.45300293    1.53999996    2.46000004
   19.64999962  160.65199280    1.53999996    2.46000004
   19.65277672  164.91099548    1.53999996    2.46000004
   19.65611076  170.73399353    1.51999998    2.46000004
   19.65916634  155.83500671    1.51999998    2.46000004
   19.66527748  155.83500671    1.50000000    2.46000004
   19.66944313  193.31700134    1.50000000    2.46000004
   19.67277718  177.03199768    1.48000002    2.46000004
   19.67583275  179.17300415    1.48000002    2.46000004
   19.67916679  317.86300659    1.50000000    2.48000002
   19.68249893   46.53929901    1.50000000    2.46000004
   19.68610954   -1.00000000    1.48000002    2.46000004
   19.68916512   -1.00000000    1.48000002    2.46000004
   19.69249916   -1.00000000    1.48000002    2.46000004
   19.69583321   -1.00000000    1.48000002    2.46000004
   19.69888878   -1.00000000    1.50000000    2.46000004
   19.70222282   -1.00000000    1.48000002    2.46000004
   19.71222305   -1.00000000    1.50000000    2.46000004
   19.71555710   -1.00000000    1.48000002    2.46000004
   19.71916771   -1.00000000    1.48000002    2.46000004
   19.72222328   -1.00000000    1.48000002    2.46000004
   19.72555542   -1.00000000    1.48000002    2.46000004
   19.72888947   -1.00000000    1.48000002    2.44000006
   19.73194504   -1.00000000    1.48000002    2.46000004
   19.73527718   -1.00000000    1.50000000    2.46000004
   19.73833275   -1.00000000    1.50000000    2.44000006
   19.74166679   -1.00000000    1.51999998    2.44000006
   19.74500084   -1.00000000    1.51999998    2.44000006
   19.75499916   -1.00000000    1.53999996    2.44000006
   19.75833321   -1.00000000    1.51999998    2.44000006
   19.76166725   -1.00000000    1.48000002    2.46000004
   19.76472282   -1.00000000    1.50000000    2.44000006
   19.76805496   -1.00000000    1.50000000    2.44000006
   19.77111053   -1.00000000    1.48000002    2.44000006
   19.77444458   -1.00000000    1.48000002    2.44000006
   19.77777672   -1.00000000    1.48000002    2.44000006
   19.78083229   -1.00000000    1.48000002    2.44000006
   19.78444481   -1.00000000    1.50000000    2.44000006
   19.78777695   -1.00000000    1.50000000    2.44000006
   19.79777718   -1.00000000    1.48000002    2.42000008
   19.80111122   -1.00000000    1.48000002    2.42000008
   19.80444336   -1.00000000    1.48000002    2.44000006
   19.80749893   -1.00000000    1.50000000    2.44000006
   19.81083298   -1.00000000    1.51999998    2.42000008
   19.81416512   -1.00000000    1.51999998    2.42000008
   19.81777954   -1.00000000    1.48000002    2.42000008
   19.82083511   -1.00000000    1.48000002    2.42000008
   19.82416725   -1.00000000    1.44000006    2.42000008
   19.82750130   -1.00000000    1.44000006    2.42000008
   19.83055687   -1.00000000    1.41999996    2.42000008
   19.84083366   -1.00000000    1.44000006    2.44000006
   19.84388924   -1.00000000    1.44000006    2.44000006
   19.84722328   -1.00000000    1.44000006    2.42000008
   19.85083389   -1.00000000    1.44000006    2.42000008
   19.85388947   -1.00000000    1.46000004    2.42000008
   19.85722351   -1.00000000    1.46000004    2.42000008
   19.86055565   -1.00000000    1.48000002    2.42000008
   19.86361122   -1.00000000    1.46000004    2.42000008
   19.86694527   -1.00000000    1.46000004    2.42000008
   19.87000084   -1.00000000    1.48000002    2.42000008
   19.87333298   -1.00000000    1.51999998    2.42000008
   19.88361168   -1.00000000    1.55999994    2.42000008
   19.88694382   -1.00000000    1.55999994    2.40000010
   19.88999939   -1.00000000    1.53999996    2.42000008
   19.89333344   -1.00000000    1.53999996    2.40000010
   19.89638901   -1.00000000    1.51999998    2.40000010
   19.89972115   -1.00000000    1.51999998    2.40000010
   19.90305519   -1.00000000    1.53999996    2.42000008
   19.90611076   -1.00000000    1.53999996    2.40000010
   19.90944481   -1.00000000    1.55999994    2.40000010
   19.91277695   -1.00000000    1.53999996    2.40000010
   19.91583252   -1.00000000    1.53999996    2.40000010
   19.92638779   -1.00000000    1.51999998    2.40000010
   19.92972183   -1.00000000    1.50000000    2.40000010
   19.93277740   -1.00000000    1.50000000    2.39000010
   19.93610954   -1.00000000    1.50000000    2.40000010
   19.93944359   -1.00000000    1.50000000    2.40000010
   19.94249916   -1.00000000    1.50000000    2.40000010
   19.94583321   -1.00000000    1.50000000    2.40000010
   19.94916534   -1.00000000    1.50000000    2.40000010
   19.95277786   -1.00000000    1.51999998    2.40000010
   19.95583344   -1.00000000    1.51999998    2.40000010
   19.95916748   -1.00000000    1.51999998    2.40000010
   19.96916771   -1.00000000    1.53999996    2.39000010
   19.97249985   -1.00000000    1.55999994    2.39000010
   19.97583389   -1.00000000    1.55999994    2.39000010
   19.97888947   -1.00000000    1.55999994    2.39000010
   19.98222351   -1.00000000    1.55999994    2.40000010
   19.98583412   -1.00000000    1.55999994    2.39000010
   19.98888969   -1.00000000    1.58000004    2.40000010
   19.99222183   -1.00000000    1.58000004    2.39000010
   19.99555588   -1.00000000    1.58000004    2.39000010
   19.99861145   -1.00000000    1.58000004    2.39000010
   20.00194359   -1.00000000    1.58000004    2.39000010
   20.01222229   -1.00000000    1.53999996    2.39000010
   20.01527786   -1.00000000    1.53999996    2.39000010
   20.01888847   -1.00000000    1.53999996    2.39000010
   20.02194405   -1.00000000    1.53999996    2.39000010
   20.02527809   -1.00000000    1.53999996    2.39000010
   20.02861023   -1.00000000    1.53999996    2.36999989
   20.03166580   -1.00000000    1.53999996    2.36999989
   20.03499985   -1.00000000    1.53999996    2.36999989
   20.03833199   -1.00000000    1.53999996    2.36999989
   20.04138756   -1.00000000    1.55999994    2.36999989
   20.04472160   -1.00000000    1.55999994    2.36999989
   20.05499840   -1.00000000    1.55999994    2.39000010
   20.05833244   -1.00000000    1.55999994    2.36999989
   20.06138802   -1.00000000    1.53999996    2.36999989
   20.06472206   -1.00000000    1.53999996    2.36999989
   20.06777954   -1.00000000    1.53999996    2.36999989
   20.07111168   -1.00000000    1.55999994    2.36999989
   20.07444572   -1.00000000    1.55999994    2.36999989
   20.07750130   -1.00000000    1.55999994    2.34999990
   20.08083344   -1.00000000    1.58000004    2.36999989
   20.10805511   -1.00000000    1.55999994    2.34999990
   20.11138916   -1.00000000    1.55999994    2.34999990
   20.11472321   -1.00000000    1.58000004    2.34999990
   20.11805534   -1.00000000    1.61000001    2.32999992
   20.12111092   -1.00000000    1.63000000    2.34999990
   20.12444496   -1.00000000    1.63000000    2.34999990
   20.12777710   -1.00000000    1.63000000    2.32999992
   20.13083267   -1.00000000    1.64999998    2.34999990
   20.13416672   -1.00000000    1.64999998    2.32999992
   20.13750076   -1.00000000    1.64999998    2.32999992
   20.14055634   -1.00000000    1.64999998    2.34999990
   20.15083313   -1.00000000    1.64999998    2.32999992
   20.15416718   -1.00000000    1.69000006    2.32999992
   20.15722275   -1.00000000    1.69000006    2.32999992
   20.16055489   -1.00000000    1.69000006    2.32999992
   20.16388893   -1.00000000    1.69000006    2.32999992
   20.16694450   -1.00000000    1.66999996    2.32999992
   20.17027664   -1.00000000    1.69000006    2.32999992
   20.17333221   -1.00000000    1.69000006    2.32999992
   20.17666626   -1.00000000    1.66999996    2.30999994
   20.18000031   -1.00000000    1.66999996    2.30999994
   20.18305397   -1.00000000    1.69000006    2.32999992
   20.19361115   -1.00000000    1.69000006    2.30999994
   20.19694328   -1.00000000    1.71000004    2.30999994
   20.20027924   -1.00000000    1.71000004    2.30999994
   20.20333481   -1.00000000    1.69000006    2.32999992
   20.20666695   -1.00000000    1.69000006    2.30999994
   20.21000099   -1.00000000    1.71000004    2.30999994
   20.21305656   -1.00000000    1.71000004    2.30999994
   20.21638870   -1.00000000    1.71000004    2.30999994
   20.22000122   -1.00000000    1.73000002    2.30999994
   20.22305679   -1.00000000    1.73000002    2.30999994
   20.22638893   -1.00000000    1.73000002    2.30999994
   20.23666763   -1.00000000    1.71000004    2.30999994
   20.23972321   -1.00000000    1.71000004    2.30999994
   20.24305534   -1.00000000    1.71000004    2.28999996
   20.24611092   -1.00000000    1.71000004    2.28999996
   20.24944496   -1.00000000    1.71000004    2.28999996
   20.25305557   -1.00000000    1.73000002    2.30999994
   20.25611115   -1.00000000    1.73000002    2.28999996
   20.25944519   -1.00000000    1.73000002    2.28999996
   20.26250076   -1.00000000    1.73000002    2.28999996
   20.26583290   -1.00000000    1.73000002    2.30999994
   20.26916695   -1.00000000    1.73000002    2.28999996
   20.27944374   -1.00000000    1.73000002    2.30999994
   20.28249931   -1.00000000    1.73000002    2.28999996
   20.28638840   -1.00000000    1.73000002    2.28999996
   20.28944397   -1.00000000    1.73000002    2.28999996
   20.29277802   -1.00000000    1.73000002    2.28999996
   20.29583359   -1.00000000    1.75000000    2.28999996
