    HOUR (UT)   FLARE FACTOR    SKY TESTER    SUN TESTER
   12.25083351   -1.00000000   -1.00000000   -1.00000000
   12.27361107  371.25799561    4.90999985    1.76999998
   12.27694416  115.37000275    4.90999985    1.76999998
   12.28027725  333.51199341    4.90999985    1.78999996
   12.28333378  332.42898560    4.90999985    1.80999994
   12.28666687  304.95199585    4.90999985    1.83000004
   12.29000092  246.79899597    4.90999985    1.83000004
   12.29388905  246.79899597    4.90999985    1.85000002
   12.29805565  280.36099243    4.90999985    1.88000000
   12.30138874  302.81500244    4.90999985    1.89999998
   12.30472279  277.32598877    4.90999985    1.94000006
   12.30666733  269.79098511    4.90999985    1.96000004
   12.30833340  270.93499756    4.90999985    1.96000004
   12.31166649  276.29000854    4.90999985    1.98000002
   12.31472206  265.71899414    4.90999985    1.96000004
   12.31805515  267.76098633    4.90999985    1.98000002
   12.32111073  262.73001099    4.90999985    1.98000002
   12.32444477  266.02999878    4.90999985    1.98000002
   12.32777786  249.13999939    4.90999985    1.98000002
   12.33083344  238.75999451    4.90999985    2.00000000
   12.33694458  238.75999451    4.90999985    2.00000000
   12.34111118  231.80900574    4.90999985    2.00000000
   12.34416676  232.24299622    4.90999985    2.00000000
   12.34749985  241.26699829    4.90999985    2.01999998
   12.35055637  246.61199951    4.90999985    2.00000000
   12.35388947  242.22099304    4.90999985    2.01999998
   12.35722256  263.09500122    4.90999985    2.01999998
   12.36027813  262.39498901    4.90999985    2.01999998
   12.36361122  226.30400085    4.90999985    2.01999998
   12.36694431  254.20799255    4.90999985    2.01999998
   12.37027836  234.03999329    4.90999985    2.01999998
   12.37333393  227.22799683    4.90999985    2.03999996
   12.37388897  273.30200195    4.90999985    2.01999998
   12.37972260  273.30200195    4.90999985    2.03999996
   12.38388920  236.10699463    4.90999985    2.03999996
   12.38694477  258.76400757    4.90999985    2.03999996
   12.39027786  244.42900085    4.90999985    2.03999996
   12.39361095  251.41299438    4.90999985    2.03999996
   12.39666653  256.26300049    4.90999985    2.05999994
   12.39999962  240.94700623    4.90999985    2.03999996
   12.40333271  233.63800049    4.90999985    2.05999994
   12.40638828  248.71400452    4.90999985    2.05999994
   12.40694427  232.92599487    4.90999985    2.05999994
   12.41027737  238.96400452    4.90999985    2.05999994
   12.41333294  231.07000732    4.90999985    2.05999994
   12.41666698  233.75799561    4.90999985    2.05999994
   12.42250061  233.75799561    4.90999985    2.07999992
   12.42666721  244.70799255    4.90999985    2.05999994
   12.43000031  233.18499756    4.90999985    2.07999992
   12.43305588  239.07699585    4.90999985    2.07999992
   12.43638897  226.71200562    4.90999985    2.07999992
   12.43972206  235.59300232    4.90999985    2.07999992
   12.44027805  241.85800171    4.90999985    2.07999992
   12.44333363  226.60000610    4.90999985    2.09999990
   12.44638920  249.47399902    4.90999985    2.09999990
   12.44972229  237.05799866    4.90999985    2.07999992
   12.45305538  237.85099792    4.90999985    2.07999992
   12.45611095  236.22300720    4.90999985    2.07999992
   12.45944405  240.15199280    4.90999985    2.07999992
   12.46527767  240.15199280    4.90999985    2.09999990
   12.46944427  239.51600647    4.90999985    2.09999990
   12.47277737  221.55099487    4.90999985    2.09999990
   12.47361088  215.34599304    4.90999985    2.09999990
   12.47638798  243.38400269    4.90999985    2.11999989
   12.47944355  238.06199646    4.90999985    2.09999990
   12.48277760  230.33099365    4.90999985    2.09999990
   12.48611164  220.82000732    4.90999985    2.09999990
   12.48916721  241.21200562    4.90999985    2.11999989
   12.49250031  237.89300537    4.90999985    2.11999989
   12.49583340  226.95700073    4.80999994    2.11999989
   12.49888897  224.05299377    4.61999989    2.11999989
   12.50222206  218.90199280    4.26999998    2.11999989
   12.50833321  218.90199280    3.57999992    2.11999989
   12.51249981  210.31199646    3.09999990    2.13000011
   12.51555538  229.05799866    2.71000004    2.11999989
   12.51888847  225.74099731    2.36999989    2.13000011
   12.52194405  205.23699951    2.01999998    2.11999989
   12.52527714  203.36999512    1.78999996    2.13000011
   12.52861118  213.27400208    1.76999998    2.13000011
   12.53166676  217.28100586    1.69000006    2.13000011
   12.53500080  211.17500305    1.55999994    2.13000011
   12.53833389  215.89300537    1.55999994    2.13000011
   12.54027843  211.27499390    1.30999994    2.13000011
   12.54194450  218.29699707    1.30999994    2.13000011
   12.54500008  213.71099854    1.30999994    2.13000011
   12.55111122  213.71099854    1.16999996    2.15000010
   12.55527782  218.06300354    1.05999994    2.15000010
   12.55833340  222.00599670    1.05999994    2.15000010
   12.56166649  220.18899536    1.05999994    2.15000010
   12.56500053  232.95399475    1.00000000    2.15000010
   12.56805515  215.43099976    0.80000001    2.15000010
   12.57138920  219.28199768    0.76999998    2.15000010
   12.57361126  216.30900574    0.76999998    2.17000008
   12.57499981  227.85400391    0.75000000    2.17000008
   12.57805538  220.59599304    0.73000002    2.17000008
   12.58138847  221.08599854    0.73000002    2.17000008
   12.58472157  225.14599609    0.70999998    2.17000008
   12.58777714  207.91499329    0.70999998    2.17000008
   12.59388828  207.91499329    0.69000000    2.17000008
   12.59805489  206.73300171    0.69000000    2.17000008
   12.60138893  214.39999390    0.69000000    2.17000008
   12.60444450  223.09899902    0.69000000    2.17000008
   12.60694504  211.71299744    0.69000000    2.17000008
   12.60833359  216.52200317    0.69000000    2.17000008
   12.61138916  225.38999939    0.69000000    2.17000008
   12.61472225  200.04100037    0.64999998    2.17000008
   12.61805534  227.97599792    0.64999998    2.19000006
   12.62111092  210.82099915    0.64999998    2.19000006
   12.62444496  227.30999756    0.67000002    2.19000006
   12.62777805  212.25300598    0.64999998    2.19000006
   12.63083363  216.33500671    0.64999998    2.19000006
   12.63666630  216.33500671    0.64999998    2.19000006
   12.64083290  219.10499573    0.64999998    2.21000004
   12.64416695  219.76100159    0.64999998    2.19000006
   12.64750004  210.55900574    0.64999998    2.19000006
   12.65055561  228.97399902    0.64999998    2.21000004
   12.65388870  221.42300415    0.64999998    2.21000004
   12.65694427  217.14500427    0.63000000    2.21000004
   12.66027737  208.56799316    0.63000000    2.21000004
   12.66361046  197.75199890    0.64999998    2.21000004
   12.66666698  196.32600403    0.64999998    2.21000004
   12.67000008  196.47700500    0.63000000    2.23000002
   12.67333412  200.55400085    0.63000000    2.23000002
   12.67361164  213.59300232    0.63000000    2.23000002
   12.67972279  213.59300232    0.63000000    2.23000002
   12.68388939  196.64799500    0.63000000    2.21000004
   12.68694496  197.30099487    0.63000000    2.23000002
   12.69027805  192.35499573    0.63000000    2.23000002
   12.69361115  211.80200195    0.63000000    2.23000002
   12.69666672  194.92399597    0.63000000    2.23000002
   12.69999981  198.25999451    0.63000000    2.23000002
   12.70305538  201.57899475    0.63000000    2.23000002
   12.70638847  196.64700317    0.63000000    2.25000000
   12.70694447  213.19299316    0.63000000    2.23000002
   12.71000004  208.83299255    0.63000000    2.23000002
   12.71333313  200.83200073    0.63000000    2.23000002
   12.71638870  183.53199768    0.63000000    2.23000002
   12.72249985  183.53199768    0.63000000    2.25000000
   12.72666645  192.33599854    0.63000000    2.23000002
   12.72972202  196.01100159    0.63000000    2.23000002
   12.73305511  209.39700317    0.63000000    2.23000002
   12.73638916  202.84800720    0.63000000    2.25000000
   12.73944473  210.32800293    0.63000000    2.25000000
   12.74027824  199.87899780    0.63000000    2.25000000
   12.74305534  184.22700500    0.61000001    2.25000000
   12.74638939  195.84100342    0.63000000    2.23000002
   12.74944496  182.52099609    0.61000001    2.25000000
   12.75277805  189.88299561    0.61000001    2.25000000
   12.75611115  187.93200684    0.61000001    2.25000000
   12.75916672  183.58900452    0.61000001    2.25000000
   12.76527786  183.58900452    0.61000001    2.26999998
   12.76944447  178.03799438    0.61000001    2.26999998
   12.77277756  198.52900696    0.61000001    2.26999998
   12.77361107  202.90100098    0.61000001    2.26999998
   12.77638817  194.76800537    0.61000001    2.26999998
   12.77972221  201.86999512    0.61000001    2.26999998
   12.78277779  188.06700134    0.61000001    2.26999998
   12.78611183  184.68699646    0.58999997    2.26999998
   12.78944492  188.48300171    0.58999997    2.26999998
   12.79250050  202.18099976    0.61000001    2.26999998
   12.79583359  203.49600220    0.58999997    2.28999996
   12.79916668  190.86099243    0.58999997    2.28999996
   12.80222225  186.10499573    0.58999997    2.28999996
   12.80805588  186.10499573    0.69000000    2.28999996
   12.81222248  185.95300293    0.88000000    2.26999998
   12.81555557  196.02099609    0.81999999    2.28999996
   12.81888866  175.66200256    0.81999999    2.28999996
   12.82194424  187.32000732    0.83999997    2.28999996
   12.82527733  194.07099915    0.83999997    2.28999996
   12.82833290  193.78100586    0.69000000    2.28999996
   12.83166695  196.39900208    0.63000000    2.28999996
   12.83500004  205.44400024    0.63000000    2.28999996
   12.83805561  203.49899292    0.58999997    2.28999996
   12.84055519  195.54699707    0.61000001    2.28999996
   12.84166622  192.59500122    0.61000001    2.28999996
   12.84499931  193.63900757    0.58999997    2.28999996
   12.85111141  193.63900757    0.58999997    2.28999996
   12.85500050  207.67999268    0.58999997    2.30999994
   12.85833359  180.56199646    0.58999997    2.30999994
   12.86166668  192.77299500    0.58999997    2.32999992
   12.86472225  182.76300049    0.61000001    2.30999994
   12.86805534  174.57800293    0.58999997    2.30999994
   12.87138939  190.56399536    0.58999997    2.30999994
   12.87388897  206.94000244    0.58999997    2.30999994
   12.87472248  190.98699951    0.58999997    2.30999994
   12.87805557  195.84599304    0.58999997    2.30999994
   12.88111115  198.61999512    0.58999997    2.30999994
   12.88444424  191.47599792    0.58999997    2.30999994
   12.88777733  180.97000122    0.56999999    2.30999994
   12.89388847  180.97000122    0.56999999    2.32999992
   12.89805508  187.01300049    0.58999997    2.32999992
   12.90111065  186.44999695    0.56999999    2.32999992
   12.90444374  186.02299500    0.56999999    2.32999992
   12.90722179  194.42900085    0.56999999    2.32999992
   12.90805531  192.46699524    0.56999999    2.32999992
   12.91138840  193.40800476    0.56999999    2.32999992
   12.91472149  198.47700500    0.58999997    2.32999992
   12.91777802  191.28900146    0.56999999    2.32999992
   12.92111111  209.42500305    0.56999999    2.32999992
   12.92416668  216.72300720    0.56999999    2.32999992
   12.92750072  193.88299561    0.56999999    2.32999992
   12.93083382  195.85699463    0.56999999    2.32999992
   12.93666649  195.85699463    0.56999999    2.32999992
   12.94083309  184.76899719    0.56999999    2.32999992
   12.94416714  187.69299316    0.56999999    2.32999992
   12.94722271  193.28900146    0.56999999    2.34999990
   12.95055580  180.70199585    0.56999999    2.34999990
   12.95361137  186.27499390    0.56999999    2.34999990
   12.95694447  173.99600220    0.56999999    2.34999990
   12.96027756  192.02400208    0.55000001    2.34999990
   12.96333313  193.46099854    0.55000001    2.34999990
   12.96666622  192.09700012    0.55000001    2.34999990
   12.96972179  178.11700439    0.55000001    2.36999989
   12.97305489  192.46800232    0.55000001    2.36999989
   12.97388840  187.67500305    0.56999999    2.36999989
   12.97944355  187.67500305    0.55000001    2.34999990
   12.98361111  201.11399841    0.56999999    2.36999989
   12.98694515  191.58000183    0.55000001    2.36999989
   12.99000072  188.48399353    0.55000001    2.36999989
   12.99333382  188.74600220    0.55000001    2.36999989
   12.99666691  178.15800476    0.55000001    2.36999989
   12.99972248  186.07600403    0.55000001    2.36999989
   13.00305557  171.60699463    0.55000001    2.36999989
   13.00638866  181.83799744    0.55000001    2.36999989
   13.00722218  190.55200195    0.55000001    2.36999989
   13.00972176  189.62600708    0.55000001    2.36999989
   13.01305580  188.71299744    0.55000001    2.36999989
   13.01611137  189.40199280    0.55000001    2.36999989
   13.02250004  189.40199280    0.56999999    2.36999989
   13.02638817  191.13600159    0.55000001    2.36999989
   13.02972221  188.38000488    0.55000001    2.36999989
   13.03305531  182.47300720    0.55000001    2.36999989
   13.03611183  190.16999817    0.56999999    2.36999989
   13.03944492  185.19799805    0.55000001    2.39000010
   13.04055595  185.50000000    0.55000001    2.39000010
   13.04305553  182.09500122    0.55000001    2.39000010
   13.04638958  179.92199707    0.55000001    2.39000010
   13.04944515  178.83200073    0.55000001    2.39000010
   13.05277824  174.38400269    0.55000001    2.39000010
   13.05611134  181.11700439    0.55000001    2.40000010
   13.05916691  175.67500305    0.55000001    2.39000010
   13.06527805  175.67500305    0.55000001    2.39000010
   13.06944466  176.11500549    0.55000001    2.40000010
   13.07250023  177.40699768    0.55000001    2.39000010
   13.07388878  176.27499390    0.55000001    2.39000010
   13.07611084  185.38400269    0.55000001    2.39000010
   13.07944393  179.08900452    0.55000001    2.40000010
   13.08277798  178.72000122    0.55000001    2.40000010
   13.08583260  186.42300415    0.55000001    2.40000010
   13.08916664  191.56900024    0.55000001    2.39000010
   13.09222221  195.71099854    0.55000001    2.40000010
   13.09555531  182.95899963    0.55000001    2.40000010
   13.09888840  194.14500427    0.55000001    2.40000010
   13.10194492  188.99400330    0.55000001    2.40000010
   13.10805607  188.99400330    0.55000001    2.40000010
   13.11222267  183.96200562    0.55000001    2.40000010
   13.11527824  182.40600586    0.55000001    2.40000010
   13.11861134  185.42799377    0.55000001    2.40000010
   13.12194443  178.48699951    0.55000001    2.40000010
   13.12527752  185.51199341    0.55000001    2.40000010
   13.12833309  188.85000610    0.55000001    2.40000010
   13.13166714  186.41600037    0.55000001    2.40000010
   13.13472176  181.47999573    0.55000001    2.40000010
   13.13805580  177.70199585    0.55000001    2.40000010
   13.14055538  183.72799683    0.55000001    2.40000010
   13.14166641  186.33799744    0.55000001    2.42000008
   13.14499950  183.52999878    0.55000001    2.42000008
   13.15083313  183.52999878    0.55000001    2.42000008
   13.15499973  179.90400696    0.55000001    2.42000008
   13.15833282  167.56100464    0.55000001    2.42000008
   13.16138840  169.47599792    0.52999997    2.42000008
   13.16472149  174.72399902    0.55000001    2.42000008
   13.16805553  171.83099365    0.52999997    2.42000008
   13.17111111  179.58999634    0.55000001    2.42000008
   13.17388916  171.10899353    0.55000001    2.42000008
   13.17472267  180.90699768    0.52999997    2.42000008
   13.17805576  178.88499451    0.52999997    2.42000008
   13.18138885  186.17999268    0.55000001    2.42000008
   13.18444443  193.15499878    0.52999997    2.42000008
   13.18777752  176.04200745    0.52999997    2.42000008
   13.19361115  176.04200745    0.55000001    2.42000008
   13.19777775  180.95300293    0.52999997    2.42000008
   13.20111084  181.32699585    0.52999997    2.42000008
   13.20444393  176.50799561    0.52999997    2.42000008
   13.20722198  177.33700562    0.55000001    2.42000008
   13.20777798  179.09800720    0.55000001    2.42000008
   13.21111107  177.48300171    0.52999997    2.42000008
   13.21444416  172.38000488    0.52999997    2.44000006
   13.21749973  169.63400269    0.52999997    2.44000006
   13.22083282  176.66999817    0.52999997    2.44000006
   13.22388840  184.84599304    0.52999997    2.44000006
   13.22722149  175.85899353    0.52999997    2.42000008
   13.23055553  171.97999573    0.52999997    2.44000006
   13.23666668  171.97999573    0.55000001    2.44000006
   13.24083328  174.37699890    0.55000001    2.44000006
   13.24388885  188.54699707    0.52999997    2.46000004
   13.24722290  173.63000488    0.55000001    2.44000006
   13.25055599  180.85400391    0.52999997    2.46000004
   13.25361156  168.19400024    0.52999997    2.46000004
   13.25694466  176.07499695    0.52999997    2.46000004
   13.26000023  173.35200500    0.52999997    2.46000004
   13.26333332  175.29299927    0.52999997    2.46000004
   13.26666641  170.42399597    0.52999997    2.46000004
   13.26972198  172.26800537    0.52999997    2.46000004
   13.27305508  167.46899414    0.52999997    2.46000004
   13.27388859  180.98100281    0.52999997    2.46000004
   13.29444504  180.98100281    0.52999997    2.46000004
   13.29861164  176.52400208    0.51999998    2.46000004
   13.30194473  175.77499390    0.51999998    2.46000004
   13.30500031  185.65199280    0.52999997    2.46000004
   13.30722237  164.03599548    0.52999997    2.46000004
   13.30861092  173.62199402    0.52999997    2.46000004
   13.31194496  180.21299744    0.52999997    2.46000004
   13.31527805  178.13499451    0.51999998    2.46000004
   13.31833363  174.63000488    0.51999998    2.46000004
   13.32166672  177.66799927    0.51999998    2.46000004
   13.32499981  165.59399414    0.51999998    2.48000002
   13.32805538  170.36500549    0.52999997    2.46000004
   13.33138847  178.53100586    0.52999997    2.46000004
   13.33722210  178.53100586    0.51999998    2.48000002
   13.34138870  172.00399780    0.52999997    2.46000004
   13.34472179  180.52999878    0.52999997    2.48000002
   13.34777737  171.12899780    0.52999997    2.48000002
   13.35111141  172.18299866    0.51999998    2.48000002
   13.35416698  169.96200562    0.52999997    2.48000002
   13.35750008  176.57000732    0.51999998    2.48000002
   13.36083412  184.67700195    0.52999997    2.48000002
   13.36388969  174.58599854    0.52999997    2.48000002
   13.36722279  177.25500488    0.52999997    2.48000002
   13.37055588  166.72999573    0.51999998    2.48000002
   13.37361145  167.21099854    0.51999998    2.48000002
   13.37416649  163.97399902    0.51999998    2.48000002
   13.38000011  163.97399902    0.51999998    2.48000002
   13.38416672  165.64799500    0.51999998    2.48000002
   13.38749981  166.80200195    0.51999998    2.48000002
   13.39055538  164.93200684    0.52999997    2.48000002
   13.39388847  171.47599792    0.51999998    2.48000002
   13.39722252  163.23699951    0.51999998    2.48000002
   13.40027714  172.77900696    0.51999998    2.48000002
   13.40361118  172.17300415    0.51999998    2.48000002
   13.40694427  170.83900452    0.51999998    2.48000002
   13.40749931  171.48100281    0.51999998    2.48000002
   13.41055489  160.04699707    0.52999997    2.48000002
   13.41361046  167.39300537    0.52999997    2.48000002
   13.41694450  170.36099243    0.51999998    2.48000002
   13.42305565  170.36099243    0.51999998    2.50000000
   13.42722225  168.03500366    0.51999998    2.50000000
   13.43027782  165.94400024    0.51999998    2.50000000
   13.43361092  163.04600525    0.51999998    2.50000000
   13.43666649  163.55799866    0.51999998    2.50000000
   13.44000053  168.32899475    0.51999998    2.50000000
   13.44083309  175.08999634    0.51999998    2.50000000
   13.44361115  156.69099426    0.52999997    2.50000000
   13.44666672  157.50900269    0.52999997    2.50000000
   13.44999981  161.40800476    0.52999997    2.50000000
   13.45333290  160.28300476    0.52999997    2.51999998
   13.45638847  162.85800171    0.52999997    2.50000000
   13.45972157  165.21699524    0.51999998    2.50000000
   13.46583271  165.21699524    0.51999998    2.50000000
   13.46999931  169.23100281    0.52999997    2.50000000
   13.47305489  171.10499573    0.51999998    2.50000000
   13.47416592  171.34500122    0.51999998    2.50000000
   13.47694397  164.64799500    0.51999998    2.50000000
   13.47999954  167.18899536    0.51999998    2.50000000
   13.48333359  153.74299622    0.51999998    2.50000000
   13.48666668  160.03900146    0.51999998    2.51999998
   13.48972225  159.69599915    0.51999998    2.51999998
   13.49305534  169.70799255    0.51999998    2.51999998
   13.49638939  168.47700500    0.51999998    2.51999998
   13.49944496  165.08900452    0.51999998    2.51999998
   13.50277805  174.38800049    0.51999998    2.50000000
   13.50861073  174.38800049    0.51999998    2.50000000
   13.51277733  157.20399475    0.51999998    2.51999998
   13.51611137  160.63099670    0.51999998    2.51999998
   13.51916599  163.32499695    0.51999998    2.51999998
   13.52250004  161.20100403    0.51999998    2.51999998
   13.52583313  154.14199829    0.51999998    2.51999998
   13.52888870  151.84100342    0.51999998    2.51999998
   13.53222179  172.06900024    0.51999998    2.51999998
   13.53527832  161.60400391    0.50000000    2.51999998
   13.53861141  162.30299377    0.50000000    2.51999998
   13.54083347  156.57299805    0.50000000    2.51999998
   13.54222298  156.40299988    0.50000000    2.53999996
   13.54527855  168.31599426    0.50000000    2.51999998
   13.55138874  168.31599426    0.50000000    2.51999998
   13.55555534  161.38499451    0.50000000    2.51999998
   13.55888939  173.15699768    0.50000000    2.51999998
   13.56194496  166.30000305    0.50000000    2.51999998
   13.56527805  176.41499329    0.50000000    2.53999996
   13.56861115  163.33900452    0.50000000    2.51999998
   13.57166672  168.01800537    0.50000000    2.53999996
   13.57416630  166.69299316    0.50000000    2.53999996
   13.57555580  160.78700256    0.50000000    2.53999996
   13.57861137  169.96299744    0.50000000    2.51999998
   13.58194447  173.84100342    0.47999999    2.53999996
   13.58527756  161.94599915    0.50000000    2.53999996
   13.58833313  168.62800598    0.50000000    2.53999996
   13.59444427  168.62800598    0.47999999    2.53999996
   13.59833336  159.60299683    0.50000000    2.53999996
   13.60166740  169.19200134    0.47999999    2.53999996
   13.60500050  168.69599915    0.47999999    2.53999996
   13.60750008  175.18299866    0.47999999    2.53999996
   13.60861111  163.23100281    0.47999999    2.53999996
   13.61166668  162.42500305    0.47999999    2.53999996
   13.61500072  166.99699402    0.47999999    2.53999996
   13.61833382  160.74499512    0.47999999    2.53999996
   13.62138939  160.34100342    0.47999999    2.53999996
   13.62472248  171.05999756    0.47999999    2.53999996
   13.62805557  167.77200317    0.47999999    2.55999994
   13.63111115  163.92799377    0.47999999    2.55999994
   13.63722229  163.92799377    0.47999999    2.53999996
   13.64138889  172.92300415    0.47999999    2.53999996
   13.64444447  160.98500061    0.47999999    2.53999996
   13.64777756  171.67500305    0.47999999    2.53999996
   13.65111065  174.36599731    0.47999999    2.53999996
   13.65416622  168.07400513    0.47999999    2.53999996
   13.65749931  164.27600098    0.47999999    2.53999996
   13.66083336  160.49499512    0.47999999    2.53999996
   13.66388893  158.81500244    0.47999999    2.53999996
   13.66722298  163.02699280    0.47999999    2.53999996
   13.67027855  166.01899719    0.47999999    2.53999996
   13.67361164  165.67199707    0.47999999    2.55999994
   13.67416668  163.65400696    0.47999999    2.55999994
   13.68000031  163.65400696    0.47999999    2.53999996
   13.68416691  164.35200500    0.47999999    2.55999994
   13.68750000  171.19099426    0.47999999    2.55999994
   13.69055557  161.09199524    0.47999999    2.55999994
   13.69388866  164.79899597    0.47999999    2.55999994
   13.69694424  163.21600342    0.47999999    2.55999994
   13.70027733  174.77200317    0.47999999    2.55999994
   13.70361137  175.67100525    0.47999999    2.55999994
   13.70722198  170.53399658    0.47999999    2.55999994
   13.70749950  169.28399658    0.47999999    2.55999994
   13.71055508  167.47900391    0.46000001    2.55999994
   13.71388912  165.62100220    0.47999999    2.55999994
   13.71694374  169.08599854    0.47999999    2.55999994
   13.72277737  169.08599854    0.46000001    2.55999994
   13.72694397  170.26699829    0.46000001    2.55999994
   13.73027706  178.82099915    0.46000001    2.55999994
   13.73333359  168.37300110    0.46000001    2.55999994
   13.73666668  174.95599365    0.46000001    2.55999994
   13.74000072  173.22900391    0.46000001    2.55999994
   13.74083328  159.15299988    0.46000001    2.55999994
   13.74361134  171.84300232    0.46000001    2.55999994
   13.74694443  157.28599548    0.46000001    2.55999994
   13.75000000  178.29499817    0.46000001    2.55999994
   13.75333309  170.68299866    0.47999999    2.55999994
   13.75666714  176.96600342    0.47999999    2.55999994
   13.75972176  180.25799561    0.47999999    2.57999992
   13.76583290  180.25799561    0.47999999    2.57999992
   13.76972198  180.69799805    0.46000001    2.57999992
   13.77305508  179.21499634    0.47999999    2.57999992
   13.77416611  177.34300232    0.47999999    2.57999992
   13.77666664  180.65699768    0.47999999    2.57999992
   13.77999973  176.45700073    0.47999999    2.57999992
   13.78305531  176.66099548    0.47999999    2.57999992
   13.78638935  172.65899658    0.47999999    2.57999992
   13.78972244  175.34700012    0.47999999    2.57999992
   13.79277802  185.47099304    0.47999999    2.57999992
   13.79611111  179.84599304    0.47999999    2.57999992
   13.79944515  176.33599854    0.47999999    2.57999992
   13.80249977  179.14399719    0.47999999    2.57999992
   13.80861092  179.14399719    0.47999999    2.57999992
   13.81277752  177.48599243    0.47999999    2.57999992
   13.81611156  184.23899841    0.47999999    2.57999992
   13.81944466  181.30499268    0.47999999    2.57999992
   13.82250023  173.02400208    0.47999999    2.57999992
   13.82583332  170.49000549    0.46000001    2.57999992
   13.82888889  168.27000427    0.46000001    2.57999992
   13.83222198  179.15800476    0.46000001    2.57999992
   13.83555508  166.36099243    0.46000001    2.59999990
   13.83861065  166.28700256    0.46000001    2.57999992
   13.84083271  166.13400269    0.46000001    2.57999992
   13.84222221  171.31199646    0.46000001    2.57999992
   13.84555531  171.47799683    0.46000001    2.57999992
   13.85138893  171.47799683    0.46000001    2.57999992
   13.85555553  169.83999634    0.46000001    2.59999990
   13.85888958  162.97300720    0.46000001    2.57999992
   13.86194515  171.05099487    0.46000001    2.57999992
   13.86527824  167.86999512    0.46000001    2.59999990
   13.86833382  167.80700684    0.47999999    2.59999990
   13.87166691  167.42799377    0.47999999    2.59999990
   13.87444496  169.10099792    0.47999999    2.57999992
   13.87527752  175.71099854    0.47999999    2.57999992
   13.87861156  170.55900574    0.50000000    2.59999990
   13.88166714  167.18899536    0.50000000    2.57999992
   13.88500023  178.12600708    0.50000000    2.57999992
   13.88833332  174.54800415    0.50000000    2.59999990
   13.89416695  174.54800415    0.51999998    2.57999992
   13.89833355  177.67999268    0.50000000    2.59999990
   13.90166664  176.97200012    0.51999998    2.59999990
   13.90472221  183.35400391    0.50000000    2.59999990
   13.90777779  181.17999268    0.50000000    2.59999990
   13.90833282  176.16299438    0.50000000    2.59999990
   13.91166592  187.65400696    0.47999999    2.59999990
   13.91472149  172.91700745    0.47999999    2.59999990
   13.91805553  170.22300720    0.47999999    2.59999990
   13.92138958  174.28399658    0.47999999    2.59999990
   13.92444515  171.17199707    0.47999999    2.59999990
   13.92777824  166.70399475    0.47999999    2.59999990
   13.93111134  161.61599731    0.47999999    2.59999990
   13.93722248  161.61599731    0.47999999    2.59999990
   13.94111156  171.30000305    0.47999999    2.59999990
   13.94444466  166.98300171    0.47999999    2.59999990
   13.94777775  178.45300293    0.46000001    2.59999990
   13.95083332  167.96200562    0.47999999    2.59999990
   13.95416641  171.74099731    0.47999999    2.59999990
   13.95749950  179.05999756    0.47999999    2.59999990
   13.96055508  171.04400635    0.47999999    2.59999990
   13.96388912  171.92900085    0.47999999    2.59999990
   13.96694374  167.05900574    0.46000001    2.59999990
   13.97027779  173.53500366    0.46000001    2.59999990
   13.97361088  170.41600037    0.46000001    2.61999989
   13.97444439  171.47900391    0.46000001    2.59999990
   13.97999954  171.47900391    0.47999999    2.59999990
   13.98416710  166.41400146    0.46000001    2.59999990
   13.98722267  181.20100403    0.46000001    2.57999992
   13.99055576  173.72099304    0.47999999    2.61999989
   13.99361134  167.89900208    0.46000001    2.61999989
   13.99694443  171.58500671    0.46000001    2.61999989
   14.00027752  164.44500732    0.46000001    2.61999989
   14.00333309  167.54400635    0.47999999    2.59999990
   14.00666714  157.78799438    0.47999999    2.59999990
   14.00777817  155.43099976    0.47999999    2.59999990
   14.01027775  165.30999756    0.47999999    2.61999989
   14.01361084  163.89999390    0.47999999    2.61999989
   14.01666641  157.94299316    0.47999999    2.61999989
   14.02277756  157.94299316    0.47999999    2.61999989
   14.02694416  166.63600159    0.47999999    2.61999989
   14.02999973  165.93400574    0.47999999    2.59999990
   14.03333378  175.23800659    0.50000000    2.61999989
   14.03666687  169.97799683    0.50000000    2.61999989
   14.03972244  162.83099365    0.50000000    2.61999989
   14.04111195  169.81500244    0.50000000    2.61999989
   14.04333401  166.83999634    0.50000000    2.61999989
   14.04666710  166.53500366    0.50000000    2.61999989
   14.04972267  164.46000671    0.50000000    2.61999989
   14.05305576  168.90400696    0.50000000    2.61999989
   14.05638885  167.31700134    0.50000000    2.61999989
   14.05944443  168.39900208    0.50000000    2.61999989
   14.06555557  168.39900208    0.50000000    2.61999989
   14.06972218  171.27799988    0.50000000    2.61999989
   14.07305527  166.36000061    0.47999999    2.61999989
   14.07444477  172.47500610    0.47999999    2.61999989
   14.07666683  168.41700745    0.47999999    2.61999989
   14.07999992  167.70899963    0.47999999    2.61999989
   14.08305550  162.55499268    0.47999999    2.61999989
   14.08638859  175.06900024    0.47999999    2.61999989
   14.08972168  163.36500549    0.47999999    2.61999989
   14.09277725  164.44099426    0.47999999    2.61999989
   14.09611034  166.50300598    0.47999999    2.64000010
   14.09944439  163.49099731    0.47999999    2.64000010
   14.10249996  163.19599915    0.47999999    2.61999989
   14.10861111  163.19599915    0.47999999    2.61999989
   14.11250019  163.48199463    0.47999999    2.64000010
   14.11583328  163.14799500    0.47999999    2.64000010
   14.11916637  167.77299500    0.47999999    2.61999989
   14.12222195  165.36399841    0.47999999    2.64000010
   14.12555599  168.32299805    0.47999999    2.61999989
   14.12888908  164.99499512    0.47999999    2.61999989
   14.13194466  181.18600464    0.47999999    2.61999989
   14.13527775  171.90199280    0.47999999    2.61999989
   14.13833332  169.60499573    0.47999999    2.64000010
   14.14111137  173.92799377    0.47999999    2.64000010
   14.14194393  164.96499634    0.47999999    2.64000010
   14.14527798  170.57400513    0.50000000    2.64000010
   14.15138817  170.57400513    0.47999999    2.64000010
   14.15555477  165.95300293    0.47999999    2.64000010
   14.15861034  180.99699402    0.47999999    2.64000010
   14.16194439  162.40100098    0.47999999    2.64000010
   14.16499996  185.89399719    0.50000000    2.61999989
   14.16833401  171.07200623    0.47999999    2.64000010
   14.17166710  171.55299377    0.47999999    2.64000010
   14.17444515  184.16499329    0.47999999    2.64000010
   14.17527771  169.26499939    0.47999999    2.64000010
   14.17861176  174.79100037    0.47999999    2.61999989
   14.18194485  163.42199707    0.47999999    2.61999989
   14.18500042  174.33399963    0.47999999    2.64000010
   14.18833351  172.82699585    0.50000000    2.64000010
   14.19416714  172.82699585    0.50000000    2.61999989
   14.19833374  169.81599426    0.50000000    2.64000010
   14.20138836  170.72099304    0.50000000    2.64000010
   14.20472240  178.85600281    0.47999999    2.64000010
   14.20777798  177.71800232    0.47999999    2.64000010
   14.20833302  172.83700562    0.47999999    2.64000010
   14.21166611  163.89700317    0.47999999    2.64000010
   14.21500015  173.42199707    0.47999999    2.64000010
   14.21805477  177.31599426    0.47999999    2.64000010
   14.22138882  178.21499634    0.47999999    2.64000010
   14.22472191  146.11900330    0.47999999    2.64000010
   14.22777748  175.84800720    0.47999999    2.64000010
   14.23111057  171.28799438    0.47999999    2.64000010
   14.23694515  171.28799438    0.47999999    2.64000010
   14.24111176  168.67300415    0.47999999    2.64000010
   14.24444485  158.18499756    0.47999999    2.64000010
   14.24750042  166.91499329    0.47999999    2.64000010
   14.25083351  170.73599243    0.47999999    2.64000010
   14.25416660  163.98800659    0.47999999    2.64000010
   14.25722218  169.02799988    0.47999999    2.64000010
   14.26055527  165.81199646    0.47999999    2.64000010
   14.26361084  167.27400208    0.47999999    2.64000010
   14.26694393  168.79100037    0.47999999    2.64000010
   14.27027798  176.07099915    0.47999999    2.66000009
   14.27333355  163.45500183    0.47999999    2.64000010
   14.27444458  175.36999512    0.47999999    2.66000009
   14.27972221  175.36999512    0.47999999    2.64000010
   14.28388977  169.77200317    0.47999999    2.64000010
   14.28722286  171.42799377    0.47999999    2.66000009
   14.29055595  164.12899780    0.47999999    2.66000009
   14.30805588  161.71099854    0.47999999    2.64000010
   14.31055546  159.08000183    0.47999999    2.66000009
   14.31361103  166.44200134    0.47999999    2.66000009
   14.31694412  162.75700378    0.47999999    2.66000009
   14.32277775  162.75700378    0.47999999    2.66000009
   14.32694435  156.75500488    0.47999999    2.66000009
   14.33027744  169.09199524    0.47999999    2.66000009
   14.33333302  159.13400269    0.47999999    2.66000009
   14.33666611  157.49099731    0.47999999    2.66000009
   14.34000015  162.15800476    0.47999999    2.66000009
   14.34138870  159.58399963    0.47999999    2.66000009
   14.34361076  160.89500427    0.47999999    2.66000009
   14.34694386  156.62199402    0.47999999    2.64000010
   14.35027790  153.84899902    0.47999999    2.66000009
   14.35333347  163.32200623    0.47999999    2.66000009
   14.35666752  164.93699646    0.47999999    2.66000009
   14.35972214  160.04800415    0.47999999    2.64000010
   14.36583328  160.04800415    0.46000001    2.66000009
   14.36972237  154.63900757    0.46000001    2.66000009
   14.37305546  156.99299622    0.47999999    2.66000009
   14.37472248  161.85800171    0.47999999    2.66000009
   14.37666702  155.89500427    0.47999999    2.66000009
   14.38000011  161.25799561    0.47999999    2.66000009
   14.38333321  153.62699890    0.47999999    2.66000009
   14.38638878  168.73899841    0.47999999    2.66000009
   14.38972187  155.97700500    0.47999999    2.66000009
   14.39305496  142.85200500    0.47999999    2.66000009
   14.39611053  158.72599792    0.47999999    2.66000009
   14.39944458  152.83999634    0.47999999    2.66000009
   14.40249920  151.10699463    0.47999999    2.66000009
   14.40861034  151.10699463    0.47999999    2.66000009
   14.41277695  155.82600403    0.47999999    2.67000008
   14.41583252  142.82099915    0.47999999    2.66000009
   14.41916656  152.24899292    0.47999999    2.67000008
   14.42250061  151.62500000    0.47999999    2.66000009
   14.42555618  157.72500610    0.47999999    2.67000008
   14.42888927  160.23399353    0.47999999    2.67000008
   14.43194485  150.66299438    0.47999999    2.67000008
   14.43527794  158.57499695    0.47999999    2.67000008
   14.43861103  156.50000000    0.47999999    2.66000009
   14.44138908  163.33599854    0.47999999    2.66000009
   14.44194412  144.19500732    0.47999999    2.66000009
   14.44527817  151.87899780    0.46000001    2.66000009
   14.45138836  151.87899780    0.47999999    2.66000009
   14.45555496  153.69599915    0.47999999    2.67000008
   14.45888901  150.69799805    0.47999999    2.67000008
   14.46194458  156.91400146    0.47999999    2.66000009
   14.46527767  161.16299438    0.47999999    2.67000008
   14.46861076  157.88400269    0.47999999    2.67000008
   14.47166634  165.11999512    0.47999999    2.67000008
   14.47472191  162.36799622    0.47999999    2.67000008
   14.47527695  158.27299500    0.50000000    2.67000008
   14.47861099  167.93499756    0.50000000    2.67000008
   14.48194408  155.60099792    0.47999999    2.67000008
   14.48500061  168.97399902    0.47999999    2.67000008
   14.48833370  154.89500427    0.47999999    2.67000008
   14.49416733  154.89500427    0.47999999    2.67000008
   14.49833393  168.35200500    0.47999999    2.67000008
   14.50166702  161.02699280    0.47999999    2.67000008
   14.50500011  160.83000183    0.47999999    2.67000008
   14.50805569  164.57699585    0.47999999    2.67000008
   14.50833321  158.50900269    0.47999999    2.67000008
   14.51166630  158.68400574    0.47999999    2.67000008
   14.51500034  162.51199341    0.47999999    2.67000008
   14.51805496  167.87100220    0.47999999    2.67000008
   14.52138901  172.21600342    0.47999999    2.67000008
   14.52444458  157.79200745    0.47999999    2.67000008
   14.52777767  170.70500183    0.47999999    2.66000009
   14.53111076  163.59399414    0.47999999    2.67000008
   14.53722286  163.59399414    0.47999999    2.67000008
   14.54138947  169.56399536    0.47999999    2.67000008
   14.54444504  167.26100159    0.47999999    2.67000008
   14.54777813  157.93499756    0.47999999    2.67000008
   14.55111122  163.11599731    0.50000000    2.67000008
   14.55416679  167.42599487    0.50000000    2.67000008
   14.55749989  156.99200439    0.50000000    2.67000008
   14.56055546  162.67199707    0.50000000    2.67000008
   14.56388950  145.65400696    0.50000000    2.67000008
   14.56722260  149.66900635    0.50000000    2.67000008
   14.57027817  164.26499939    0.50000000    2.67000008
   14.57361126  168.43600464    0.47999999    2.67000008
   14.57472229  160.20899963    0.50000000    2.67000008
   14.57999992  160.20899963    0.50000000    2.67000008
   14.58416653  153.30299377    0.47999999    2.67000008
   14.58722210  163.72200012    0.50000000    2.67000008
   14.59055519  150.89100647    0.50000000    2.67000008
   14.59388828  156.28199768    0.50000000    2.67000008
   14.59694386  160.24000549    0.50000000    2.67000008
   14.60027790  163.55799866    0.50000000    2.67000008
   14.60361195  160.79200745    0.50000000    2.67000008
   14.60666752  161.90699768    0.47999999    2.69000006
   14.60805607  161.08799744    0.47999999    2.69000006
   14.61027813  163.55700684    0.47999999    2.69000006
   14.61361122  161.60699463    0.47999999    2.67000008
   14.61694431  164.77099609    0.47999999    2.67000008
   14.62277794  164.77099609    0.50000000    2.67000008
   14.62694454  157.36599731    0.50000000    2.67000008
   14.63027763  156.61199951    0.47999999    2.67000008
   14.63333321  161.73599243    0.50000000    2.67000008
   14.63666630  158.28500366    0.50000000    2.67000008
   14.64000034  154.10800171    0.50000000    2.69000006
   14.64138889  168.71099854    0.50000000    2.67000008
   14.64333344  161.36000061    0.50000000    2.67000008
   14.64666653  169.97500610    0.50000000    2.67000008
   14.64999962  165.41000366    0.50000000    2.69000006
   14.65305519  154.44400024    0.50000000    2.69000006
   14.65638828  156.05599976    0.50000000    2.69000006
   14.65972137  166.90299988    0.50000000    2.67000008
   14.66555500  166.90299988    0.50000000    2.69000006
   14.66972256  162.90899658    0.50000000    2.69000006
   14.67305565  162.10200500    0.50000000    2.67000008
   14.67472267  167.85299683    0.50000000    2.67000008
   14.67666721  163.61799622    0.50000000    2.69000006
   14.68000031  164.52299500    0.50000000    2.69000006
   14.68333340  166.73399353    0.50000000    2.67000008
   14.68638897  165.30700684    0.50000000    2.69000006
   14.68972206  159.53599548    0.50000000    2.69000006
   14.69305515  156.94799805    0.50000000    2.69000006
   14.69611073  168.68299866    0.50000000    2.69000006
   14.69944477  160.65199280    0.50000000    2.69000006
   14.70249939  149.04499817    0.50000000    2.69000006
   14.70861053  149.04499817    0.47999999    2.69000006
   14.71277714  156.40100098    0.50000000    2.69000006
   14.71583271  158.83999634    0.50000000    2.69000006
   14.71916580  157.91099548    0.50000000    2.69000006
   14.72222137  158.27200317    0.50000000    2.69000006
   14.72555542  163.36300659    0.50000000    2.69000006
   14.72888851  153.29899597    0.50000000    2.69000006
   14.73194408  172.40499878    0.50000000    2.69000006
   14.73527813  156.34500122    0.50000000    2.69000006
   14.73861122  154.24400330    0.50000000    2.69000006
   14.74138927  163.74099731    0.50000000    2.69000006
   14.74194431  155.92500305    0.50000000    2.69000006
   14.74527836  167.30599976    0.50000000    2.69000006
   14.75138855  167.30599976    0.47999999    2.69000006
   14.75555515  162.31799316    0.47999999    2.69000006
   14.75861073  157.50100708    0.47999999    2.69000006
   14.76194477  168.19000244    0.47999999    2.69000006
   14.76527786  162.80299377    0.47999999    2.69000006
   14.76833344  154.88699341    0.47999999    2.69000006
   14.77166653  158.86000061    0.47999999    2.69000006
   14.77472210  161.07400513    0.47999999    2.69000006
   14.77527714  154.81700134    0.47999999    2.69000006
   14.77861118  153.18200684    0.47999999    2.69000006
   14.78194427  162.25799561    0.47999999    2.71000004
   14.78500080  153.11799622    0.47999999    2.69000006
   14.78833389  153.60200500    0.47999999    2.69000006
   14.79416752  153.60200500    0.47999999    2.69000006
   14.79833412  166.83000183    0.47999999    2.69000006
   14.80166721  165.47200012    0.50000000    2.69000006
   14.80472279  157.36900330    0.50000000    2.69000006
   14.80805588  162.86700439    0.50000000    2.71000004
   14.80861092  155.67100525    0.50000000    2.71000004
   14.81194496  155.88499451    0.50000000    2.69000006
   14.81527805  148.89999390    0.50000000    2.69000006
   14.81833363  142.17399597    0.50000000    2.69000006
   14.82166672  166.31900024    0.50000000    2.69000006
   14.82499981  168.44400024    0.50000000    2.69000006
   14.82805538  162.64300537    0.50000000    2.69000006
   14.83138847  155.23599243    0.47999999    2.69000006
   14.83694458  155.23599243    0.50000000    2.69000006
   14.84111118  146.06199646    0.47999999    2.69000006
   14.84166622  153.27299500    0.47999999    2.69000006
   14.84499931  161.07699585    0.50000000    2.71000004
   14.84833336  152.73599243    0.47999999    2.71000004
   14.94916630   -1.00000000   -1.00000000   -1.00000000
   15.06000042   -1.00000000   -1.00000000   -1.00000000
   15.17111111   -1.00000000   -1.00000000   -1.00000000
   15.25083351  168.89799500    0.51999998    2.71000004
   15.25416660  176.49200439    0.51999998    2.71000004
   15.25722218  168.97700500    0.51999998    2.71000004
   15.26055527  177.21200562    0.51999998    2.71000004
   15.26361084  172.39700317    0.51999998    2.71000004
   15.26694393  185.01499939    0.50000000    2.71000004
   15.27111053  185.01499939    0.50000000    2.71000004
   15.27527714  165.75399780    0.50000000    2.71000004
   15.27833271  156.72799683    0.47999999    2.71000004
   15.28166676  182.88699341    0.47999999    2.71000004
   15.28416729  163.57600403    0.47999999    2.71000004
   15.28555584  155.48399353    0.47999999    2.71000004
   15.28861141  152.23199463    0.50000000    2.71000004
   15.29194450  155.72599792    0.51999998    2.73000002
   15.29500008  166.92500305    0.51999998    2.71000004
   15.29833412  166.97500610    0.51999998    2.71000004
   15.30166721  174.35299683    0.51999998    2.71000004
   15.30472279  168.86700439    0.51999998    2.71000004
   15.30805588  159.00300598    0.51999998    2.73000002
   15.31388950  159.00300598    0.51999998    2.71000004
   15.31805515  158.40400696    0.51999998    2.71000004
   15.32138920  159.40499878    0.50000000    2.71000004
   15.32444477  162.15299988    0.50000000    2.71000004
   15.32777786  166.39599609    0.51999998    2.71000004
   15.33111095  158.65600586    0.51999998    2.71000004
   15.33444405  150.27499390    0.51999998    2.71000004
   15.33749962  164.22700500    0.52999997    2.71000004
   15.34083271  153.16200256    0.52999997    2.71000004
   15.34388828  156.91600037    0.52999997    2.71000004
   15.34722233  165.25799561    0.55000001    2.73000002
   15.35055637  160.03700256    0.55000001    2.71000004
   15.35111141  164.14599609    0.55000001    2.73000002
   15.35666752  164.14599609    0.52999997    2.73000002
   15.36083412  158.08399963    0.51999998    2.71000004
   15.36416721  169.17799377    0.51999998    2.71000004
   15.36750031  171.24200439    0.52999997    2.71000004
   15.37055588  178.98699951    0.51999998    2.73000002
   15.37388897  170.02099609    0.51999998    2.73000002
   15.37694454  185.10600281    0.51999998    2.71000004
   15.38027763  176.62300110    0.51999998    2.71000004
   15.38361073  158.61399841    0.51999998    2.73000002
   15.38444424  172.99800110    0.51999998    2.73000002
   15.38694477  172.33799744    0.51999998    2.73000002
   15.39027786  177.71299744    0.52999997    2.73000002
   15.39361095  175.46299744    0.52999997    2.71000004
   15.39972210  175.46299744    0.52999997    2.73000002
   15.40388870  175.96699524    0.58999997    2.73000002
   15.40694427  174.26300049    0.58999997    2.73000002
   15.41027737  164.24600220    0.70999998    2.73000002
   15.41333294  173.04499817    0.69000000    2.71000004
   15.41666698  164.93899536    0.61000001    2.71000004
   15.41777802  168.18800354    0.61000001    2.71000004
   15.42027855  154.33299255    0.63000000    2.71000004
   15.42361164  159.81300354    0.63000000    2.71000004
   15.42694473  162.92399597    0.70999998    2.73000002
   15.43027782  163.21499634    0.69000000    2.73000002
   15.43361092  164.42599487    0.67000002    2.73000002
   15.43694496  162.76499939    0.58999997    2.73000002
   15.44250011  162.76499939    0.56999999    2.73000002
   15.44666672  171.07899475    0.56999999    2.71000004
   15.44972229  177.52600098    0.56999999    2.73000002
   15.45111084  153.07600403    0.56999999    2.73000002
   15.45333290  160.04600525    0.52999997    2.73000002
   15.45666695  171.10400391    0.52999997    2.73000002
   15.46000004  163.24099731    0.51999998    2.73000002
   15.46305561  165.58200073    0.51999998    2.73000002
   15.46638870  171.50999451    0.51999998    2.73000002
   15.46944427  163.39999390    0.51999998    2.73000002
   15.47277737  159.80000305    0.51999998    2.73000002
   15.47611046  164.22900391    0.51999998    2.73000002
   15.47916603  161.22900391    0.51999998    2.73000002
   15.48527813  161.22900391    0.51999998    2.73000002
   15.48944473  158.40400696    0.52999997    2.73000002
   15.49277782  156.28799438    0.51999998    2.73000002
   15.49583340  160.96899414    0.51999998    2.71000004
   15.49916649  160.05799866    0.50000000    2.73000002
   15.50249958  162.95399475    0.50000000    2.73000002
   15.50555515  166.04299927    0.50000000    2.73000002
   15.50888920  163.38099670    0.51999998    2.73000002
   15.51222229  163.91200256    0.51999998    2.73000002
   15.51527786  163.32800293    0.51999998    2.73000002
   15.51777744  153.42999268    0.51999998    2.73000002
   15.51888847  157.12300110    0.51999998    2.73000002
   15.52222157  160.00500488    0.51999998    2.73000002
   15.52805519  160.00500488    0.52999997    2.73000002
   15.53222179  159.85299683    0.52999997    2.73000002
   15.53555584  159.36199951    0.52999997    2.73000002
   15.53888893  157.17100525    0.51999998    2.73000002
   15.54194450  154.66600037    0.51999998    2.71000004
   15.54527855  153.33000183    0.51999998    2.71000004
   15.54861164  160.31100464    0.51999998    2.73000002
   15.55111122  152.04400635    0.51999998    2.73000002
   15.55194473  155.59199524    0.51999998    2.73000002
   15.55527782  153.17900085    0.51999998    2.73000002
   15.55861092  153.44599915    0.51999998    2.73000002
   15.56166649  149.42500305    0.50000000    2.73000002
   15.56500053  160.32600403    0.50000000    2.73000002
   15.57111073  160.32600403    0.51999998    2.73000002
   15.57527733  155.43499756    0.50000000    2.73000002
   15.57833290  156.07699585    0.50000000    2.73000002
   15.58166695  156.27799988    0.50000000    2.73000002
   15.58444405  165.39300537    0.50000000    2.73000002
   15.58527756  158.76600647    0.50000000    2.73000002
   15.58861065  162.78599548    0.50000000    2.73000002
   15.59194374  155.17199707    0.50000000    2.73000002
   15.59499931  159.60899353    0.50000000    2.73000002
   15.59833336  157.91400146    0.50000000    2.73000002
   15.60138893  157.79800415    0.50000000    2.73000002
   15.60472298  156.77799988    0.50000000    2.73000002
   15.60805607  166.21400452    0.50000000    2.73000002
   15.61388969  166.21400452    0.47999999    2.73000002
   15.61805534  160.66000366    0.50000000    2.73000002
   15.62111092  159.05799866    0.47999999    2.73000002
   15.62444496  160.07299805    0.50000000    2.73000002
   15.62777805  153.63999939    0.51999998    2.73000002
   15.63083363  158.92999268    0.51999998    2.73000002
   15.63416672  148.72700500    0.50000000    2.73000002
   15.63749981  159.27600098    0.51999998    2.73000002
   15.64055538  151.27600098    0.51999998    2.73000002
   15.64388847  155.83000183    0.50000000    2.73000002
   15.64694405  159.67399597    0.50000000    2.75000000
   15.65027714  155.75100708    0.50000000    2.75000000
   15.65111065  156.27099609    0.50000000    2.73000002
   15.65666676  156.27099609    0.50000000    2.73000002
   15.66083336  154.86099243    0.50000000    2.73000002
   15.66416645  156.34899902    0.50000000    2.73000002
   15.66722298  153.12899780    0.50000000    2.73000002
   15.67055607  156.69999695    0.50000000    2.73000002
   15.67388916  152.95199585    0.50000000    2.73000002
   15.67694473  164.09100342    0.47999999    2.73000002
   15.68027782  157.78599548    0.50000000    2.75000000
   15.68361092  157.22300720    0.47999999    2.73000002
   15.68444443  162.64100647    0.47999999    2.73000002
   15.68694496  157.68899536    0.47999999    2.73000002
   15.69027805  159.51400757    0.47999999    2.73000002
   15.69361115  158.45500183    0.47999999    2.73000002
   15.69972229  158.45500183    0.47999999    2.73000002
   15.70361137  156.41999817    0.47999999    2.73000002
   15.70694447  153.22999573    0.47999999    2.73000002
   15.71027756  158.57400513    0.47999999    2.73000002
   15.71333313  163.19000244    0.50000000    2.73000002
   15.71666622  162.70899963    0.50000000    2.75000000
   15.71777725  158.05999756    0.50000000    2.75000000
   15.72027779  165.71000671    0.50000000    2.73000002
   15.72361088  161.61799622    0.50000000    2.73000002
   15.72694397  155.88400269    0.50000000    2.73000002
   15.72999954  160.83799744    0.50000000    2.73000002
   15.73333359  157.37699890    0.50000000    2.73000002
   15.73666668  158.11000061    0.51999998    2.73000002
   15.74250031  158.11000061    0.52999997    2.73000002
   15.74666691  155.87399292    0.52999997    2.75000000
   15.74972248  157.47300720    0.51999998    2.73000002
   15.75111103  162.16900635    0.51999998    2.73000002
   15.75333309  153.65299988    0.51999998    2.73000002
   15.75666714  154.81900024    0.51999998    2.73000002
   15.76000023  156.25500488    0.51999998    2.73000002
   15.76305580  150.75799561    0.51999998    2.73000002
   15.76638889  159.62899780    0.51999998    2.73000002
   15.76972198  161.16200256    0.51999998    2.73000002
   15.77277756  151.16400146    0.50000000    2.73000002
   15.77611065  158.41400146    0.51999998    2.73000002
   15.77916622  159.82299805    0.51999998    2.73000002
   15.78527832  159.82299805    0.55000001    2.73000002
   15.78944492  161.30400085    0.63000000    2.73000002
   15.79250050  166.21000671    0.67000002    2.73000002
   15.79583359  167.30999756    0.69000000    2.73000002
   15.79916668  162.47999573    0.64999998    2.73000002
   15.80222225  164.96000671    0.63000000    2.73000002
   15.80555534  159.85200500    0.63000000    2.73000002
   15.80888939  157.72900391    0.61000001    2.73000002
   15.81194496  161.35099792    0.76999998    2.73000002
   15.81527805  155.64300537    0.69000000    2.73000002
   15.81777763  156.34399414    0.61000001    2.73000002
   15.81888866  156.13900757    0.61000001    2.75000000
   15.82222176  162.30499268    0.58999997    2.73000002
   15.82805538  162.30499268    0.56999999    2.75000000
   15.83222198  156.16799927    0.55000001    2.73000002
   15.83555508  158.77299500    0.55000001    2.73000002
   15.83861065  159.00500488    0.52999997    2.73000002
   15.84194374  162.00799561    0.51999998    2.73000002
   15.84527779  159.32499695    0.51999998    2.73000002
   15.84833336  154.96600342    0.51999998    2.73000002
   15.85111141  160.39599609    0.51999998    2.73000002
   15.85194492  157.53900146    0.51999998    2.73000002
   15.85527802  158.62399292    0.51999998    2.73000002
   15.85861111  156.42599487    0.51999998    2.73000002
   15.86166668  155.29100037    0.51999998    2.73000002
   15.86500072  159.30400085    0.51999998    2.73000002
   15.87083340  159.30400085    0.51999998    2.73000002
   15.87500000  161.78399658    0.51999998    2.73000002
   15.87833309  163.26300049    0.51999998    2.73000002
   15.88166714  158.06900024    0.51999998    2.73000002
   15.88444424  155.54600525    0.51999998    2.73000002
   15.88500023  168.56500244    0.51999998    2.73000002
   15.88833332  167.94200134    0.52999997    2.75000000
   15.89166641  158.78300476    0.52999997    2.73000002
   15.89472198  159.02699280    0.52999997    2.73000002
   15.89805508  167.82400513    0.52999997    2.73000002
   15.90138817  151.93699646    0.56999999    2.73000002
   15.90444374  154.77400208    0.56999999    2.73000002
   15.90777779  150.74299622    0.61000001    2.73000002
   15.91388893  150.74299622    0.63000000    2.73000002
   15.91805553  148.77600098    0.70999998    2.75000000
   15.92138958  154.76600647    0.69000000    2.73000002
   15.92444515  155.55299377    0.70999998    2.75000000
   15.92777824  158.06399536    0.73000002    2.73000002
   15.93111134  160.91000366    0.76999998    2.73000002
   15.93416691  151.53100586    0.80000001    2.73000002
   15.93750000  148.49800110    0.80000001    2.73000002
   15.94083309  155.08599854    0.89999998    2.73000002
   15.94388866  154.68800354    0.92000002    2.73000002
   15.94722271  155.97099304    0.92000002    2.73000002
   15.95027733  153.64700317    0.92000002    2.73000002
   15.95111084  150.62199402    0.94000000    2.73000002
   15.95666695  150.62199402    0.89999998    2.73000002
   15.96083355  152.04899597    0.86000001    2.73000002
   15.96388912  149.73699951    0.81999999    2.75000000
   15.96722221  155.03399658    0.83999997    2.73000002
   15.97055531  148.22799683    0.83999997    2.75000000
   15.97361088  156.59199524    0.83999997    2.75000000
   15.97694397  154.86099243    0.83999997    2.75000000
   15.98027706  166.98100281    0.83999997    2.75000000
   15.98333359  154.15499878    1.00000000    2.73000002
   15.98444462  156.94299316    1.01999998    2.73000002
   15.98722267  161.96400452    1.09000003    2.75000000
   15.99027824  153.04699707    1.23000002    2.73000002
   15.99361134  164.57899475    1.34000003    2.75000000
   15.99944496  164.57899475    1.39999998    2.73000002
   16.00361061  153.27499390    1.51999998    2.73000002
   16.00694466  156.46299744    1.50000000    2.73000002
   16.01000023  154.21899414    1.36000001    2.73000002
   16.01333427  157.12199402    1.34000003    2.73000002
   16.01666641  159.57000732    1.26999998    2.73000002
   16.01777840  162.65400696    1.26999998    2.73000002
   16.02027702  156.94400024    1.26999998    2.73000002
   16.02333260  155.57099915    1.25000000    2.73000002
   16.02666664  161.33999634    1.25000000    2.73000002
   16.02972221  162.28700256    1.05999994    2.73000002
   16.03305435  163.19900513    0.80000001    2.73000002
   16.03638840  156.81100464    0.79000002    2.73000002
   16.04222107  156.81100464    0.81999999    2.75000000
   16.04638863  155.67700195    0.86000001    2.73000002
   16.04972076  161.87699890    0.88000000    2.73000002
   16.05111122  159.14900208    0.88000000    2.73000002
   16.05333328  156.40800476    0.95999998    2.75000000
   16.05666542  155.22500610    1.05999994    2.73000002
   16.05972099  164.43800354    1.53999996    2.75000000
   16.06305504  157.63200378    1.69000006    2.73000002
   16.06638718  157.75399780    1.86000001    2.73000002
   16.06944466  161.82499695    2.07999992    2.73000002
   16.07277870  160.07499695    2.15000010    2.73000002
   16.07611275  160.35800171    2.26999998    2.71000004
   16.07916832  158.80200195    2.39000010    2.73000002
   16.08527756  158.80200195    2.59999990    2.73000002
   16.08916664  158.05499268    2.59999990    2.73000002
   16.09250069  155.39100647    2.64000010    2.73000002
   16.09583473  153.72999573    2.69000006    2.75000000
   16.09889030  151.15899658    2.89000010    2.73000002
   16.10222244  153.65699768    2.84999990    2.73000002
   16.10555649  160.13099670    2.73000002    2.73000002
   16.10861206  151.08999634    2.55999994    2.73000002
   16.11194420  153.11000061    2.48000002    2.73000002
   16.11527824  156.58999634    2.50000000    2.73000002
   16.11777878  160.85800171    2.48000002    2.75000000
   16.11888885  164.53599548    2.53999996    2.75000000
   16.12194443  156.88999939    2.71000004    2.73000002
   16.12805557  156.88999939    2.82999992    2.73000002
   16.13222313  165.92999268    2.76999998    2.75000000
   16.13527679  153.04200745    2.78999996    2.75000000
   16.13861084  164.15100098    2.84999990    2.73000002
   16.14194489  147.08299255    2.93000007    2.73000002
   16.14500046  161.42100525    2.84999990    2.73000002
   16.14833260  164.18600464    2.96000004    2.73000002
   16.15111160  162.35699463    3.05999994    2.73000002
   16.15194321  165.80499268    3.05999994    2.73000002
   16.15499878  155.36099243    3.39000010    2.73000002
   16.15833282  164.66900635    3.93000007    2.73000002
   16.16138840  170.64500427    4.53000021    2.73000002
   16.16472244  163.15199280    4.71999979    2.73000002
   16.17083359  163.15199280    4.90999985    2.71000004
   16.17499924  167.55000305    4.90999985    2.73000002
   16.17833328  163.30000305    4.90999985    2.73000002
   16.18138885  155.26400757    4.88999987    2.71000004
   16.18444443  173.46000671    4.80999994    2.71000004
   16.18527603  163.36399841    4.80000019    2.71000004
   16.18833160  159.61500549    4.76000023    2.73000002
   16.19166565  162.36799622    4.65999985    2.73000002
   16.19472122  160.43800354    4.61999989    2.73000002
   16.19805527  160.79899597    4.76000023    2.73000002
   16.20138931  158.62300110    4.90999985    2.73000002
   16.20444489  153.58000183    4.90999985    2.73000002
   16.20777893  159.19799805    4.90999985    2.73000002
   16.21361160  159.19799805    4.90999985    2.71000004
   16.21777916  163.91400146    4.90999985    2.71000004
   16.22111130  162.09500122    4.90999985    2.71000004
   16.22416687  161.41200256    4.90999985    2.71000004
   16.22750092  166.97300720    4.90999985    2.71000004
   16.23083305  153.93299866    4.90999985    2.71000004
   16.23388863  150.18600464    4.90999985    2.71000004
   16.23722267  161.02699280    4.90999985    2.71000004
   16.24027824  161.15899658    4.90999985    2.71000004
   16.24361229  160.36999512    4.90999985    2.71000004
   16.24694443  167.46600342    4.90999985    2.71000004
   16.25000000  155.28900146    4.90999985    2.69000006
   16.25111198  157.14700317    4.90999985    2.71000004
   16.27194405  157.14700317    4.90999985    2.73000002
   16.27583313  157.22000122    4.90999985    2.73000002
   16.27916718  163.16200256    4.90999985    2.75000000
   16.28249931  171.45599365    4.90999985    2.69000006
   16.28444481  162.36700439    4.90999985    2.71000004
   16.28610992  166.84399414    4.90999985    2.73000002
   16.28916550  163.92399597    4.90999985    2.71000004
   16.29249954  161.36000061    4.90999985    2.71000004
   16.29583359  172.65400696    4.90999985    2.71000004
   16.29888916  162.01600647    4.90999985    2.69000006
   16.30222130  165.47200012    4.90999985    2.71000004
   16.30527687  166.45700073    4.90999985    2.71000004
   16.30861092  165.15899658    4.90999985    2.71000004
   16.31444359  165.15899658    4.90999985    2.73000002
   16.31861115  163.68299866    4.90999985    2.71000004
   16.32194519  155.40100098    4.90999985    2.71000004
   16.32527924  166.86399841    4.90999985    2.69000006
   16.32833481  168.73599243    4.90999985    2.69000006
   16.33166695  162.31199646    4.90999985    2.69000006
   16.33472252  166.33299255    4.90999985    2.69000006
   16.33805656  175.72200012    4.90999985    2.67000008
   16.34138870  178.35000610    4.90999985    2.67000008
   16.34444427  179.30900574    4.90999985    2.66000009
   16.34777832  173.04899597    4.90999985    2.64000010
   16.35111237  177.69400024    4.90999985    2.66000009
   16.35138893  183.99299622    4.90999985    2.66000009
   16.35750008  183.99299622    4.90999985    2.64000010
   16.36166763  175.82499695    4.90999985    2.61999989
   16.36472321  171.47700500    4.90999985    2.66000009
   16.36805534  171.98500061    4.90999985    2.66000009
   16.37111092  175.46600342    4.90999985    2.64000010
   16.37444496  171.81700134    4.90999985    2.66000009
   16.37777710  173.78300476    4.90999985    2.66000009
   16.38083267  171.91299438    4.90999985    2.66000009
   16.38416672  163.03900146    4.90999985    2.66000009
   16.38472176  173.48699951    4.90999985    2.67000008
   16.38777733  161.07899475    4.90999985    2.67000008
   16.39111137  160.33000183    4.90999985    2.69000006
   16.39416695  168.27799988    4.90999985    2.71000004
   16.40027809  168.27799988    4.90999985    2.71000004
   16.40444374  163.61799622    4.90999985    2.71000004
   16.40749931  172.16299438    4.90999985    2.69000006
   16.41083336  160.88499451    4.90999985    2.71000004
   16.41416550  166.69599915    4.90999985    2.69000006
   16.41722107  166.32899475    4.90999985    2.67000008
   16.41805458  167.92100525    4.90999985    2.69000006
   16.42083359  174.31199646    4.90999985    2.69000006
   16.42416573  178.42999268    4.90999985    2.67000008
   16.42722130  170.12199402    4.90999985    2.67000008
   16.43055534  170.17399597    4.90999985    2.69000006
   16.43388748  172.87800598    4.90999985    2.67000008
   16.43694305  175.08700562    4.90999985    2.66000009
   16.44305420  175.08700562    4.90999985    2.67000008
   16.44722176  179.20300293    4.90999985    2.67000008
   16.45055580  171.27200317    4.90999985    2.67000008
   16.45138931  170.06500244    4.90999985    2.69000006
   16.45416832  166.21499634    4.90999985    2.67000008
   16.45750046  164.85099792    4.90999985    2.69000006
   16.46055603  156.57600403    4.90999985    2.69000006
   16.46389008  164.36999512    4.90999985    2.71000004
   16.46722221  165.20399475    4.90999985    2.71000004
   16.47027779  159.98100281    4.90999985    2.71000004
   16.47361183  160.13499451    4.90999985    2.71000004
   16.47666740  154.73800659    4.90999985    2.69000006
   16.48000145  168.28700256    4.90999985    2.71000004
   16.48583412  168.28700256    4.71999979    2.71000004
   16.48999977  165.86300659    3.78999996    2.71000004
   16.49333382  161.16499329    3.36999989    2.71000004
   16.49638939  156.65199280    2.93000007    2.73000002
   16.49972153  160.10299683    2.25000000    2.73000002
   16.50305557  160.77000427    2.19000006    2.73000002
   16.50611115  160.23300171    2.42000008    2.73000002
   16.50944519  161.87600708    2.17000008    2.73000002
   16.51277733  157.19000244    2.13000011    2.73000002
   16.51583290  163.49000549    2.44000006    2.73000002
   16.51805496  159.94700623    2.55999994    2.71000004
   16.51944351  160.80799866    2.59999990    2.73000002
   16.52277756  167.25900269    2.57999992    2.73000002
   16.52888870  167.25900269    2.75000000    2.71000004
   16.53277779  158.51400757    2.75000000    2.71000004
   16.53610992  157.79600525    2.36999989    2.71000004
   16.53944397  163.12500000    2.13000011    2.73000002
   16.54249954  161.40499878    1.26999998    2.73000002
   16.54583359  160.06500244    1.05999994    2.73000002
   16.54916573  163.06199646    0.88000000    2.75000000
   16.55166626  159.27799988    0.80000001    2.75000000
   16.55277634  158.05099487    0.79000002    2.75000000
   16.55611038  162.36099243    0.76999998    2.73000002
   16.55916595  159.29499817    0.76999998    2.75000000
   16.56250000  158.16900635    0.76999998    2.75000000
   16.56583214  155.89300537    0.76999998    2.75000000
   16.57166672  155.89300537    0.75000000    2.75000000
   16.57583427  157.22099304    0.73000002    2.73000002
   16.57888985  157.12600708    0.70999998    2.75000000
   16.58222389  154.48699951    0.70999998    2.75000000
   16.58500099  160.34599304    0.70999998    2.75000000
   16.58583450  166.85899353    0.70999998    2.75000000
   16.58916664  158.40600586    0.70999998    2.75000000
   16.59222221  161.35499573    0.70999998    2.75000000
   16.59555626  161.56300354    0.73000002    2.75000000
   16.59889030  161.96899414    0.75000000    2.73000002
   16.60194397  159.16700745    0.73000002    2.75000000
   16.60527802  161.43299866    0.73000002    2.75000000
   16.60861206  162.01300049    0.73000002    2.75000000
   16.61444473  162.01300049    0.75000000    2.75000000
   16.61861038  166.75100708    0.73000002    2.75000000
   16.62194443  167.16000366    0.75000000    2.75000000
   16.62500000  156.20799255    0.76999998    2.75000000
   16.62833405  160.05499268    0.98000002    2.75000000
   16.63138962  162.91200256    1.07000005    2.73000002
   16.63472176  157.52099609    1.58000004    2.75000000
   16.63805580  157.73199463    1.60000002    2.75000000
   16.64111137  160.79400635    0.75000000    2.75000000
   16.64444351  156.64100647    0.75000000    2.75000000
   16.64777756  157.08799744    0.75000000    2.75000000
   16.65083313  167.77799988    0.79000002    2.75000000
   16.65166664  163.74899292    0.79000002    2.75000000
   16.65722275  163.74899292    0.79000002    2.75000000
   16.66138840  154.68699646    0.79000002    2.75000000
   16.66472244  160.39199829    0.79000002    2.75000000
   16.66777802  150.92300415    0.76999998    2.75000000
   16.67111015  166.90699768    0.75000000    2.75000000
   16.67444420  160.39799500    0.75000000    2.75000000
   16.67749977  154.00300598    0.75000000    2.75000000
   16.68083191  156.83700562    0.75000000    2.75000000
   16.68416595  158.83500671    0.75000000    2.75000000
   16.68499947  163.51699829    0.75000000    2.75000000
   16.68750000  155.38099670    0.76999998    2.75000000
   16.69083214  156.62399292    0.80000001    2.75000000
   16.69416618  158.61099243    0.80000001    2.75000000
   16.70027924  158.61099243    0.94000000    2.75000000
   16.70416832  159.42700195    0.98000002    2.75000000
   16.70750046  162.28100586    0.98000002    2.75000000
   16.71083450  163.72099304    0.98000002    2.75000000
   16.71389008  166.89799500    0.98000002    2.73000002
   16.71722221  160.76600647    1.00000000    2.75000000
   16.71833420  163.69500732    1.03999996    2.75000000
   16.72083473  163.99499512    1.03999996    2.75000000
   16.72416687  154.60699463    1.03999996    2.75000000
   16.72722244  161.95199585    1.00000000    2.75000000
   16.73055649  162.52699280    0.94000000    2.75000000
   16.73388863  158.31799316    0.89999998    2.75000000
   16.73694420  163.46499634    0.89999998    2.75000000
   16.74305534  163.46499634    0.94000000    2.75000000
   16.74722290  157.25999451    0.94000000    2.73000002
   16.75027847  161.41600037    0.94000000    2.75000000
   16.75166702  151.00300598    0.95999998    2.75000000
   16.75388908  165.17300415    0.95999998    2.75000000
   16.75722313  167.71600342    1.00000000    2.75000000
   16.76027870  159.27000427    1.00000000    2.75000000
   16.76361084  157.87100220    1.01999998    2.75000000
   16.76694489  164.77900696    1.05999994    2.75000000
   16.77027702  157.49400330    1.11000001    2.75000000
   16.77333260  153.53700256    1.13000000    2.75000000
   16.77666664  151.43899536    1.13000000    2.75000000
   16.77972221  148.91000366    1.14999998    2.75000000
   16.78583336  148.91000366    1.25000000    2.75000000
   16.78999901  162.54899597    1.26999998    2.75000000
   16.79305458  162.67799377    1.26999998    2.75000000
   16.79638863  155.25799561    1.28999996    2.75000000
   16.79972076  164.99800110    1.28999996    2.75000000
   16.80277634  161.47099304    1.28999996    2.73000002
   16.80611038  160.85000610    1.30999994    2.75000000
   16.80944443  160.59899902    1.34000003    2.73000002
   16.81250000  163.00799561    1.34000003    2.73000002
   16.81583214  166.75500488    1.34000003    2.73000002
   16.81833458  175.79600525    1.34000003    2.73000002
   16.81944466  165.05799866    1.36000001    2.73000002
   16.82277870  158.21600342    1.34000003    2.75000000
   16.82861137  158.21600342    1.34000003    2.75000000
   16.83277893  166.08799744    1.34000003    2.73000002
   16.83611107  167.01600647    1.30999994    2.75000000
   16.83916664  159.75900269    1.28999996    2.75000000
   16.84250069  154.35000610    1.28999996    2.75000000
   16.84583473  163.61000061    1.28999996    2.73000002
   16.84889030  161.50300598    1.26999998    2.75000000
   16.85166740  158.58200073    1.26999998    2.75000000
   16.85250092  161.83799744    1.28999996    2.75000000
   16.85583305  159.86199951    1.28999996    2.75000000
   16.85916710  160.32899475    1.26999998    2.73000002
   16.86222267  165.64599609    1.26999998    2.73000002
   16.86555672  161.50000000    1.26999998    2.75000000
   16.87166595  161.50000000    1.30999994    2.75000000
   16.87555504  163.71099854    1.33000004    2.73000002
   16.87888908  157.19299316    1.30999994    2.73000002
   16.88222313  163.50799561    1.30999994    2.75000000
   16.88500023  165.44500732    1.25000000    2.75000000
   16.88555527  160.60000610    1.25000000    2.75000000
   16.88888931  163.42199707    1.25000000    2.73000002
   16.89194489  162.31500244    1.28999996    2.75000000
   16.89527702  165.00199890    1.30999994    2.75000000
   16.89861107  167.16600037    1.34000003    2.75000000
   16.90166664  162.96299744    1.36000001    2.75000000
   16.90499878  157.24400330    1.38000000    2.75000000
   16.90833282  166.13999939    1.38000000    2.75000000
   16.91472244  166.13999939    1.36000001    2.75000000
   16.91888809  162.75300598    1.36000001    2.75000000
   16.92194366  167.07699585    1.36000001    2.73000002
   16.92527771  167.71099854    1.34000003    2.75000000
   16.92860985  164.79400635    1.34000003    2.75000000
   16.93166542  166.77499390    1.33000004    2.75000000
   16.93499947  146.84399414    1.33000004    2.73000002
   16.93833160  156.36700439    1.33000004    2.73000002
   16.94138718  158.78900146    1.33000004    2.73000002
   16.94472122  166.18800354    1.33000004    2.75000000
   16.94777679  162.36500549    1.38000000    2.75000000
   16.95111275  156.50399780    1.41999996    2.73000002
   16.95166779  162.33200073    1.44000006    2.73000002
   16.95722389  162.33200073    1.50000000    2.73000002
   16.96138954  159.65199280    1.48000002    2.75000000
   16.96444511  170.63600159    1.48000002    2.73000002
   16.96777916  176.68400574    1.41999996    2.75000000
   16.97111130  164.62699890    1.41999996    2.73000002
   16.97416687  161.39599609    1.39999998    2.75000000
   16.97750092  160.52900696    1.39999998    2.73000002
   16.98083305  157.86000061    1.39999998    2.73000002
   16.98388863  147.96299744    1.39999998    2.75000000
   16.98500061  164.91299438    1.39999998    2.75000000
   16.98777771  157.54899597    1.36000001    2.75000000
   16.99083328  161.30099487    1.36000001    2.73000002
   16.99416733  150.02600098    1.36000001    2.75000000
   17.00000000  150.02600098    1.36000001    2.73000002
   17.00416756  164.10099792    1.39999998    2.73000002
   17.00749969  163.72399902    1.41999996    2.73000002
   17.01055527  164.63800049    1.44000006    2.73000002
   17.01388931  171.74400330    1.50000000    2.73000002
   17.01722145  164.19799805    1.51999998    2.73000002
   17.01833344  164.52600098    1.51999998    2.73000002
   17.02083397  168.54400635    1.51999998    2.73000002
   17.02416611  171.39599609    1.69000006    2.75000000
   17.02722168  163.33799744    1.71000004    2.75000000
   17.03055573  157.60600281    1.71000004    2.73000002
   17.03361130  163.66000366    1.75000000    2.73000002
   17.03694344  157.47700500    1.76999998    2.73000002
   17.04305458  157.47700500    1.83000004    2.73000002
   17.04694366  162.18899536    1.85000002    2.73000002
   17.05027771  155.00000000    1.83000004    2.73000002
   17.05166626  148.12399292    1.83000004    2.75000000
   17.05388832  164.78799438    1.73000002    2.75000000
   17.05694389  169.53799438    1.71000004    2.73000002
   17.06027794  160.88299561    1.71000004    2.73000002
   17.06361008  154.43600464    1.71000004    2.73000002
   17.06666756  158.45799255    1.71000004    2.73000002
   17.07000160  166.54699707    1.71000004    2.73000002
   17.07305717  159.45199585    1.69000006    2.73000002
   17.07638931  160.71000671    1.69000006    2.73000002
   17.07972336  156.37399292    1.55999994    2.73000002
   17.08583450  156.37399292    1.55999994    2.73000002
   17.09000015  153.78100586    1.64999998    2.75000000
   17.09305573  165.70899963    1.66999996    2.73000002
   17.09638977  156.86099243    1.66999996    2.73000002
   17.09972191  162.37500000    1.53999996    2.73000002
   17.10305595  165.58900452    1.51999998    2.73000002
   17.10611153  164.76600647    1.53999996    2.73000002
   17.10944557  158.83200073    1.51999998    2.75000000
   17.11250114  164.12300110    1.50000000    2.75000000
   17.11583328  161.25900269    1.50000000    2.75000000
   17.11833382  160.07899475    1.46000004    2.73000002
   17.11944389  156.38999939    1.46000004    2.73000002
   17.12249947  164.89399719    1.46000004    2.73000002
   17.12861061  164.89399719    1.61000001    2.73000002
   17.13277817  157.19400024    1.61000001    2.73000002
   17.13583374  157.86399841    1.58000004    2.73000002
   17.13916588  162.11799622    1.55999994    2.73000002
   17.14249992  158.35000610    1.58000004    2.73000002
   17.14555550  162.61399841    1.58000004    2.73000002
   17.14888954  160.43299866    1.61000001    2.75000000
   17.15166664  168.23100281    1.71000004    2.73000002
   17.15250015  163.34399414    1.71000004    2.73000002
   17.15555573  177.16400146    1.78999996    2.73000002
   17.15888786  158.71400452    1.75000000    2.73000002
   17.16222191  169.37500000    1.66999996    2.73000002
   17.16527748  162.36199951    1.61000001    2.73000002
   17.17138863  162.36199951    1.60000002    2.73000002
   17.17555428  168.58500671    1.69000006    2.73000002
   17.17888832  161.11000061    1.76999998    2.75000000
   17.18194389  168.64700317    1.89999998    2.75000000
   17.18499947  165.64100647    2.00000000    2.73000002
   17.18583298  164.84100342    2.03999996    2.73000002
   17.18888855  162.37399292    2.11999989    2.73000002
   17.19222069  164.20799255    2.15000010    2.73000002
   17.19555473  169.54899597    2.13000011    2.73000002
   17.19861031  160.15299988    2.17000008    2.73000002
   17.20194435  162.33599854    2.26999998    2.73000002
   17.20499992  161.37300110    2.25000000    2.73000002
   17.20833397  159.35699463    2.19000006    2.73000002
   17.21416664  159.35699463    2.51999998    2.73000002
   17.21833420  159.06700134    2.94000006    2.71000004
   17.22166634  172.95500183    3.26999998    2.71000004
   17.22500038  174.55000305    3.76999998    2.71000004
   17.22805595  157.35400391    3.97000003    2.71000004
   17.23139000  172.25700378    3.97000003    2.71000004
   17.23444557  165.75199890    3.39000010    2.71000004
   17.23777771  173.42599487    2.76999998    2.73000002
   17.24111176  166.85699463    2.25000000    2.73000002
   17.24416733  168.39900208    2.34999990    2.75000000
   17.24749947  163.18699646    2.57999992    2.73000002
   17.25083351  166.16900635    2.75000000    2.73000002
   17.25166702  167.80099487    2.78999996    2.73000002
   17.25722313  167.80099487    2.75000000    2.73000002
   17.26138878  163.31799316    2.19000006    2.73000002
   17.26444435  152.55099487    2.01999998    2.73000002
   17.26777840  159.14300537    1.94000006    2.73000002
   17.28527641  158.02400208    1.88000000    2.73000002
   17.28777695  163.21099854    1.88000000    2.73000002
   17.29083252  164.17399597    1.86000001    2.73000002
   17.29416656  162.74299622    1.80999994    2.73000002
   17.30027771  162.74299622    1.80999994    2.73000002
   17.30444336  159.77799988    1.76999998    2.73000002
   17.30749893  164.58000183    1.73000002    2.75000000
   17.31083298  165.70100403    1.73000002    2.75000000
   17.31388855  165.43400574    1.73000002    2.73000002
   17.31722260  165.39799500    1.75000000    2.73000002
   17.31861115  171.00300598    1.75000000    2.73000002
   17.32111168  162.81500244    1.69000006    2.73000002
   17.32416725  166.16499329    1.69000006    2.73000002
   17.32750130  160.70599365    1.69000006    2.73000002
   17.33111191  161.91999817    1.69000006    2.73000002
   17.33416748  158.78799438    1.69000006    2.73000002
   17.33750153  173.78300476    1.69000006    2.73000002
   17.34305573  173.78300476    1.69000006    2.73000002
   17.34722328  165.98599243    1.60000002    2.73000002
   17.35027885  163.25000000    1.55999994    2.73000002
   17.35194397  168.65800476    1.55999994    2.73000002
   17.35416794  163.13699341    1.53999996    2.73000002
   17.35722351  166.43099976    1.50000000    2.75000000
   17.36055565  169.20599365    1.48000002    2.75000000
   17.36361122  164.17900085    1.48000002    2.73000002
   17.36694527  171.90299988    1.44000006    2.73000002
   17.37027740  168.54400635    1.44000006    2.73000002
   17.37333298  171.11799622    1.46000004    2.73000002
   17.37666702  157.17100525    1.46000004    2.73000002
   17.38000107  164.31599426    1.46000004    2.73000002
   17.38583374  164.31599426    1.39999998    2.71000004
   17.38999939  166.78999329    1.38000000    2.73000002
   17.39333344  158.44200134    1.41999996    2.73000002
   17.39638901  157.96000671    1.41999996    2.73000002
   17.39972115  160.30000305    1.41999996    2.75000000
   17.40277672  162.07200623    1.44000006    2.75000000
   17.40611076  167.38000488    1.44000006    2.73000002
   17.40944481  162.92500305    1.39999998    2.75000000
   17.41250038  153.53500366    1.38000000    2.75000000
   17.41583252  165.24600220    1.36000001    2.75000000
   17.41860962  168.91099548    1.36000001    2.75000000
   17.41944313  167.19299316    1.36000001    2.75000000
   17.42249870  150.80000305    1.36000001    2.73000002
   17.42860985  150.80000305    2.09999990    2.73000002
   17.43277740  158.82000732    2.25000000    2.73000002
   17.43610954  160.58700562    2.42000008    2.71000004
   17.43916512  171.18499756    2.80999994    2.69000006
   17.44249916  160.91299438    2.76999998    2.71000004
   17.44583321  143.87399292    2.19000006    2.73000002
   17.44888878  169.91700745    2.13000011    2.73000002
   17.45194435  160.85400391    2.13000011    2.73000002
   17.45277786  157.58299255    2.11999989    2.73000002
   17.45583344  157.16299438    2.23000002    2.73000002
   17.45916748  164.10200500    2.48000002    2.73000002
   17.46222305  162.88400269    2.80999994    2.73000002
   17.46555710  164.31500244    3.30999994    2.71000004
   17.47166634  164.31500244    3.32999992    2.71000004
   17.47555542  162.36399841    3.03999996    2.73000002
   17.47888947  149.26699829    2.71000004    2.73000002
   17.48222351  161.58099365    2.96000004    2.73000002
   17.48527718  156.98899841    3.53999996    2.71000004
   17.48583412  159.64399719    3.53999996    2.71000004
   17.48888969  160.71899414    3.89000010    2.71000004
   17.49222183  154.08799744    4.19999981    2.73000002
   17.49527740  155.46699524    4.67999983    2.71000004
   17.49861145  157.04200745    4.90999985    2.71000004
   17.50194359  166.96200562    4.90999985    2.69000006
   17.50499916  169.80099487    4.90999985    2.69000006
   17.50833321  162.38299561    4.90999985    2.67000008
   17.51444435  162.38299561    4.90999985    2.67000008
   17.51861000  171.50500488    4.90999985    2.67000008
   17.51916695  180.82099915    4.90999985    2.67000008
   17.52222252  182.27600098    4.90999985    2.64000010
   17.52555466  173.91700745    4.90999985    2.61999989
   17.52861023  197.79600525    4.90999985    2.57999992
   17.53194427  190.68299866    4.90999985    2.55999994
   17.53527641  194.75700378    4.90999985    2.55999994
   17.53833199  209.37600708    4.90999985    2.50000000
   17.54194450  207.30099487    4.90999985    2.48000002
   17.54527664  216.46699524    1.23000002    0.75000000
   17.54833221  184.90899658    0.23000000    0.34000000
   17.55166626  187.70799255    0.13000000    0.09000000
   17.55222130  181.10400391    0.13000000    0.09000000
   17.55722237  181.10400391    0.11000000    0.03000000
   17.56138802  168.35600281    0.11000000    0.03000000
   17.56472206  182.74200439    0.11000000    0.03000000
   17.56777954  169.62600708    0.11000000    0.03000000
   17.57111168  185.71899414    0.11000000    0.03000000
   17.57416725  177.17500305    0.11000000    0.03000000
   17.57750130  171.50000000    0.11000000    0.03000000
   17.58083344  174.94000244    0.11000000    0.03000000
   17.58388901  171.69900513    0.11000000    0.03000000
   17.58555603  174.24099731    0.11000000    0.03000000
   17.58777809  174.79899597    0.11000000    0.03000000
   17.59083366  176.79899597    0.11000000    0.03000000
   17.59416771  178.88699341    0.11000000    0.03000000
   17.60000038  178.88699341    0.11000000    0.03000000
   17.60416794  177.32200623    0.11000000    0.03000000
   17.60750008  176.88499451    0.11000000    0.03000000
   17.61055565  173.33999634    0.11000000    0.03000000
   17.61388969  174.56700134    0.11000000    0.03000000
   17.61722183  167.78700256    0.11000000    0.03000000
   17.61888885  168.47999573    0.11000000    0.03000000
   17.62083435  189.22000122    0.11000000    0.03000000
   17.62388992  176.94599915    0.11000000    0.03000000
   17.62722206  179.85299683    0.11000000    0.03000000
   17.63055611  168.09599304    0.11000000    0.03000000
   17.63361168  175.07699585    0.11000000    0.03000000
   17.63694382  171.33900452    0.11000000    0.03000000
   17.64305496  171.33900452    0.11000000    0.03000000
   17.64694405  175.79899597    0.11000000    0.03000000
   17.65027809  171.38699341    0.11000000    0.03000000
   17.65222168  171.20599365    0.11000000    0.03000000
   17.65416718  172.27900696    0.11000000    0.03000000
   17.65722275  173.05499268    0.11000000    0.03000000
   17.66055489  175.59800720    0.11000000    0.03000000
   17.66388893  172.98199463    0.11000000    0.03000000
   17.66694450  168.92900085    0.11000000    0.03000000
   17.67027664  179.46400452    0.11000000    0.03000000
   17.67333221  176.94200134    0.11000000    0.03000000
   17.67666626  171.63600159    0.11000000    0.03000000
   17.68000031  186.14100647    0.11000000    0.03000000
   17.68583298  186.14100647    0.11000000    0.03000000
   17.68999863  194.33999634    0.11000000    0.03000000
   17.69305420  192.15800476    0.11000000    0.03000000
   17.69638824  192.52600098    0.11000000    0.03000000
   17.69972038  186.27999878    0.11000000    0.03000000
   17.70277786  184.06799316    0.11000000    0.03000000
   17.70611191  189.92399597    0.11000000    0.03000000
   17.70944595  192.39100647    0.11000000    0.03000000
   17.71250153  191.48699951    0.11000000    0.03000000
   17.71583366  183.99099731    0.11000000    0.03000000
   17.71888924  190.45700073    0.11000000    0.03000000
   17.71944427  197.02000427    0.11000000    0.03000000
   17.72249985  196.19299316    0.11000000    0.03000000
   17.72861099  196.19299316    0.11000000    0.03000000
   17.73277855  253.86999512    0.11000000    0.03000000
   17.73611069  282.27499390    0.11000000    0.03000000
   17.73916626  391.01300049    0.11000000    0.03000000
   17.74250031  380.72100830    0.11000000    0.03000000
   17.74555588  352.70700073    0.11000000    0.03000000
   17.74888992  246.92900085    0.11000000    0.03000000
   17.75222206  233.66000366    0.11000000    0.03000000
   17.75277710  237.14999390    0.11000000    0.03000000
   17.75583267  231.95100403    0.11000000    0.03000000
   17.75916672  254.37399292    0.11000000    0.03000000
   17.76250076  268.41400146    0.11000000    0.03000000
   17.76555634  270.15499878    0.11000000    0.03000000
   17.77138901  270.15499878    0.11000000    0.03000000
   17.77555466  289.83200073    0.11000000    0.03000000
   17.77888870  327.06399536    0.11000000    0.03000000
   17.78194427  322.61999512    0.11000000    0.03000000
   17.78527641  368.28900146    0.11000000    0.03000000
   17.78610992  307.46200562    0.11000000    0.03000000
   17.78888893  284.67800903    0.11000000    0.03000000
   17.79222107  288.05801392    0.11000000    0.03000000
   17.79555511  319.38299561    0.11000000    0.03000000
   17.79861069  351.35000610    0.11000000    0.03000000
   17.80194283  369.98001099    0.11000000    0.03000000
   17.80499840  360.58099365    0.11000000    0.03000000
   17.80833244  316.95901489    0.11000000    0.03000000
   17.81444359  316.95901489    0.11000000    0.03000000
   17.81833458  306.62298584    0.11000000    0.03000000
   17.81944466  304.45001221    0.11000000    0.03000000
   17.82194519  331.72000122    0.11000000    0.03000000
   17.82527924  330.67599487    0.11000000    0.03000000
   17.82861137  330.18798828    0.11000000    0.03000000
   17.83166695  337.40399170    0.11000000    0.03000000
   17.83500099  385.32800293    0.11000000    0.03000000
   17.83805656  304.68600464    0.11000000    0.03000000
   17.84138870  303.81100464    0.11000000    0.03000000
   17.84472275  268.48800659    0.11000000    0.03000000
   17.84777832  275.75201416    0.11000000    0.03000000
   17.85111237  257.85198975    0.11000000    0.03000000
   17.85277748  253.69099426    0.11000000    0.03000000
   17.85722351  253.69099426    0.11000000    0.03000000
   17.86138916  330.04000854    0.11000000    0.03000000
   17.86444473  391.01098633    0.11000000    0.03000000
   17.86777878  379.46798706    0.11000000    0.03000000
   17.87111092  393.08200073    0.11000000    0.03000000
   17.87416649  356.31399536    0.11000000    0.03000000
   17.87750053  370.39099121    0.11000000    0.03000000
   17.88083267  393.85299683    0.11000000    0.03000000
   17.88388824  403.99200439    0.11000000    0.03000000
   17.88611031  390.02200317    0.11000000    0.03000000
   17.88722229  426.26098633    0.11000000    0.03000000
   17.88861084  367.95999146    0.11000000    0.03000000
   17.88999939  439.54299927    0.11000000    0.03000000
   17.89138794  415.64001465    0.11000000    0.03000000
   17.89277840  343.23901367    0.11000000    0.03000000
   17.89305496  393.85299683    0.11000000    0.03000000
   17.89305496  403.99200439    0.11000000    0.03000000
   17.89305496  257.85198975    0.11000000    0.03000000
   17.89333344  330.04000854    0.11000000    0.03000000
   17.89333344  391.01098633    0.11000000    0.03000000
   17.89333344  379.46798706    0.11000000    0.03000000
   17.89361191  393.08200073    0.11000000    0.03000000
   17.89361191  356.31399536    0.11000000    0.03000000
   17.89388847  370.39099121    0.11000000    0.03000000
   17.89444351  334.80700684    0.11000000    0.03000000
   17.89749908  325.10699463    0.11000000    0.03000000
   17.90083313  322.15600586    0.11000000    0.03000000
   17.90388870   -1.00000000    0.11000000    0.03000000
   17.90722275   -1.00000000    0.11000000    0.03000000
   17.91777802   -1.00000000    0.11000000    0.03000000
   17.92083359   -1.00000000    0.11000000    0.03000000
   17.92416573   -1.00000000    0.11000000    0.03000000
   17.92777634   -1.00000000    0.11000000    0.03000000
   17.93083191   -1.00000000    0.11000000    0.03000000
   17.93416595   -1.00000000    0.11000000    0.03000000
   17.93722153   -1.00000000    0.11000000    0.03000000
   17.94055557   -1.00000000    0.11000000    0.03000000
   17.94388771   -1.00000000    0.11000000    0.03000000
   17.94694328   34.50000000    0.11000000    0.03000000
   17.95027924   -1.00000000   -1.00000000   -1.00000000
   17.95666695   -1.00000000   -1.00000000   -1.00000000
   17.96055603   -1.00000000    0.11000000    0.03000000
   17.96389008   -1.00000000    0.11000000    0.03000000
   17.96722221   -1.00000000    0.11000000    0.03000000
   17.97027779   -1.00000000    0.11000000    0.03000000
   17.97361183   -1.00000000    0.11000000    0.03000000
   17.97694588   -1.00000000    0.11000000    0.03000000
   17.98000145   69.52719879    0.11000000    0.03000000
   17.98333359  106.77899933    0.11000000    0.03000000
   17.98638916  207.08399963    0.11000000    0.03000000
   17.98972321  357.35400391    0.11000000    0.03000000
   17.99305534  259.73800659    0.11000000    0.03000000
   17.99361229  268.05099487    0.11000000    0.03000000
   17.99944496  268.05099487    0.11000000    0.03000000
   18.00361061  276.82501221    0.11000000    0.03000000
   18.00666618  294.84298706    0.11000000    0.03000000
   18.01000023  344.13800049    0.11000000    0.03000000
   18.01333427  307.32901001    0.11000000    0.03000000
   18.01638794  287.31799316    0.11000000    0.03000000
   18.01972198  301.28698730    0.11000000    0.03000000
   18.02277756  337.13400269    0.11000000    0.03000000
   18.02611160  339.53500366    0.11000000    0.03000000
   18.02694511  367.32400513    0.11000000    0.03000000
   18.02972221  296.66799927    0.11000000    0.03000000
   18.03305435  353.80200195    0.11000000    0.03000000
   18.03638840  328.18399048    0.11000000    0.03000000
   18.04222107  328.18399048    0.11000000    0.03000000
   18.04638863  277.27301025    0.11000000    0.03000000
   18.04972076  328.46798706    0.11000000    0.03000000
   18.05277634  288.26699829    0.11000000    0.03000000
   18.05611038  246.30000305    0.11000000    0.03000000
   18.05944443  264.33401489    0.11000000    0.03000000
   18.06027794  224.14900208    0.11000000    0.03000000
   18.06277657  214.01899719    0.11000000    0.03000000
   18.06611061  233.13900757    0.11000000    0.03000000
   18.06944466  247.85000610    0.11000000    0.03000000
   18.07250023  264.49798584    0.11000000    0.03000000
   18.07583427  266.88000488    0.11000000    0.03000000
   18.07888985  321.94198608    0.11000000    0.03000000
   18.08500099  321.94198608    0.11000000    0.03000000
   18.08916664  145.53300476    0.11000000    0.03000000
   18.09250069  120.10700226    0.11000000    0.03000000
   18.09361267  106.32800293    0.11000000    0.03000000
   18.09611130   88.37290192    0.11000000    0.03000000
   18.09944534   97.04840088    0.11000000    0.03000000
   18.10277748   98.28720093    0.11000000    0.03000000
   18.10583305   51.94800186    0.11000000    0.03000000
   18.10916710   50.44010162    0.11000000    0.03000000
   18.11222267   -1.00000000    0.11000000    0.03000000
   18.11555672   -1.00000000    0.11000000    0.03000000
   18.11888885   -1.00000000    0.11000000    0.03000000
   18.12194443   -1.00000000    0.11000000    0.03000000
   18.13194466   -1.00000000    0.11000000    0.03000000
   18.13527679   -1.00000000    0.11000000    0.03000000
   18.13833237   -1.00000000    0.11000000    0.03000000
   18.14166641   -1.00000000    0.11000000    0.03000000
   18.14500046   -1.00000000    0.11000000    0.03000000
   18.14805603   -1.00000000    0.11000000    0.03000000
   18.15138817   56.76770020    0.11000000    0.03000000
   18.15444374   95.60130310    0.11000000    0.03000000
   18.15777779  115.96099854    0.11000000    0.03000000
   18.16027832  117.73699951    0.11000000    0.03000000
   18.16138840  306.91299438    0.11000000    0.03000000
   18.16472244  306.83700562    0.11000000    0.03000000
   18.17083359  306.83700562    0.11000000    0.03000000
   18.17499924  185.63999939    0.11000000    0.03000000
   18.17805481  171.47399902    0.11000000    0.03000000
   18.18138885  180.76100159    0.11000000    0.03000000
   18.18444443  174.92500305    0.11000000    0.03000000
   18.18777657  169.88400269    0.11000000    0.03000000
   18.19111061  169.11399841    0.11000000    0.03000000
   18.19361115  173.03399658    0.11000000    0.03000000
   18.19444275  169.48899841    0.11000000    0.03000000
   18.19777679  172.02600098    0.11000000    0.03000000
