    HOUR (UT)   FLARE FACTOR    SKY TESTER    SUN TESTER
   12.20583344   -1.00000000   -1.00000000   -1.00000000
   12.45638847  169.71600342    4.90999985    0.61000001
   12.45972157  222.20100403    4.90999985    0.63000000
   12.46277714  104.65599823    4.90999985    0.51999998
   12.46611118   -1.00000000    4.90999985    0.23000000
   12.46944427   -1.00000000    4.90999985    0.20999999
   12.47249985   -1.00000000    4.90999985    0.13000000
   12.48083305   -1.00000000    4.90999985    0.19000000
   12.48388958  163.27099609    4.90999985    0.50000000
   12.48722267  192.07600403    4.90999985    0.46000001
   12.48972225  191.71699524    4.90999985    0.51999998
   12.49111176  166.33299255    4.90999985    0.46000001
   12.49416733  167.82699585    4.90999985    0.52999997
   12.49750042  181.70599365    4.90999985    0.55000001
   12.50055599  295.67498779    4.90999985    0.50000000
   12.50388908  166.96899414    4.90999985    0.46000001
   12.50722218  176.64999390    4.90999985    0.52999997
   12.51027775  161.69799805    4.90999985    0.55000001
   12.51361084  166.92300415    4.90999985    0.55000001
   12.51944447  166.92300415    4.38999987    0.52999997
   12.52361107  125.86399841    3.80999994    0.30000001
   12.52694416  159.64799500    3.45000005    0.52999997
   12.52999973  156.02499390    4.90999985    0.52999997
   12.53333378  165.58599854    4.90999985    0.55000001
   12.53666687  154.84300232    4.90999985    0.55000001
   12.53972244  165.28500366    4.90999985    0.56999999
   12.54305553  164.14199829    4.90999985    0.58999997
   12.54638958  161.30799866    4.90999985    0.56999999
   12.54944515   -1.00000000    4.90999985    0.34000000
   12.55277824   -1.00000000    4.90999985    0.23000000
   12.55583382   -1.00000000    4.90999985    0.13000000
   12.56250000   -1.00000000    4.90999985    0.46000001
   12.56638908  169.82800293    4.90999985    0.52999997
   12.56972218  172.64100647    4.90999985    0.50000000
   12.57305527  185.03100586    4.90999985    0.52999997
   12.57611084  172.96699524    4.90999985    0.55000001
   12.57944393  165.76899719    4.90999985    0.55000001
   12.58277798  164.85200500    4.90999985    0.52999997
   12.58583260  163.51699829    4.90999985    0.52999997
   12.58916664  156.55799866    4.90999985    0.56999999
   12.58972168  191.06199646    4.90999985    0.56999999
   12.59277725   -1.00000000    4.90999985    0.41999999
   12.59611034   -1.00000000    4.90999985    0.28000000
   12.59916592  127.93499756    4.90999985    0.38000000
   12.60527802  127.93499756    4.90999985    0.31999999
   12.60944462  184.95100403    4.90999985    0.44000000
   12.61250019  161.68499756    4.90999985    0.47999999
   12.61583328  240.98300171    4.42999983    0.41999999
   12.61916637  153.65800476    4.15999985    0.46000001
   12.62222195  161.97000122    4.57999992    0.52999997
   12.62305546  146.31500244    4.57999992    0.52999997
   12.62583351  159.31399536    4.90999985    0.52999997
   12.62916660  158.42199707    4.90999985    0.55000001
   12.63222218  167.97999573    4.90999985    0.56999999
   12.63555527  164.90100098    4.90999985    0.58999997
   12.63888836  157.36099243    4.90999985    0.34000000
   12.64194393  150.79299927    4.90999985    0.56999999
   12.64805508  150.79299927    4.90999985    0.55000001
   12.65222168  167.73899841    4.90999985    0.58999997
   12.65555477   -1.00000000    4.90999985    0.56999999
   12.65638828  276.34298706    4.90999985    0.25000000
   12.65916634  201.90400696    4.90999985    0.50000000
   12.66249943  169.11500549    4.90999985    0.50000000
   12.66555500  167.41999817    4.90999985    0.58999997
   12.66888905  163.61099243    4.90999985    0.61000001
   12.67222214  211.20199585    4.90999985    0.61000001
   12.67527771   -1.00000000    4.90999985    0.47999999
   12.67861176   -1.00000000    4.90999985    0.25000000
   12.68166733  170.11999512    4.90999985    0.41999999
   12.68500042  155.68200684    4.90999985    0.55000001
   12.69083309  155.68200684    1.36000001    0.52999997
   12.69499969  161.48199463    0.81999999    0.51999998
   12.69833374  154.81599426    0.76999998    0.51999998
   12.70138836  167.63200378    0.69000000    0.50000000
   12.70472240  156.17500305    0.98000002    0.51999998
   12.70805550  151.11700439    1.07000005    0.51999998
   12.71111107  169.32699585    0.88000000    0.51999998
   12.71444416  168.79299927    0.86000001    0.51999998
   12.71777725  170.24800110    1.07000005    0.51999998
   12.72083282  183.97999573    1.26999998    0.51999998
   12.72305489  190.36799622    1.14999998    0.51999998
   12.72444439  192.66600037    1.14999998    0.50000000
   12.72777748  263.26000977    1.58000004    0.47999999
   12.73388958  263.26000977    4.90999985    0.51999998
   12.73777771   -1.00000000    4.90999985    0.31999999
   12.74111176   -1.00000000    4.90999985    0.25999999
   12.74444485  164.14100647    4.42999983    0.23000000
   12.74750042  343.68399048    3.16000009    0.41999999
   12.75083351  125.35700226    3.73000002    0.46000001
   12.75416660  124.58699799    4.76000023    0.44000000
   12.75638866  344.46099854    4.90999985    0.41999999
   12.75777817  199.94799805    4.90999985    0.40000001
   12.76111126  211.76899719    4.90999985    0.47999999
   12.76416683  277.11999512    4.90999985    0.50000000
   12.76749992  223.27499390    4.90999985    0.51999998
   12.77083302   67.12239838    4.90999985    0.56999999
   12.77666664   67.12239838    4.90999985    0.36000001
   12.78083324  200.89799500    4.90999985    0.52999997
   12.78388977  175.96099854    4.90999985    0.55000001
   12.78722286   -1.00000000    4.90999985    0.19000000
   12.78972244  139.39599609    4.90999985    0.17000000
   12.79083347   -1.00000000    4.90999985    0.23000000
   12.79416752  192.11900330    4.90999985    0.47999999
   12.79722309  169.78500366    4.90999985    0.58999997
   12.80055618  229.25900269    4.90999985    0.55000001
   12.80388927  248.99299622    4.90999985    0.38000000
   12.80694485  317.09799194    4.90999985    0.47999999
   12.81027794  184.38000488    4.90999985    0.40000001
   12.81333351  309.75100708    4.90999985    0.52999997
   12.81944466  309.75100708    3.80999994    0.46000001
   12.82361126  315.82598877    4.90999985    0.50000000
   12.82694435  188.24000549    4.90999985    0.44000000
   12.82999992  202.95500183    4.90999985    0.52999997
   12.83333302  102.59100342    4.90999985    0.56999999
   12.83638859  158.57699585    4.90999985    0.44000000
   12.83972168  170.64399719    4.90999985    0.28000000
   12.84305477  160.34700012    4.90999985    0.61000001
   12.84611034  159.00399780    4.90999985    0.61000001
   12.84944439  165.71499634    4.90999985    0.61000001
   12.85277843  155.38600159    4.90999985    0.47999999
   12.85583401  157.63000488    4.90999985    0.63000000
   12.85666752  157.99699402    4.90999985    0.63000000
   12.86222267  157.99699402    4.90999985    0.61000001
   12.86638927  260.31500244    4.90999985    0.50000000
   12.86972237  188.65100098    4.90999985    0.46000001
   12.87277794  199.99400330    4.90999985    0.56999999
   12.87611103  161.68200684    4.82999992    0.51999998
   12.87944412  159.27699280    4.90999985    0.55000001
   12.88249969  154.30400085    4.90999985    0.52999997
   12.88583279  337.70700073    4.90999985    0.55000001
   12.88916683   23.57019997    4.90999985    0.51999998
   12.89249992  300.49600220    4.90999985    0.46000001
   12.89555550   -1.00000000    4.90999985    0.30000001
   12.89888859  167.11500549    4.90999985    0.15000001
   12.90527725  167.11500549    4.90999985    0.47999999
   12.90916634  220.45599365    4.15999985    0.47999999
   12.91249943  224.45100403    4.01999998    0.46000001
   12.91583252  130.34399414    4.30999994    0.46000001
   12.91888905   -1.00000000    4.71999979    0.44000000
   12.92222214  175.85299683    4.90999985    0.36000001
   12.92333412  237.80299377    4.44999981    0.38000000
   12.92583370  175.23599243    4.28999996    0.50000000
   12.92916679  183.62500000    4.84999990    0.50000000
   12.93222237  213.24000549    4.84999990    0.51999998
   12.93555546  180.99299622    4.90999985    0.46000001
   12.93888855  286.24499512    4.90999985    0.47999999
   12.94194412  204.98699951    4.90999985    0.47999999
   12.94805527  204.98699951    4.90999985    0.58999997
   12.95222187  147.50900269    4.90999985    0.30000001
   12.95527744   -1.00000000    4.61999989    0.44000000
   12.95666695  161.72500610    4.38999987    0.25000000
   12.95888901  156.07600403    3.16000009    0.52999997
   12.96222210  329.67898560    3.05999994    0.52999997
   12.96555519  237.05999756    3.05999994    0.47999999
   12.96861076  151.76800537    2.80999994    0.47999999
   12.97194386  183.77900696    1.76999998    0.51999998
   12.97499943  155.59700012    1.80999994    0.47999999
   12.97833252  264.66101074    1.94000006    0.50000000
   12.98166656  160.06399536    2.69000006    0.46000001
   12.98472214  241.31799316    3.01999998    0.51999998
   12.99083328  241.31799316    3.89000010    0.51999998
   12.99499989  149.47700500    3.78999996    0.47999999
   12.99833393  185.55900574    4.90999985    0.52999997
   13.00138855  182.88699341    4.90999985    0.47999999
   13.00472260  156.50000000    4.90999985    0.50000000
   13.00777817  147.06599426    4.90999985    0.55000001
   13.01111126  143.37100220    4.90999985    0.55000001
   13.01444435  153.39599609    4.90999985    0.55000001
   13.01749992  159.99099731    4.90999985    0.51999998
   13.02083302  153.87800598    4.90999985    0.51999998
   13.02333355  148.57800293    3.21000004    0.51999998
   13.02444458  157.83000183    1.53999996    0.50000000
   13.02777767  161.44000244    1.28999996    0.47999999
   13.03361130  161.44000244    0.89999998    0.47999999
   13.03777790  165.57400513    0.89999998    0.46000001
   13.04111195  181.97700500    1.01999998    0.46000001
   13.04416752  159.85200500    1.38000000    0.50000000
   13.04750061  101.33200073    1.36000001    0.19000000
   13.05083370  140.27499390    1.80999994    0.41999999
   13.05388927  153.02799988    1.98000002    0.50000000
   13.05666733  143.13800049    1.60000002    0.51999998
   13.05749989  147.70199585    1.51999998    0.51999998
   13.06083393  148.55799866    1.53999996    0.51999998
   13.06388950  150.44700623    1.05999994    0.51999998
   13.06722260  154.00000000    0.86000001    0.50000000
   13.07055569  174.34300232    1.14999998    0.47999999
   13.07666683  174.34300232    1.36000001    0.50000000
   13.08055592  148.16499329    1.16999996    0.51999998
   13.08388901  155.10800171    0.94000000    0.50000000
   13.08722210  152.11900330    1.01999998    0.51999998
   13.09000015  156.27099609    1.11000001    0.44000000
   13.09055519  244.16000366    1.16999996    0.51999998
   13.09388828  172.05799866    1.11000001    0.50000000
   13.09694386  138.65100098    1.11000001    0.50000000
   13.10027790  156.41200256    1.13000000    0.51999998
   13.10361195  153.42500305    0.88000000    0.51999998
   13.10666752  148.03399658    1.01999998    0.51999998
   13.11000061  147.73399353    0.83999997    0.51999998
   13.11333370  148.77600098    1.78999996    0.51999998
   13.11944485  148.77600098    4.90999985    0.55000001
   13.12361145  175.40800476    4.90999985    0.61000001
   13.12666702  146.38200378    4.90999985    0.44000000
   13.13000011  153.09100342    4.07999992    0.55000001
   13.13333321  146.06799316    0.70999998    0.52999997
   13.13638878  143.05700684    0.51999998    0.51999998
   13.13972187  138.60499573    0.55000001    0.51999998
   13.14277744  137.01699829    2.96000004    0.51999998
   13.14611053  147.56300354    4.26000023    0.51999998
   13.14944458  145.15800476    2.42000008    0.52999997
   13.15249920  142.82600403    1.76999998    0.51999998
   13.15583324  140.07400513    1.94000006    0.52999997
   13.15666676  155.13699341    1.69000006    0.52999997
   13.16222191  155.13699341    4.90999985    0.55000001
   13.16638851  138.22999573    4.90999985    0.58999997
   13.16972256  143.24600220    4.90999985    0.56999999
   13.17277813  159.61099243    4.90999985    0.52999997
   13.17611122  146.23899841    4.90999985    0.52999997
   13.17916679  139.99400330    4.90999985    0.51999998
   13.18249989  142.94500732    3.09999990    0.52999997
   13.18583298  143.15600586    0.36000001    0.51999998
   13.18888855  146.63200378    0.30000001    0.51999998
   13.19000053  140.11900330    0.30000001    0.51999998
   13.19250011  144.77099609    0.40000001    0.50000000
   13.19583321  148.75100708    0.41999999    0.51999998
   13.19916630  142.19500732    0.41999999    0.51999998
   13.20499992  142.19500732    4.38999987    0.51999998
   13.20916653  146.69999695    4.90999985    0.55000001
   13.21249962  136.59500122    4.90999985    0.61000001
   13.21555519  141.40899658    4.90999985    0.56999999
   13.21888828  122.61799622    4.90999985    0.58999997
   13.22222137  128.83200073    4.90999985    0.69000000
   13.22555542   -1.00000000    4.90999985    0.38000000
   13.22888851   -1.00000000    4.90999985    0.36000001
   13.23194408  174.53500366    4.90999985    0.46000001
   13.23527813  232.98399353    4.90999985    0.23000000
   13.23833370   -1.00000000    4.90999985    0.23000000
   13.24166679  137.62600708    4.84999990    0.38000000
   13.24777794  137.62600708    1.51999998    0.51999998
   13.25194454  154.63400269    1.25000000    0.47999999
   13.25527763  140.80499268    1.73000002    0.47999999
   13.25666714  137.33900452    0.70999998    0.51999998
   13.25888920  133.22700500    0.83999997    0.51999998
   13.26222229  136.49699402    1.48000002    0.50000000
   13.26555538  145.31100464    4.90999985    0.52999997
   13.26861095  155.41499329    4.90999985    0.58999997
   13.27194405  150.44500732    4.90999985    0.58999997
   13.27499962  143.36799622    4.90999985    0.56999999
   13.27833271  135.12899780    4.90999985    0.55000001
   13.28166676  142.87199402    4.90999985    0.55000001
   13.28472233  140.48899841    4.19999981    0.52999997
   13.29083347  140.48899841    0.31999999    0.51999998
   13.29500008  137.05200195    0.31999999    0.51999998
   13.29805565  140.30200195    0.36000001    0.51999998
   13.30138874  138.13000488    0.40000001    0.51999998
   13.30444431  128.66099548    0.46000001    0.51999998
   13.30777836  133.16700745    0.44000000    0.51999998
   13.31111145  124.71099854    0.34000000    0.51999998
   13.31416702  136.35899353    0.30000001    0.51999998
   13.31750011  133.61000061    0.30000001    0.51999998
   13.32083321  139.94500732    0.30000001    0.51999998
   13.32333374  137.86199951    0.30000001    0.51999998
   13.32416630  140.33599854    0.30000001    0.51999998
   13.32750034  137.12100220    0.30000001    0.51999998
   13.33361053  137.12100220    0.30000001    0.51999998
   13.33777714  134.85099792    0.30000001    0.51999998
   13.34083271  137.52900696    0.30000001    0.51999998
   13.34416676  139.23500061    0.31999999    0.51999998
   13.34749985  136.27799988    0.34000000    0.50000000
   13.35055637  138.69299316    1.03999996    0.50000000
   13.35388947  143.14700317    1.36000001    0.51999998
   13.35666752  137.92599487    1.75000000    0.51999998
   13.35750008  137.33099365    1.69000006    0.51999998
   13.36083412  162.78399658    4.90999985    0.52999997
   13.36416721  135.98100281    4.90999985    0.52999997
   13.36722279  132.69200134    4.90999985    0.55000001
   13.37055588   -1.00000000    4.90999985    0.56999999
   13.37638855   -1.00000000    3.09999990    0.55000001
   13.38055611  135.23100281    4.90999985    0.52999997
   13.38388920  135.30499268    4.90999985    0.55000001
   13.38694477  137.79400635    4.90999985    0.52999997
   13.39000034  131.74600220    4.90999985    0.52999997
   13.39055538  139.93699646    4.90999985    0.52999997
   13.39416695  130.90400696    4.90999985    0.55000001
   13.39722252  128.02400208    4.90999985    0.55000001
   13.40055561  130.41499329    4.90999985    0.55000001
   13.40361118  130.87399292    4.90999985    0.55000001
   13.40694427  133.20100403    4.90999985    0.56999999
   13.41027737  137.78900146    4.90999985    0.56999999
   13.41333294  129.77900696    4.90999985    0.55000001
   13.41916656  129.77900696    0.61000001    0.51999998
   13.42333412  140.63000488    0.64999998    0.51999998
   13.42666721  131.19000244    0.51999998    0.50000000
   13.43000031  132.05099487    0.38000000    0.51999998
   13.43305588  132.95799255    0.47999999    0.51999998
   13.43638897  139.42799377    0.41999999    0.51999998
   13.43944454  135.46000671    0.31999999    0.51999998
   13.44277763  137.91299438    0.31999999    0.50000000
   13.44611073  137.90899658    0.44000000    0.51999998
   13.44916630  135.77099609    0.69000000    0.51999998
   13.45249939  151.86300659    0.47999999    0.51999998
   13.45583344  134.00100708    0.40000001    0.51999998
   13.45666695  137.66700745    0.41999999    0.51999998
   13.47722149  137.66700745    1.50000000    0.51999998
   13.48138809  152.25300598    1.60000002    0.51999998
   13.48472214  141.68200684    0.52999997    0.51999998
   13.48777771  149.67799377    0.25999999    0.51999998
   13.49000072  146.25900269    0.25999999    0.51999998
   13.49138927  145.58799744    0.25999999    0.51999998
   13.49472237  142.71000671    0.25999999    0.51999998
   13.49805546  147.77499390    0.25000000    0.51999998
   13.50111103  146.36500549    0.25000000    0.51999998
   13.50444412  145.82499695    0.25000000    0.51999998
   13.50777817  138.89399719    0.28000000    0.51999998
   13.51083374  148.05999756    0.30000001    0.51999998
   13.51416683  148.47200012    0.30000001    0.51999998
   13.51999950  148.47200012    0.41999999    0.51999998
   13.52416611  150.36399841    0.34000000    0.51999998
   13.52750015  148.87600708    0.30000001    0.51999998
   13.53055573  148.62699890    0.28000000    0.51999998
   13.53388977  144.78199768    0.46000001    0.51999998
   13.53722286  151.75399780    1.66999996    0.52999997
   13.54027843  140.75599670    1.94000006    0.52999997
   13.54361153  143.28100586    4.11999989    0.52999997
   13.54666710  153.09100342    4.44999981    0.52999997
   13.55000019  146.77799988    4.90999985    0.55000001
   13.55333328  141.05999756    4.90999985    0.55000001
   13.55638885  143.61500549    4.90999985    0.55000001
   13.55694485  154.82099915    4.90999985    0.55000001
   13.56305599  154.82099915    4.90999985    0.52999997
   13.56694412  151.32000732    4.90999985    0.52999997
   13.57027817  154.86500549    4.90999985    0.55000001
   13.57361126  146.37800598    2.39000010    0.52999997
   13.57666683  149.57200623    1.98000002    0.52999997
   13.57999992  157.86999512    4.76000023    0.52999997
   13.58305550  144.09300232    4.90999985    0.56999999
   13.58638859  149.52900696    4.90999985    0.61000001
   13.58972168  149.37300110    4.90999985    0.46000001
   13.59027767  138.31100464    4.90999985    0.55000001
   13.59333324  138.45700073    4.90999985    0.58999997
   13.59666634  159.28599548    4.90999985    0.56999999
   13.59972191  133.94700623    4.90999985    0.56999999
   13.60583401  133.94700623    4.90999985    0.56999999
   13.61000061  162.81799316    4.90999985    0.55000001
   13.61305618  147.75999451    4.90999985    0.55000001
   13.61638927  140.46400452    4.90999985    0.56999999
   13.61972237  152.76300049    4.90999985    0.58999997
   13.62277794  145.26800537    4.90999985    0.56999999
   13.62361145  152.65400696    4.90999985    0.56999999
   13.62638855  149.01699829    4.90999985    0.56999999
   13.62972260  155.27600098    4.90999985    0.55000001
   13.63277817  146.34399414    4.90999985    0.52999997
   13.63611126  149.11900330    2.61999989    0.52999997
   13.63916683  148.63499451    1.05999994    0.52999997
   13.64249992  137.66200256    0.81999999    0.52999997
   13.64861107  137.66200256    2.66000009    0.51999998
   13.65277767  130.44799805    4.90999985    0.52999997
   13.65583324  146.42399597    4.90999985    0.52999997
   13.65694427  137.94900513    4.90999985    0.52999997
   13.65972137  145.91000366    1.36000001    0.50000000
   13.66305542  140.27999878    0.52999997    0.51999998
   13.66611099  140.95799255    0.55000001    0.51999998
   13.66944504  137.69599915    0.51999998    0.51999998
   13.67250061  141.65899658    0.64999998    0.51999998
   13.67583370  147.54600525    0.86000001    0.50000000
   13.67916679  159.02600098    0.75000000    0.50000000
   13.68222237  145.48599243    0.63000000    0.50000000
   13.68555546  144.04400635    0.67000002    0.51999998
   13.69138908  144.04400635    1.07000005    0.51999998
   13.69555569  159.92500305    1.13000000    0.50000000
   13.69888878  143.99000549    0.70999998    0.50000000
   13.70194435  140.78399658    0.44000000    0.51999998
   13.70527744  146.58599854    0.25999999    0.51999998
   13.70861053  142.61799622    1.39999998    0.52999997
   13.71166611  141.18899536    4.21999979    0.52999997
   13.71500015  141.68099976    4.90999985    0.55000001
   13.71805477  135.28599548    4.90999985    0.55000001
   13.72138882  147.53500366    4.90999985    0.55000001
   13.72361088  143.42900085    3.48000002    0.51999998
   13.72499943  138.21800232    2.28999996    0.52999997
   13.72833252  138.89999390    1.19000006    0.51999998
   13.73416710  138.89999390    0.51999998    0.51999998
   13.73833370  135.16099548    0.50000000    0.51999998
   13.74166679  131.22700500    0.67000002    0.51999998
   13.74499989  137.91799927    1.16999996    0.51999998
   13.74805546  135.78599548    1.60000002    0.50000000
   13.75138855  139.85099792    0.88000000    0.52999997
   13.75444412  143.14199829    1.16999996    0.51999998
   13.75694466  138.63099670    2.26999998    0.51999998
   13.75833321  147.73699951    1.89999998    0.51999998
   13.76166630  141.15800476    1.51999998    0.51999998
   13.76472187  138.30599976    0.75000000    0.52999997
   13.76805496  136.80400085    0.55000001    0.51999998
   13.77111053  142.71800232    0.75000000    0.51999998
   13.77722168  142.71800232    0.51999998    0.51999998
   13.78138828  132.41900635    0.36000001    0.51999998
   13.78444481  134.77299500    0.56999999    0.52999997
   13.78777790  133.28999329    1.09000003    0.51999998
   13.79027843  134.99600220    0.76999998    0.51999998
   13.79138947  133.28599548    0.70999998    0.51999998
   13.79472256  139.52099609    0.95999998    0.51999998
   13.79777813  131.23500061    1.21000004    0.51999998
   13.80111122  125.33599854    1.01999998    0.50000000
   13.80416679  131.35499573    0.75000000    0.50000000
   13.80749989  140.39399719    0.79000002    0.51999998
   13.81083393  138.47099304    1.21000004    0.50000000
   13.81416702  140.21699524    0.95999998    0.51999998
   13.81999969  140.21699524    0.23000000    0.51999998
   13.82416630  132.57400513    0.20999999    0.51999998
   13.82722187  138.77000427    0.20999999    0.51999998
   13.83055592  130.02499390    0.25000000    0.51999998
   13.83388901  138.13600159    0.25999999    0.51999998
   13.83694458  132.46499634    0.46000001    0.51999998
   13.84027767  134.55200195    0.61000001    0.50000000
   13.84361076  139.49000549    0.56999999    0.47999999
   13.84666634  141.72500610    0.55000001    0.51999998
   13.85000038  146.15899658    0.55000001    0.51999998
   13.85305595  135.30599976    4.90999985    2.67000008
   13.85638905  135.36099243    4.90999985    2.64000010
   13.85694504  144.10699463    4.90999985    2.67000008
   13.86277771  144.10699463    4.90999985    2.53999996
   13.86694431  135.33999634    4.90999985    2.61999989
   13.87027836  138.87899780    4.90999985    2.59999990
   13.87333393  138.69400024    4.90999985    2.69000006
   13.87666702  127.76999664    4.90999985    2.64000010
   13.88000011  143.50700378    4.90999985    2.67000008
   13.88305569  129.44700623    4.90999985    2.61999989
   13.88638878  139.23500061    4.90999985    2.67000008
   13.88944435  146.34599304    4.90999985    2.61999989
   13.89027786  141.07800293    4.90999985    2.55999994
   13.89305496  135.36999512    4.90999985    2.61999989
   13.89638901  128.97999573    4.32999992    2.71000004
   13.89944458  135.23100281    4.90999985    2.66000009
   13.90555477  135.23100281    4.65999985    2.69000006
   13.90972137  133.87800598    4.90999985    2.61999989
   13.91305542  138.53199768    4.90999985    2.55999994
   13.91638851  131.87199402    4.90999985    2.66000009
   13.91944504  132.32299805    4.90999985    2.69000006
   13.92277813  126.04699707    4.90999985    2.69000006
   13.92361164  132.42900085    4.90999985    2.64000010
   13.92638874  122.51799774    3.93000007    2.71000004
   13.92972279  137.61999512    4.90999985    2.64000010
   13.93277836  135.98699951    4.90999985    2.53999996
   13.93611145  130.41700745    4.90999985    2.66000009
   13.93944454  129.36000061    3.51999998    2.73000002
   13.94250011  129.92399597    4.90999985    2.71000004
   13.94861126  129.92399597    4.05999994    2.71000004
   13.95277786  132.79899597    3.20000005    2.71000004
   13.95583344  135.97000122    3.26999998    2.71000004
   13.95694447  128.50399780    3.18000007    2.71000004
   13.95944405  133.09500122    3.05999994    2.71000004
   13.96277714  136.78300476    3.75000000    2.71000004
   13.96583271  133.54200745    4.82999992    2.67000008
   13.96916580  132.77099609    3.48000002    2.71000004
   13.97249985  130.17399597    3.28999996    2.71000004
   13.97555542  133.41000366    4.51000023    2.73000002
   13.97888851  126.20899963    4.90999985    2.73000002
   13.98222160  127.80200195    3.26999998    2.71000004
   13.98527813  127.84500122    3.32999992    2.71000004
   13.99138927  127.84500122    3.16000009    2.71000004
   13.99555588  140.27000427    3.80999994    2.71000004
   13.99861145  127.32499695    4.90999985    2.67000008
   14.00194454  135.19700623    4.71999979    2.71000004
   14.00527763  138.03500366    4.90999985    2.66000009
   14.00833321  136.43699646    4.90999985    2.66000009
   14.01166630  136.09700012    4.90999985    2.67000008
   14.01500034  137.66700745    4.05999994    2.69000006
   14.01805496  142.16700745    3.82999992    2.69000006
   14.02138901  141.39399719    4.90999985    2.55999994
   14.02361107  135.83999634    4.90999985    2.67000008
   14.02499962  129.79800415    4.90999985    2.64000010
   14.02833271  134.92999268    4.76000023    2.71000004
   14.03416729  134.92999268    4.90999985    2.66000009
   14.03833389  133.22599792    4.65999985    2.73000002
   14.04166698  128.16799927    4.53999996    2.69000006
   14.04472256  128.94000244    3.61999989    2.71000004
   14.04805565  129.31399536    4.07999992    2.69000006
   14.05138874  139.09199524    3.64000010    2.71000004
   14.05444431  129.28500366    3.45000005    2.69000006
   14.05694485  134.75399780    3.41000009    2.69000006
   14.05805588  135.81199646    3.30999994    2.71000004
   14.06138897  127.48200226    3.32999992    2.71000004
   14.06444454  135.66299438    3.43000007    2.71000004
   14.06777763  132.80499268    3.30999994    2.71000004
   14.07111073  130.96600342    3.23000002    2.71000004
   14.07694435  130.96600342    2.84999990    2.73000002
   14.08111095  131.11599731    3.00000000    2.71000004
   14.08444405  132.02600098    2.80999994    2.73000002
   14.08777714  126.56099701    2.80999994    2.73000002
   14.09027767  126.57700348    2.84999990    2.73000002
   14.09138870  128.38900757    2.82999992    2.73000002
   14.09472179  129.78900146    2.80999994    2.75000000
   14.09777737  127.35800171    2.80999994    2.73000002
   14.10111141  130.88000488    2.82999992    2.71000004
   14.10444450  130.15600586    2.91000009    2.73000002
   14.10750008  125.16600037    2.86999989    2.73000002
   14.11083412  120.05500031    2.91000009    2.73000002
   14.11388969  120.38099670    2.93000007    2.73000002
   14.11999989  120.38099670    3.53999996    2.73000002
   14.12416649  118.79599762    4.53000021    2.73000002
   14.12722206  125.86299896    4.01999998    2.71000004
   14.13055611  122.71900177    4.90999985    2.57999992
   14.13361073  130.49400330    3.95000005    2.73000002
   14.13694477  137.49099731    4.90999985    2.19000006
   14.14027786  169.23500061    4.90999985    2.73000002
   14.14333344  164.39199829    4.90999985    2.11999989
   14.14666653   -1.00000000    4.90999985    2.19000006
   14.14999962  177.72300720    4.90999985    2.42000008
   14.15305519   -1.00000000    4.90999985    1.53999996
   14.15638828   -1.00000000    4.90999985    0.73000002
   14.16277695   -1.00000000    4.90999985    1.53999996
   14.16694450  126.70099640    4.90999985    2.75000000
   14.17000008  124.50800323    2.91000009    2.76999998
   14.17333412  130.30499268    2.86999989    2.75000000
   14.17666721  127.57900238    2.75000000    2.73000002
   14.17972279  126.62000275    2.84999990    2.73000002
   14.18305588  124.95500183    3.11999989    2.73000002
   14.18638897  128.91999817    2.86999989    2.73000002
   14.18944454  126.99199677    3.03999996    2.73000002
   14.19055557  127.38400269    3.03999996    2.73000002
   14.19305515  125.80300140    3.78999996    2.73000002
   14.19638920  126.12200165    3.21000004    2.73000002
   14.19944477  121.70700073    3.07999992    2.73000002
   14.20555496  121.70700073    3.39000010    2.73000002
   14.20972157  122.35399628    4.17999983    2.69000006
   14.21305561  126.82700348    3.91000009    2.71000004
   14.21611118  129.69900513    4.42999983    2.73000002
   14.21944427  132.21600342    3.50000000    2.73000002
   14.22277737  124.82800293    3.07999992    2.73000002
   14.22388840  126.49800110    3.09999990    2.73000002
   14.22611046  125.06400299    3.26999998    2.73000002
   14.22944355  124.25299835    4.26999998    2.71000004
   14.23249912  124.71499634    3.20000005    2.73000002
   14.23583317  127.00800323    2.93000007    2.73000002
   14.23916721  123.22799683    3.03999996    2.73000002
   14.24222279  123.36199951    3.05999994    2.73000002
   14.24833393  123.36199951    3.59999990    2.73000002
   14.25249958  124.51799774    4.32999992    2.73000002
   14.25583363  125.54100037    4.88999987    2.71000004
   14.25722218  130.24499512    4.90999985    2.71000004
   14.25944424  124.53099823    4.90999985    2.69000006
   14.26277733  120.14700317    4.90999985    2.71000004
   14.26583290  122.01399994    4.21999979    2.71000004
   14.26916599  124.90599823    3.66000009    2.75000000
   14.27250004  118.02700043    3.59999990    2.75000000
   14.27555561  124.45200348    3.39000010    2.75000000
   14.27888870  126.97000122    3.84999990    2.73000002
   14.28222179  121.58000183    4.84999990    2.73000002
   14.28527832  127.15899658    4.90999985    2.59999990
   14.29138947  127.15899658    3.16000009    2.73000002
   14.29555607  119.94999695    2.94000006    2.75000000
   14.29861164  123.93099976    3.07999992    2.73000002
   14.30194473  117.92400360    3.32999992    2.73000002
   14.30500031  121.06199646    4.28999996    2.71000004
   14.30833340  107.55799866    4.90999985    2.66000009
   14.31166649  121.15000153    4.90999985    2.64000010
   14.31472206  127.36900330    4.90999985    2.67000008
   14.31805515  120.23100281    4.90999985    2.67000008
   14.32138920  127.46700287    4.90999985    2.69000006
   14.32388878  122.57700348    4.32999992    2.71000004
   14.32472229  121.43099976    4.15999985    2.69000006
   14.32805538  120.48000336    3.78999996    2.69000006
   14.33416653  120.48000336    3.01999998    2.73000002
   14.33833313  122.02799988    2.86999989    2.75000000
   14.34138870  119.18900299    2.82999992    2.75000000
   14.34472179  116.54699707    2.78999996    2.73000002
   14.34805489  122.76399994    2.82999992    2.73000002
   14.35111141  120.38800049    2.78999996    2.75000000
   14.35444450  115.78399658    2.93000007    2.73000002
   14.35722256  118.61499786    2.80999994    2.75000000
   14.35805607  117.52799988    2.80999994    2.75000000
   14.36138916  120.79199982    2.75000000    2.75000000
   14.36472225  117.95899963    2.75000000    2.75000000
   14.36777782  119.92900085    2.80999994    2.73000002
   14.37111092  117.59600067    3.45000005    2.75000000
   14.37694454  117.59600067    3.97000003    2.73000002
   14.38111115  126.02500153    4.90999985    2.73000002
   14.38444424  118.53800201    3.30999994    2.75000000
   14.38749981  119.33699799    3.03999996    2.75000000
   14.39055538  120.38500214    3.30999994    2.73000002
   14.39111137  119.01200104    3.73000002    2.73000002
   14.39444447  121.85299683    3.30999994    2.73000002
   14.39777756  117.98100281    3.23000002    2.73000002
   14.40083313  123.84600067    3.00000000    2.75000000
   14.40416622  122.58000183    2.75000000    2.75000000
   14.40722179  121.70600128    2.86999989    2.75000000
   14.41055489  125.25099945    2.98000002    2.75000000
   14.41388893  121.87000275    2.98000002    2.75000000
   14.41972256  121.87000275    3.16000009    2.73000002
   14.42388916  116.33200073    3.59999990    2.73000002
   14.42722225  120.61100006    3.76999998    2.71000004
   14.43027782  119.39399719    4.51000023    2.71000004
   14.43361092  121.87799835    3.11999989    2.75000000
   14.43694496  119.86499786    4.32999992    2.73000002
   14.44000053  115.81999969    3.89000010    2.75000000
   14.44333363  115.92199707    3.28999996    2.75000000
   14.44666672  119.85500336    4.11999989    2.75000000
   14.44972229  119.47299957    3.41000009    2.75000000
   14.45305538  120.16200256    3.21000004    2.75000000
   14.45611095  119.83699799    4.71999979    2.73000002
   14.45722198  120.53700256    4.90999985    2.73000002
   14.46277714  120.53700256    4.73999977    2.75000000
   14.46666622  126.73200226    4.90999985    2.46000004
   14.46999931  116.57800293    4.90999985    2.09999990
   14.47333336  120.07499695    4.90999985    2.67000008
   14.49083328  115.64499664    3.93000007    2.71000004
   14.49333382  117.39299774    4.44999981    2.71000004
   14.49638939  116.72799683    4.28999996    2.73000002
   14.49972248  118.58399963    3.99000001    2.71000004
   14.50555515  118.58399963    3.95000005    2.71000004
   14.50972176  124.20600128    3.03999996    2.75000000
   14.51305580  120.18399811    3.39000010    2.75000000
   14.51638889  116.90000153    4.90999985    2.67000008
   14.51944447  121.15200043    4.90999985    2.71000004
   14.52277756  120.58200073    4.23999977    2.73000002
   14.52388859  121.07599640    4.80999994    2.71000004
   14.52638817  126.37400055    4.84999990    2.71000004
   14.52972221  128.31500244    4.90999985    2.67000008
   14.53277779  119.45300293    4.90999985    2.57999992
   14.53611183  117.37699890    4.90999985    2.67000008
   14.53944492  121.38300323    4.32999992    2.73000002
   14.54250050  125.73200226    4.86999989    2.64000010
   14.54861164  125.73200226    4.90999985    2.66000009
   14.55277824  118.10500336    4.90999985    2.69000006
   14.55583382  116.17700195    4.90999985    2.73000002
   14.55749989  125.18099976    4.90999985    2.75000000
   14.55944443  126.07599640    4.90999985    2.71000004
   14.56277752  121.80699921    4.90999985    2.66000009
   14.56583309  121.96600342    4.90999985    2.71000004
   14.56916618  126.98799896    4.90999985    2.66000009
   14.57250023  116.94799805    4.90999985    2.66000009
   14.57555580  120.87000275    4.90999985    2.51999998
   14.57888889  120.85099792    4.90999985    2.66000009
   14.58222198  123.66600037    4.90999985    2.57999992
   14.58527756  122.29900360    4.90999985    2.71000004
   14.59138870  122.29900360    4.90999985    2.67000008
   14.59555531  116.58300018    4.90999985    2.67000008
   14.59861088  118.75199890    4.90999985    2.69000006
   14.60194492  120.01399994    4.90999985    2.73000002
   14.60527802  122.51399994    4.90999985    2.73000002
   14.60833359  128.63600159    4.90999985    2.69000006
   14.61166668  123.27400208    4.90999985    2.66000009
   14.61500072  122.58599854    4.90999985    2.71000004
   14.61805534  136.73500061    4.90999985    2.73000002
   14.62138939  132.35800171    4.90999985    2.64000010
   14.62416649  124.16899872    4.90999985    2.59999990
   14.62500000  136.81199646    4.90999985    2.61999989
   14.62833309  124.69200134    4.90999985    2.67000008
   14.63416672  124.69200134    4.90999985    2.66000009
   14.63833332  124.58999634    4.90999985    2.57999992
   14.64166641  123.26000214    4.90999985    2.57999992
   14.64472198  130.58700562    4.90999985    2.44000006
   14.64805508  143.00700378    4.90999985    2.32999992
   14.65138817  145.70399475    4.90999985    2.55999994
   14.65444374  125.62200165    4.90999985    2.55999994
   14.65749931  131.80999756    4.90999985    2.69000006
   14.65805531  121.03500366    4.90999985    2.67000008
   14.66138840  119.16899872    4.90999985    2.75000000
   14.66444397  127.70600128    4.90999985    2.69000006
   14.66777802  116.33999634    4.90999985    2.59999990
   14.67111111  125.67299652    4.90999985    2.71000004
   14.67694473  125.67299652    4.90999985    2.64000010
   14.68111134  127.65699768    4.90999985    2.71000004
   14.68444443  130.81799316    4.90999985    2.50000000
   14.68777752  138.60200500    4.90999985    2.66000009
   14.69083309  133.19700623    4.90999985    2.64000010
   14.69111156  135.49800110    4.90999985    2.64000010
   14.69444466  126.48100281    4.90999985    2.64000010
   14.69777775  124.55699921    4.90999985    2.66000009
   14.70083332  127.03800201    4.90999985    2.57999992
   14.70416641  129.94900513    4.90999985    2.61999989
   14.70749950  138.49299622    4.90999985    2.50000000
   14.71055508  141.38299561    4.90999985    2.55999994
   14.71388912  144.99000549    4.90999985    2.66000009
   14.71999931  144.99000549    4.90999985    2.25000000
   14.72416592  133.22099304    4.90999985    2.66000009
   14.72722149  135.47099304    4.90999985    2.61999989
   14.73055553  128.45399475    4.90999985    2.61999989
   14.73361111  131.70100403    4.90999985    2.64000010
   14.73694515  136.46800232    4.90999985    2.66000009
   14.74027824  146.49699402    4.90999985    2.66000009
   14.74333382  144.77600098    4.90999985    2.46000004
   14.74666691  148.79699707    4.90999985    2.61999989
   14.75000000  169.63699341    4.90999985    2.36999989
   14.75305557  153.59199524    4.90999985    2.42000008
   14.75638866  168.64500427    4.90999985    2.40000010
   14.75749969  168.83799744    4.90999985    2.39000010
   14.76277733  168.83799744    4.90999985    2.46000004
   14.76694393  143.12800598    4.90999985    2.42000008
   14.76999950  148.52499390    4.90999985    2.39000010
   14.77333355  128.17399597    4.90999985    2.42000008
   14.77666664  130.81599426    4.90999985    2.71000004
   14.77972221  127.88899994    4.90999985    2.69000006
   14.78305531  133.94000244    4.90999985    2.69000006
   14.78638935  140.79299927    4.90999985    2.61999989
   14.78944492  156.43899536    4.90999985    2.64000010
   14.79083347  142.75999451    4.90999985    2.53999996
   14.79305553  139.11799622    4.90999985    2.51999998
   14.79638958  123.88800049    4.90999985    2.66000009
   14.79972267  128.70599365    4.90999985    2.73000002
   14.80555534  128.70599365    4.90999985    2.69000006
   14.80972195  127.74199677    4.90999985    2.71000004
   14.81305599  123.76000214    4.90999985    2.73000002
   14.81611156  126.18199921    4.90999985    2.61999989
   14.81944466  132.14999390    4.90999985    2.71000004
   14.82277775  127.00700378    4.90999985    2.67000008
   14.82416630  131.64199829    4.90999985    2.59999990
   14.82611084  145.77999878    4.90999985    2.51999998
   14.82944393  146.93899536    4.90999985    2.64000010
   14.83277798  161.29299927    4.90999985    2.61999989
   14.83583260  134.11700439    4.90999985    2.44000006
   14.83916664  145.66799927    4.90999985    2.30999994
   14.84222221  131.61700439    4.90999985    2.66000009
   14.84833336  131.61700439    4.90999985    2.67000008
   14.85249996  135.95500183    4.90999985    2.67000008
   14.85583401  135.64700317    4.90999985    2.55999994
   14.85750008  131.35400391    4.90999985    2.67000008
   14.85944462  132.49200439    4.90999985    2.69000006
   14.86277771  137.48100281    4.90999985    2.55999994
   14.86611176  129.18099976    4.90999985    2.61999989
   14.86916637  133.54800415    4.90999985    2.55999994
   14.87250042  126.26799774    4.90999985    2.73000002
   14.87555599  124.10500336    4.90999985    2.64000010
   14.87888908  118.81300354    4.90999985    2.73000002
   14.88222218  131.98199463    4.90999985    2.66000009
   14.88527775  126.14299774    4.90999985    2.75000000
   14.89138889  126.14299774    4.90999985    2.71000004
   14.89555550  128.04499817    4.88999987    2.75000000
   14.89861107  125.18000031    4.53000021    2.75000000
   14.90194416  127.55300140    3.89000010    2.75000000
   14.90499973  124.44200134    4.90999985    2.75000000
   14.90833282  128.56100464    4.90999985    2.73000002
   14.91166592  120.96700287    4.90999985    2.69000006
   14.91472149  121.38200378    4.86999989    2.75000000
   14.91805553  127.44100189    4.80999994    2.73000002
   14.92138958  124.32199860    4.90999985    2.75000000
   14.92416668  128.73899841    4.90999985    2.75000000
   14.92472267  127.94699860    4.90999985    2.73000002
   14.92805576  124.48000336    4.90999985    2.73000002
   14.93416691  124.48000336    4.90999985    2.67000008
   14.93833351  122.02300262    4.90999985    2.73000002
   14.94138908  125.11599731    4.90999985    2.61999989
   14.94472218  123.84200287    4.90999985    2.73000002
   14.94805527  127.33399963    4.90999985    2.71000004
   14.95111084  127.78700256    4.90999985    2.71000004
   14.95444393  136.21200562    4.90999985    2.71000004
   14.95749950  133.05200195    4.90999985    2.67000008
   14.95805550  132.32499695    4.90999985    2.69000006
   14.96138859  124.42700195    4.90999985    2.69000006
   14.96472168  130.97200012    4.30999994    2.76999998
   14.96777725  207.73599243    4.90999985    2.64000010
   14.97111034  139.30400085    4.90999985    2.39000010
   14.97694397  139.30400085    4.65999985    2.76999998
   14.98111057  127.45200348    4.90999985    2.76999998
   14.98444462  129.33299255    4.90999985    2.69000006
   14.98750019  123.80000305    4.90999985    2.75000000
   14.99083328  128.89999390    3.95000005    2.76999998
   14.99111176  129.27499390    3.95000005    2.76999998
   14.99444485  124.91699982    4.90999985    2.73000002
   14.99777794  127.60199738    4.51000023    2.75000000
   15.00083351  128.61500549    4.07999992    2.78999996
   15.00416660  129.29600525    4.90999985    2.80999994
   15.00722218  132.02000427    4.90999985    2.53999996
   15.01055527  125.55400085    4.90999985    2.67000008
   15.01388931  126.07900238    4.90999985    2.75000000
   15.01972198  126.07900238    4.90999985    2.73000002
   15.02388859  138.83399963    4.90999985    2.67000008
   15.02444458  134.73399353    4.90999985    2.69000006
   15.02777767  123.43699646    4.90999985    2.67000008
   15.03083324  131.30999756    4.90999985    2.67000008
   15.03416729  125.75700378    4.90999985    2.64000010
   15.03750038  130.81799316    4.90999985    2.61999989
   15.04055595  145.55200195    4.90999985    2.71000004
   15.04388905  133.68699646    4.90999985    2.73000002
   15.04694462  140.69400024    4.90999985    2.69000006
   15.05027771  133.19400024    4.90999985    2.59999990
   15.05361176  121.95500183    4.90999985    2.71000004
   15.05666733  133.60499573    4.90999985    2.71000004
   15.05777836  134.24600220    4.90999985    2.73000002
   15.06277752  134.24600220    4.90999985    2.67000008
   15.06666660  144.47700500    4.90999985    2.75000000
   15.06999969  152.22399902    4.90999985    2.69000006
   15.07333374  163.34700012    4.90999985    2.55999994
   15.07638836  130.37899780    4.90999985    2.57999992
   15.07972240  127.13500214    4.90999985    2.46000004
   15.08305550  130.06799316    4.90999985    2.71000004
   15.08611107  130.85899353    4.90999985    2.76999998
   15.08944416  132.38400269    4.90999985    2.75000000
   15.09111118  123.79699707    4.90999985    2.69000006
   15.09305477  125.89099884    4.90999985    2.76999998
   15.09611034  136.30000305    4.90999985    2.61999989
   15.09944439  132.23500061    4.90999985    2.67000008
   15.10555553  132.23500061    4.90999985    2.71000004
   15.10972214  129.54899597    4.90999985    2.59999990
   15.11277771  130.82000732    4.90999985    2.69000006
   15.11611176  125.15499878    4.90999985    2.69000006
   15.11944485  120.23699951    4.90999985    2.69000006
   15.12250042  129.25700378    4.90999985    2.75000000
   15.12444496  128.91000366    4.90999985    2.73000002
   15.12638855  135.35699463    4.90999985    2.59999990
   15.12944412  137.53700256    4.90999985    2.64000010
   15.13277817  130.67300415    4.90999985    2.61999989
   15.13611126  124.10199738    4.90999985    2.69000006
   15.13916683  136.01400757    4.90999985    2.78999996
   15.14249992  129.06500244    4.90999985    2.75000000
   15.14833355  129.06500244    4.90999985    2.76999998
   15.15249920  106.13200378    4.90999985    2.42000008
   15.15583324  142.96000671    4.90999985    2.57999992
   15.15916634   -1.00000000    4.90999985    1.64999998
   15.16249943  178.31199646    4.90999985    2.00000000
   15.16583252  194.54299927    4.90999985    2.03999996
   15.16888905  128.53399658    4.90999985    2.42000008
   15.17222214  168.37300110    4.90999985    2.32999992
   15.17555618  121.18099976    4.90999985    2.30999994
   15.17861176  222.07800293    4.90999985    2.00000000
   15.18194485  199.13400269    4.90999985    2.40000010
   15.18500042  138.16099548    4.90999985    2.46000004
   15.19111156  138.16099548    4.90999985    2.67000008
   15.19527817  137.43899536    4.90999985    2.36999989
   15.19861126  135.61300659    4.90999985    2.44000006
   15.20166683  148.16600037    4.90999985    2.51999998
   15.20499992  130.44000244    4.90999985    2.57999992
   15.20833302  139.16200256    4.90999985    2.64000010
   15.21138859  126.65699768    4.90999985    2.76999998
   15.21472168  150.05099487    4.90999985    2.59999990
   15.21805477  151.27000427    4.90999985    2.66000009
   15.22111034  121.32199860    4.90999985    2.61999989
   15.22444439  128.29499817    4.90999985    2.71000004
   15.22499943  132.74200439    4.90999985    2.71000004
   15.22805500  127.18099976    4.90999985    2.55999994
   15.23416710  127.18099976    4.90999985    2.78999996
   15.23805618  140.85800171    4.90999985    2.51999998
   15.24138927  126.34600067    4.90999985    2.59999990
   15.24472237  125.25199890    4.90999985    2.51999998
   15.24777794  264.69100952    4.90999985    2.61999989
   15.25111103  334.66900635    4.90999985    1.94000006
   15.25444412  146.07899475    4.90999985    1.73000002
   15.25749969  249.31799316    4.90999985    2.50000000
   15.25833321  279.87899780    4.90999985    2.34999990
   15.26111126  154.35499573    4.90999985    2.19000006
   15.26444435  258.07299805    4.90999985    2.13000011
   15.26777744  188.99099731    4.90999985    2.25000000
   15.27083302  330.11801147    4.90999985    2.40000010
   15.27694416  330.11801147    4.90999985    2.66000009
   15.28111076  138.71000671    4.90999985    2.71000004
   15.28416729  144.19799805    4.90999985    2.48000002
   15.28750038  133.91799927    4.90999985    2.66000009
   15.29083347  128.22099304    4.90999985    2.59999990
   15.29166698  131.00199890    4.90999985    2.44000006
   15.29416752  122.39800262    4.90999985    2.69000006
   15.29750061  127.29100037    4.90999985    2.71000004
   15.30083370  123.54900360    4.90999985    2.75000000
   15.30388927  143.62899780    4.90999985    2.73000002
   15.30722237  128.65600586    4.90999985    2.59999990
   15.31055546  119.15599823    4.90999985    2.76999998
   15.31361103  127.96099854    4.90999985    2.78999996
   15.31972218  127.96099854    4.90999985    2.75000000
   15.32388878  128.28100586    4.90999985    2.73000002
   15.32499981  119.05799866    4.90999985    2.76999998
   15.32750034  140.39599609    4.90999985    2.61999989
   15.33083344  148.62399292    4.90999985    2.30999994
   15.33416653  165.59700012    4.90999985    2.73000002
   15.33722210  137.86700439    4.90999985    2.53999996
   15.34055519  170.77000427    4.90999985    2.15000010
   15.34388828  128.05000305    4.90999985    1.83000004
   15.34694386  216.87500000    4.90999985    2.66000009
   15.35027790  187.01800537    4.90999985    1.75000000
   15.35333347  177.04499817    4.90999985    2.01999998
   15.35666752  217.22500610    4.90999985    2.42000008
   15.35833359  133.19999695    4.90999985    2.28999996
   15.36250019  133.19999695    4.90999985    2.32999992
   15.36666679  135.89599609    4.90999985    2.23000002
   15.36999989  323.69198608    4.90999985    2.53999996
   15.37305546  121.70999908    4.90999985    2.46000004
   15.37638855  204.65499878    4.90999985    2.36999989
   15.37972260  280.43099976    4.90999985    2.36999989
   15.38305569   60.39179993    4.90999985    1.86000001
   15.38611126  106.75099945    4.90999985    2.25000000
   15.38944435  192.09800720    4.90999985    1.94000006
   15.39166641   -1.00000000   -1.00000000   -1.00000000
   15.39277744  239.23199463    4.90999985    1.76999998
   15.39611053  132.89799500    4.90999985    2.00000000
   15.39944458  139.44099426    4.90999985    2.05999994
   15.40555477  139.44099426    4.90999985    2.09999990
   15.40944386  121.96700287    4.90999985    2.05999994
   15.41277695  127.90000153    4.90999985    2.59999990
   15.41611099  135.54600525    4.90999985    2.66000009
   15.41916656  122.95099640    4.90999985    2.67000008
   15.42250061  163.26499939    4.90999985    2.59999990
   15.42500019  121.49500275    4.90999985    2.39000010
   15.42611122  120.14900208    4.90999985    2.36999989
   15.42944431  119.28099823    4.90999985    2.69000006
   15.43277836  117.17700195    4.90999985    2.71000004
   15.43583298  131.13099670    4.90999985    2.73000002
   15.43916702  124.71399689    4.90999985    2.73000002
   15.44250011  114.36299896    4.90999985    2.67000008
   15.44833374  114.36299896    4.90999985    2.48000002
   15.45249939  130.58099365    4.90999985    2.69000006
   15.45555496  115.77799988    4.90999985    2.73000002
   15.45833302  118.94499969    4.90999985    2.32999992
   15.45916653  118.11900330    4.90999985    2.40000010
   15.46249962  126.44799805    4.90999985    2.67000008
   15.46583271  147.10600281    4.90999985    2.73000002
   15.46888828  160.65400696    4.90999985    2.67000008
   15.47222137  129.85699463    4.90999985    2.01999998
   15.47555542  118.15699768    4.90999985    2.39000010
   15.47861099  110.56600189    4.90999985    2.69000006
   15.48194408  188.93400574    4.90999985    2.39000010
   15.48500061  126.29399872    4.90999985    2.26999998
   15.49111176  126.29399872    4.90999985    2.71000004
   15.50944424  117.13999939    4.90999985    2.71000004
   15.51277733  148.34100342    4.90999985    2.78999996
   15.51583290  116.88800049    4.90999985    2.39000010
   15.51916599  176.14799500    4.90999985    2.00000000
   15.52250004  116.49700165    4.90999985    2.13000011
   15.52555561  124.79399872    4.90999985    2.76999998
   15.52888870  117.58799744    4.90999985    2.32999992
   15.53416729  117.58799744    4.90999985    2.15000010
   15.53833389  116.16999817    4.90999985    2.75000000
   15.54166698  119.08100128    4.90999985    2.78999996
   15.54250050  117.38200378    4.90999985    2.78999996
   15.54527855  117.64700317    4.90999985    2.69000006
   15.54833412  117.17099762    4.90999985    2.73000002
   15.55166721  111.93699646    4.90999985    2.73000002
   15.55500031  143.30700684    4.90999985    2.67000008
   15.55805588  143.07699585    4.90999985    2.44000006
   15.56138897  195.99699402    4.90999985    1.34000003
   15.56472206   -1.00000000    4.90999985    1.88000000
   15.56777763  124.54599762    4.90999985    1.76999998
   15.57111073   98.54399872    4.90999985    2.80999994
   15.58111095   -1.00000000    4.90999985    0.41999999
   15.58444405  114.76399994    4.90999985    1.26999998
   15.58749962  118.22399902    4.90999985    2.76999998
   15.59083271  104.88899994    4.90999985    2.73000002
   15.59388828  130.68800354    4.90999985    2.73000002
   15.59722233  110.39399719    4.90999985    2.73000002
   15.60055637  116.04199982    4.90999985    2.73000002
   15.60361195  113.34300232    4.90999985    2.76999998
   15.60694504  110.11299896    4.90999985    2.55999994
   15.60916710  115.59799957    4.90999985    2.73000002
   15.61055565  111.72200012    4.90999985    2.75000000
   15.61388969  113.48500061    4.65999985    2.75000000
   15.61999989  113.48500061    4.90999985    2.75000000
   15.62416649  116.49299622    4.90999985    2.76999998
   15.62722206  154.05700684    4.90999985    2.40000010
   15.63055611  135.99499512    4.90999985    2.40000010
   15.63361073  116.65799713    4.90999985    2.21000004
   15.63694477  127.44999695    4.90999985    2.25000000
   15.64027786   87.81349945    4.90999985    2.25000000
   15.64361095   -1.00000000    4.90999985    0.95999998
   15.64694405  173.47500610    4.90999985    1.60000002
   15.65027714  149.98800659    4.90999985    2.09999990
   15.65333271  169.05299377    4.90999985    1.83000004
   15.65666676  161.83999634    4.90999985    2.03999996
   15.66277695  161.83999634    4.90999985    2.13000011
   15.66694450  112.17099762    4.90999985    2.53999996
   15.67000008  145.70399475    4.90999985    2.46000004
   15.67333412  119.79299927    4.90999985    2.66000009
   15.67583370  112.58100128    4.90999985    2.61999989
   15.67694473  118.89199829    4.90999985    2.59999990
   15.68027782  111.91699982    4.90999985    2.44000006
   15.68333340  122.62400055    4.90999985    2.44000006
   15.68666649  117.02100372    4.90999985    2.51999998
   15.68972206  118.79000092    4.90999985    2.64000010
   15.69305515  124.87699890    4.90999985    2.59999990
   15.69638920  116.48699951    4.90999985    2.66000009
   15.69944477  115.93499756    4.90999985    2.51999998
   15.70555496  115.93499756    4.90999985    2.51999998
   15.70972157  121.82099915    4.90999985    2.23000002
   15.71305561   60.25999832    4.90999985    2.36999989
   15.71611118  276.91000366    4.90999985    1.83000004
   15.71944427   54.68700027    4.90999985    1.33000004
   15.72249985   -1.00000000    4.90999985    2.00000000
   15.72583294   -1.00000000    4.90999985    0.23000000
   15.72916603   -1.00000000    4.90999985    0.07000000
   15.73222160   -1.00000000    4.90999985    0.05000000
   15.73555565   -1.00000000    3.53999996    0.01000000
   15.73888874   -1.00000000    3.53999996    0.01000000
   15.74194431   -1.00000000    3.53999996    0.01000000
   15.75249958   -1.00000000    2.51999998    0.01000000
   15.75583363   -1.00000000    2.03999996    0.01000000
   15.75888920   -1.00000000    4.15999985    0.01000000
   15.76222229   -1.00000000    1.88000000    0.01000000
   15.76527786   -1.00000000    2.28999996    0.01000000
   15.76861095   -1.00000000    4.90999985    0.07000000
   15.77194405   -1.00000000    4.90999985    0.23000000
   15.77499962   -1.00000000    4.90999985    0.36000001
   15.77861118   -1.00000000    4.90999985    0.83999997
   15.78166676  116.41799927    4.90999985    2.25000000
   15.78500080  123.50599670    4.90999985    2.44000006
   15.79138947  123.50599670    4.90999985    2.21000004
   15.79555607  129.93200684    4.90999985    2.13000011
   15.79861164  122.79199982    4.90999985    2.23000002
   15.80194473  122.02500153    3.72000003    0.58999997
   15.80500031  132.78599548    1.61000001    0.41999999
   15.80833340  127.68900299    0.89999998    0.09000000
   15.80916691  134.20799255    0.89999998    0.09000000
   15.81194496  145.60299683    0.89999998    0.09000000
   15.81527805  140.85699463    0.89999998    0.09000000
   15.81861115  279.42498779    0.89999998    0.09000000
   15.82166672   -1.00000000    0.89999998    0.09000000
   15.82499981   -1.00000000    0.89999998    0.09000000
   15.82805538   -1.00000000    0.89999998    0.09000000
   15.83805561   -1.00000000    0.89999998    0.09000000
   15.84138870   -1.00000000    0.89999998    0.09000000
   15.84499931   -1.00000000    0.89999998    0.09000000
   15.84805489   -1.00000000    0.89999998    0.09000000
   15.85138893  235.41700745    0.89999998    0.09000000
   15.85472298  266.69601440    0.89999998    0.09000000
   15.85777855  173.27999878    0.89999998    0.09000000
   15.86111164   -1.00000000    0.89999998    0.09000000
   15.86416721  166.96899414    0.89999998    0.09000000
   15.86750031  148.41299438    0.89999998    0.09000000
   15.87083340  112.04699707    0.89999998    0.09000000
   15.87694454  112.04699707    0.89999998    0.09000000
   15.88111115  109.53700256    0.89999998    0.09000000
   15.88444424  114.80500031    0.89999998    0.09000000
   15.88749981  136.49099731    0.89999998    0.09000000
   15.89083290  113.29299927    0.89999998    0.09000000
   15.89416695  119.05000305    0.89999998    0.09000000
   15.89722252  114.95700073    0.89999998    0.09000000
   15.90055561  117.82199860    0.89999998    0.09000000
   15.90361118  127.30899811    0.89999998    0.09000000
   15.90694427  127.98999786    0.89999998    0.09000000
   15.90916634  252.11999512    0.89999998    0.09000000
   15.91055489  202.64900208    0.89999998    0.09000000
   15.91388893  242.53700256    0.89999998    0.09000000
   15.91972256  242.53700256    0.89999998    0.09000000
   15.92388916   -1.00000000    0.89999998    0.09000000
   15.92722225   -1.00000000    0.89999998    0.09000000
   15.93027782   -1.00000000    0.89999998    0.09000000
   15.93361092   -1.00000000    0.89999998    0.09000000
   15.93694496   -1.00000000    0.89999998    0.09000000
   15.94000053   -1.00000000    0.89999998    0.09000000
   15.94361115   -1.00000000    0.89999998    0.09000000
