    HOUR (UT)   FLARE FACTOR    SKY TESTER    SUN TESTER
   15.03583336   -1.00000000   -1.00000000   -1.00000000
   15.09694386  236.12100220    4.90999985    1.50000000
   15.10027790  348.46899414    4.90999985    2.75000000
   15.10222244  287.40798950    4.90999985    2.36999989
   15.10361195  221.14799500    4.90999985    2.59999990
   15.10361195  348.46899414    4.90999985    2.75000000
   15.10444450  228.45199585    4.90999985    2.55999994
   15.10777855  220.94099426    4.90999985    1.94000006
   15.11111164  228.73599243    4.90999985    2.34999990
   15.11416721  346.65798950    4.90999985    2.26999998
   15.11638927  263.46301270    4.90999985    1.86000001
   15.11750031  217.85099792    4.90999985    2.15000010
   15.11777782  228.45199585    4.90999985    2.55999994
   15.11777782  220.94099426    4.90999985    1.94000006
   15.11777782  228.73599243    4.90999985    2.34999990
   15.11805534  346.65798950    4.90999985    2.26999998
   15.11916637   -1.00000000    4.90999985    1.50000000
   15.12222195   -1.00000000    4.90999985    0.80000001
   15.12555599   -1.00000000    4.90999985    0.67000002
   15.12888908   -1.00000000    4.90999985    1.34000003
   15.13194466  400.20498657    4.90999985    2.73000002
   15.13416672  474.68099976    4.90999985    2.48000002
   15.13527775  366.36099243    4.90999985    1.98000002
   15.13666630  428.33898926    4.90999985    2.09999990
   15.13805580  267.89498901    4.90999985    2.44000006
   15.13944435  238.48699951    4.90999985    2.59999990
   15.13972187   -1.00000000    4.90999985    1.50000000
   15.13972187   -1.00000000    4.90999985    0.80000001
   15.13972187   -1.00000000    4.90999985    0.67000002
   15.14000034   -1.00000000    4.90999985    1.34000003
   15.14000034  400.20498657    4.90999985    2.73000002
   15.14055538  212.52600098    4.90999985    2.67000008
   15.14388847  202.05599976    4.90999985    2.84999990
   15.14694405  217.38499451    4.90999985    2.84999990
   15.15027714  183.89999390    0.95999998    2.78999996
   15.15361118  186.18099976    0.86000001    2.76999998
   15.16027737  186.18099976    1.19000006    2.78999996
   15.16444397  172.46200562    4.90999985    2.84999990
   15.16777802  158.43200684    4.90999985    2.71000004
   15.17083359  150.25599670    4.90999985    2.82999992
   15.17333412  154.74400330    1.51999998    2.78999996
   15.17472267  161.65100098    1.28999996    2.78999996
   15.17805576  151.89700317    1.00000000    2.76999998
   15.18111134  145.03700256    0.86000001    2.78999996
   15.18444443  139.36000061    1.05999994    2.76999998
   15.18750000  131.97200012    0.88000000    2.78999996
   15.19083309  137.71499634    2.26999998    2.78999996
   15.19416714  128.82899475    2.53999996    2.76999998
   15.19722271  143.43400574    0.94000000    2.71000004
   15.20305538  143.43400574    4.90999985    2.75000000
   15.20722198  156.07099915    4.90999985    2.48000002
   15.21055508  157.76100159    4.90999985    2.80999994
   15.21388912  132.80499268    4.90999985    2.75000000
   15.21694374  143.02400208    4.90999985    2.76999998
   15.22027779  198.94700623    4.84999990    2.80999994
   15.22333336  157.74000549    4.55999994    2.78999996
   15.22666645   95.33190155    4.90999985    2.76999998
   15.22999954   96.19239807    4.90999985    2.76999998
   15.23305511  125.71700287    4.90999985    2.75000000
   15.23638916  144.27000427    4.90999985    2.07999992
   15.23972225  143.56599426    4.90999985    2.67000008
   15.24000072  125.50000000    4.90999985    2.67000008
   15.24611092  125.50000000    0.89999998    2.78999996
   15.25027752  124.90000153    1.48000002    2.75000000
   15.25333309  109.46099854    0.61000001    2.73000002
   15.25666714  126.45800018    0.86000001    2.73000002
   15.26000023  116.71099854    0.75000000    2.73000002
   15.26305580  117.68299866    1.11000001    2.75000000
   15.26638889  122.29199982    1.96000004    2.73000002
   15.26944447  122.73400116    1.00000000    2.75000000
   15.27277756  122.85399628    0.94000000    2.75000000
   15.27361107  116.01100159    0.58999997    2.75000000
   15.27638817  107.52899933    0.55000001    2.73000002
   15.27972221  119.23200226    0.51999998    2.73000002
   15.28277779  128.02499390    0.51999998    2.75000000
   15.28888893  128.02499390    0.52999997    2.75000000
   15.29305553  122.88600159    0.52999997    2.75000000
   15.29611111  129.02000427    4.90999985    2.80999994
   15.29944515  136.53799438    4.90999985    2.67000008
   15.30277824  129.01199341    4.90999985    2.42000008
   15.30583382  115.13500214    4.90999985    2.76999998
   15.30694485  122.93000031    3.28999996    2.76999998
   15.30944443  177.85899353    4.90999985    2.78999996
   15.31277752  113.92199707    4.90999985    2.76999998
   15.31583309  134.37199402    4.90999985    2.57999992
   15.31916618  137.40400696    4.90999985    2.69000006
   15.32250023  120.29699707    4.90999985    2.73000002
   15.32555580  143.84300232    1.98000002    2.76999998
   15.33166695  143.84300232    4.90999985    2.42000008
   15.33583260  161.22200012    0.55000001    2.76999998
   15.33916664  151.48199463    0.52999997    2.75000000
   15.34027767  161.41499329    0.51999998    2.73000002
   15.34277725  147.04600525    0.52999997    2.73000002
   15.34611034  162.35600281    0.52999997    2.73000002
   15.34916592  155.60000610    0.51999998    2.73000002
   15.35249996  142.81399536    0.55000001    2.73000002
   15.35583401  144.49499512    0.52999997    2.75000000
   15.35888958  139.36799622    0.51999998    2.75000000
   15.36222267  131.69400024    0.51999998    2.75000000
   15.36555576  128.73699951    0.52999997    2.73000002
   15.36861134  136.77699280    0.51999998    2.75000000
   15.37472248  136.77699280    0.51999998    2.73000002
   15.37861156  166.37899780    0.51999998    2.73000002
   15.38194466  124.43399811    0.51999998    2.73000002
   15.38527775  150.46000671    0.51999998    2.75000000
   15.38833332  148.74200439    0.52999997    2.75000000
   15.39166641  151.08700562    0.51999998    2.71000004
   15.39499950  143.76699829    0.52999997    2.73000002
   15.39805508  137.45100403    0.51999998    2.75000000
   15.40138817  119.52500153    0.51999998    2.73000002
   15.40472221  126.02899933    0.52999997    2.75000000
   15.40694427  122.25099945    0.51999998    2.73000002
   15.40805531  119.68900299    0.51999998    2.73000002
   15.41138840  120.36399841    0.55000001    2.73000002
   15.41750050  120.36399841    0.51999998    2.73000002
   15.42166710  124.56999969    0.51999998    2.75000000
   15.42472267  113.22200012    0.51999998    2.75000000
   15.42805576  135.34599304    0.51999998    2.75000000
   15.43111134  105.16899872    0.51999998    2.75000000
   15.43444443  124.61900330    0.51999998    2.75000000
   15.43777752  108.05100250    0.51999998    2.75000000
   15.44027805  104.02799988    0.51999998    2.75000000
   15.44138908  103.10099792    0.51999998    2.75000000
   15.44472218  100.58100128    0.50000000    2.75000000
   15.44777775  113.24199677    0.51999998    2.75000000
   15.45111084  105.25599670    0.51999998    2.75000000
   15.45444393   94.13459778    0.50000000    2.75000000
   15.46027756   94.13459778    0.50000000    2.75000000
   15.46444416   97.63860321    0.50000000    2.75000000
   15.46777725  105.55899811    0.50000000    2.75000000
   15.47083282   95.70999908    0.50000000    2.75000000
   15.47361088  102.16999817    0.50000000    2.75000000
   15.47444439  124.48200226    0.50000000    2.75000000
   15.47777748  104.89299774    0.51999998    2.75000000
   15.48083305  112.41799927    0.51999998    2.75000000
   15.48416710  100.65499878    0.51999998    2.75000000
   15.48750019  115.26499939    0.50000000    2.75000000
   15.49055576  158.34500122    0.50000000    2.75000000
   15.49388885  143.88600159    0.50000000    2.75000000
   15.49722290  157.79100037    0.50000000    2.75000000
   15.50305557  157.79100037    0.51999998    2.75000000
   15.50722218  108.26100159    0.51999998    2.75000000
   15.51083374  106.90399933    0.51999998    2.75000000
   15.51388931  101.43199921    0.51999998    2.73000002
   15.51722240   99.34300232    0.51999998    2.73000002
   15.52055550  122.69599915    0.51999998    2.75000000
   15.52361107  129.75000000    0.51999998    2.75000000
   15.52694416  131.81700134    0.51999998    2.75000000
   15.53027725  103.72699738    0.52999997    2.75000000
   15.53333378  114.52999878    0.51999998    2.73000002
   15.53666687  124.21600342    0.52999997    2.75000000
   15.53972244  116.02400208    0.52999997    2.75000000
   15.54027843  105.57700348    0.52999997    2.75000000
   15.54583359  105.57700348    0.51999998    2.73000002
   15.55000019  123.55799866    0.52999997    2.75000000
   15.55333328  108.01100159    0.51999998    2.75000000
   15.55666733  113.04100037    0.51999998    2.75000000
   15.55972195  120.45700073    0.51999998    2.75000000
   15.56305599  109.55899811    0.51999998    2.75000000
   15.56611156   95.64459991    0.51999998    2.76999998
   15.56944466  123.18699646    0.52999997    2.76999998
   15.57277775  111.89299774    2.48000002    2.78999996
   15.57361126   99.35610199    3.03999996    2.78999996
   15.57638836   93.60140228    4.90999985    2.78999996
   15.57972240  118.58100128    4.90999985    2.76999998
   15.58277798  143.10499573    4.90999985    2.64000010
   15.58888817  143.10499573    4.90999985    2.55999994
   15.59305477  468.16699219    4.90999985    2.03999996
   15.59499931  135.51300049    4.90999985    2.13000011
   15.59499931  109.55899811    0.51999998    2.75000000
   15.59527779   95.64459991    0.51999998    2.76999998
   15.59527779  123.18699646    0.52999997    2.76999998
   15.59527779  111.89299774    2.48000002    2.78999996
   15.59555531   93.60140228    4.90999985    2.78999996
   15.59555531  118.58100128    4.90999985    2.76999998
   15.59555531  143.10499573    4.90999985    2.64000010
   15.59583282  468.16699219    4.90999985    2.03999996
   15.59583282  120.45700073    0.51999998    2.75000000
   15.59777737   95.18869781    4.90999985    2.67000008
   15.60111141  130.73899841    4.90999985    2.09999990
   15.60416698  145.21099854    4.90999985    2.82999992
   15.60750008  117.26499939    1.33000004    2.82999992
   15.61083412  147.27799988    4.90999985    2.84999990
   15.61583328  147.27799988    4.90999985    2.86999989
   15.61999989   -1.00000000    4.90999985    2.89000010
   15.62305546   -1.00000000    4.90999985    1.80999994
   15.62638855   -1.00000000    4.90999985    0.64999998
   15.63000011   -1.00000000    4.90999985    0.41999999
   15.63333321   90.28299713    4.90999985    0.70999998
   15.63638878   -1.00000000    4.90999985    2.13000011
   15.63972187   -1.00000000    4.90999985    0.38000000
   15.64305496   -1.00000000    4.90999985    1.64999998
   15.64611053   -1.00000000   -1.00000000   -1.00000000
   15.64944458   -1.00000000    4.90999985    0.56999999
   15.65277767   -1.00000000    4.90999985    0.25999999
   15.65861034   -1.00000000    4.90999985    0.44000000
   15.66277695  140.03199768    4.90999985    2.21000004
   15.66611099  157.20500183    4.90999985    2.00000000
   15.66916656  169.21099854    4.90999985    2.78999996
   15.67250061  150.36999512    4.90999985    2.78999996
   15.67555618  129.42100525    1.34000003    2.75000000
   15.67888927  138.50100708    0.73000002    2.76999998
   15.68222237  135.06300354    1.07000005    2.75000000
   15.68527794  146.98399353    1.39999998    2.73000002
   15.68861103  160.52999878    4.90999985    2.80999994
   15.69194412  147.39700317    4.90999985    1.55999994
   15.69499969  130.77600098    4.90999985    1.64999998
   15.69555569  180.05900574    4.90999985    1.64999998
   15.70138836  180.05900574    4.90999985    2.82999992
   15.70555496   -1.00000000    4.90999985    2.94000006
   15.70888901  180.78900146    4.90999985    1.34000003
   15.71194458   -1.00000000    4.90999985    1.89999998
   15.71527767   -1.00000000    4.90999985    1.14999998
   15.71861076   -1.00000000    4.90999985    0.95999998
   15.72166634   -1.00000000    4.90999985    1.33000004
   15.72499943   -1.00000000    4.90999985    1.25000000
   15.72833252   -1.00000000    4.90999985    0.67000002
   15.73166656   -1.00000000    4.90999985    1.03999996
   15.73500061   -1.00000000    4.90999985    1.19000006
   15.73833370   23.57019997    4.90999985    1.33000004
   15.74444485   23.57019997    4.90999985    1.51999998
   15.74833393   -1.00000000    4.90999985    1.23000002
   15.75166702   -1.00000000    4.90999985    0.81999999
   15.75500011   61.25859833    4.90999985    0.81999999
   15.75805569   -1.00000000    4.90999985    1.76999998
   15.76138878   -1.00000000    4.90999985    1.58000004
   15.76472187   -1.00000000    4.90999985    0.92000002
   15.76805496   -1.00000000    4.90999985    1.80999994
   15.77138901   -1.00000000    4.90999985    1.19000006
   15.77444458  206.87800598    4.90999985    1.14999998
   15.77777767  120.35099792    4.90999985    1.73000002
   15.78111076  120.01799774    1.64999998    2.75000000
   15.78722286  120.01799774    0.55000001    2.73000002
   15.79138947   92.13510132    0.55000001    2.75000000
   15.79444504  114.21399689    0.55000001    2.73000002
   15.79583359  107.19599915    0.55000001    2.73000002
   15.79833412  102.50199890    0.55000001    2.73000002
   15.80166721  113.34799957    0.55000001    2.75000000
   15.80500031  110.12200165    0.52999997    2.75000000
   15.80805588   97.45089722    1.11000001    2.76999998
   15.81138897  108.12400055    2.67000008    2.76999998
   15.81472206  107.70899963    0.55000001    2.76999998
   15.81777763   98.91609955    0.69000000    2.78999996
   15.82111073   96.62480164    1.46000004    2.75000000
   15.82416630  201.59300232    4.90999985    2.84999990
   15.82999992  201.59300232    4.90999985    1.36000001
   15.83416653  108.56300354    4.90999985    2.26999998
   15.83749962  125.43099976    4.90999985    2.82999992
   15.84055519  168.43600464    4.90999985    2.73000002
   15.84388828  115.92500305    4.90999985    2.86999989
   15.84694386  120.47799683    3.68000007    2.80999994
   15.85027790  113.70500183    0.89999998    2.76999998
   15.85361195  110.69200134    0.56999999    2.75000000
   15.85666752  117.84100342    0.56999999    2.75000000
   15.86000061  108.97299957    0.58999997    2.75000000
   15.86222267  119.72000122    0.56999999    2.73000002
   15.86361122  110.15200043    0.55000001    2.73000002
   15.86666679  121.64600372    0.56999999    2.73000002
   15.87277794  121.64600372    0.56999999    2.73000002
   15.87694454   98.62590027    0.56999999    2.73000002
   15.88027763  110.65499878    0.56999999    2.75000000
   15.88333321  101.33200073    0.55000001    2.73000002
   15.88666630  105.96700287    0.55000001    2.73000002
   15.89000034  108.34500122    0.55000001    2.73000002
   15.89305496  106.41799927    0.55000001    2.75000000
   15.89555550  115.64700317    0.55000001    2.75000000
   15.89694405  106.25499725    0.55000001    2.75000000
   15.89999962  107.82900238    0.55000001    2.75000000
   15.90333271  107.16999817    0.55000001    2.73000002
   15.90666676  106.83399963    0.55000001    2.73000002
   15.90972137  111.79000092    0.55000001    2.73000002
   15.91583252  111.79000092    1.38000000    2.73000002
   15.91972256   -1.00000000    4.90999985    2.11999989
   15.92305565   -1.00000000    4.90999985    0.34000000
   15.92638874   -1.00000000    4.90999985    0.44000000
   15.92972279   -1.00000000    4.90999985    1.38000000
   15.93305588   -1.00000000    4.90999985    1.09000003
   15.93638897   -1.00000000    4.90999985    0.17000000
   15.93944454   -1.00000000    4.90999985    0.05000000
   15.94277763   -1.00000000    4.90999985    0.15000001
   15.94611073   -1.00000000    4.90999985    0.31999999
   15.94916630   -1.00000000    4.90999985    0.40000001
   15.95249939   -1.00000000    4.90999985    1.39999998
   15.96249962   -1.00000000    4.90999985    0.52999997
   15.96583271   -1.00000000    4.90999985    0.63000000
   15.96916580   -1.00000000    4.90999985    0.44000000
   15.97222137  118.92099762    4.90999985    1.63000000
   15.97555542  117.95600128    4.90999985    2.86999989
   15.97861099  123.17299652    4.90999985    2.86999989
   15.98194408  209.14199829    4.90999985    2.82999992
   15.98527813   -1.00000000    4.90999985    2.07999992
   15.98833370   -1.00000000    4.90999985    0.40000001
   15.99166679   -1.00000000    4.90999985    1.00000000
   15.99499989  225.10600281    4.90999985    1.38000000
   15.99555588  119.79900360    4.90999985    2.32999992
   16.00138855  119.79900360    4.90999985    2.78999996
   16.00555611  123.30300140    4.90999985    2.80999994
   16.00888824  119.29399872    4.23999977    2.71000004
   16.01194382  119.56900024    0.94000000    2.75000000
   16.01527786  122.61799622    0.58999997    2.75000000
   16.01833344  134.28999329    0.67000002    2.75000000
   16.02166557  130.56599426    4.90999985    2.78999996
   16.02499962  163.22300720    4.90999985    2.89000010
   16.02805519  186.55900574    4.90999985    2.42000008
   16.02888870  135.94599915    4.90999985    1.71000004
   16.03166580   -1.00000000    4.90999985    0.56999999
   16.03472137   -1.00000000    4.90999985    0.67000002
   16.03805542   -1.00000000    4.90999985    0.67000002
   16.04833221   -1.00000000    4.90999985    0.19000000
   16.05138779   -1.00000000    4.90999985    0.11000000
   16.05472183   -1.00000000    4.90999985    0.07000000
   16.05805397   -1.00000000    4.90999985    0.07000000
   16.06110954   -1.00000000    4.90999985    0.09000000
   16.06444359   -1.00000000    4.90999985    0.03000000
   16.06777954   -1.00000000    4.90999985    0.01000000
   16.07111168   -1.00000000    4.90999985    0.01000000
   16.07416725   -1.00000000    4.90999985    0.01000000
   16.07750130   -1.00000000    4.90999985    0.01000000
   16.08083344   -1.00000000    4.90999985    0.01000000
   16.09111214   -1.00000000    1.13000000    0.01000000
   16.09444427   -1.00000000    4.90999985    0.05000000
   16.11444473  213.90800476    0.56999999    2.73000002
   16.11750031  197.57499695    0.56999999    2.73000002
   16.12083435  190.37399292    0.56999999    2.73000002
   16.12388992  209.49699402    0.56999999    2.73000002
   16.13027763  209.49699402    4.90999985    2.78999996
   16.13444519  125.70200348    4.90999985    2.05999994
   16.13750076  184.62300110    4.90999985    2.67000008
   16.14083290  193.15400696    0.64999998    2.76999998
   16.14388847  206.23599243    0.61000001    2.75000000
   16.14722252  209.32600403    0.52999997    2.75000000
   16.15055466  172.52000427    0.55000001    2.75000000
   16.15361023  180.96699524    0.55000001    2.75000000
   16.15694427  197.12699890    0.55000001    2.73000002
   16.16027832  190.17300415    0.55000001    2.75000000
   16.16250038  185.98599243    0.55000001    2.75000000
   16.16388893  166.50500488    0.55000001    2.75000000
   16.16694450  210.24600220    0.55000001    2.75000000
   16.17305565  210.24600220    0.52999997    2.73000002
   16.17722130  162.73399353    0.52999997    2.75000000
   16.18027687  189.90899658    0.55000001    2.75000000
   16.18361092  174.48899841    0.52999997    2.75000000
   16.18694305  168.16900635    0.52999997    2.75000000
   16.18999863  144.65199280    0.55000001    2.75000000
   16.19333267  139.19400024    0.55000001    2.75000000
   16.19583321  149.16200256    0.55000001    2.75000000
   16.19694328  149.48800659    0.55000001    2.75000000
   16.20000076  162.81399536    2.13000011    2.78999996
   16.20333481  177.77099609    4.90999985    2.89000010
   16.20666695  202.03599548    4.90999985    2.48000002
   16.20972252  133.18600464    4.90999985    2.57999992
   16.21583366  133.18600464    4.90999985    2.78999996
   16.22000122   -1.00000000    4.90999985    0.11000000
   16.22333336   -1.00000000    4.90999985    0.07000000
   16.22638893   -1.00000000    4.90999985    0.05000000
   16.23000145   -1.00000000    1.64999998    0.01000000
   16.23333359   -1.00000000    1.58000004    0.01000000
   16.23666763   -1.00000000    1.58000004    0.01000000
   16.23972321   -1.00000000    1.58000004    0.01000000
   16.24305534   -1.00000000    1.58000004    0.01000000
   16.24611092   -1.00000000    1.58000004    0.01000000
   16.24944496   -1.00000000    1.58000004    0.01000000
   16.25277710   -1.00000000    1.28999996    0.01000000
   16.26277733   -1.00000000    4.90999985    0.88000000
   16.26611137   -1.00000000    4.90999985    0.07000000
   16.26916695   -1.00000000    4.90999985    0.05000000
   16.27249908   -1.00000000    4.90999985    0.03000000
   16.27555466   -1.00000000    3.45000005    0.01000000
   16.27888870   -1.00000000    3.45000005    0.01000000
   16.28222275   -1.00000000    3.45000005    0.01000000
   16.28527641   -1.00000000    3.45000005    0.01000000
   16.28861046   -1.00000000    3.45000005    0.01000000
   16.29194450   -1.00000000    3.45000005    0.01000000
   16.29500008   -1.00000000    3.45000005    0.01000000
   16.30555534   -1.00000000    3.45000005    0.01000000
   16.30888748   -1.00000000    3.45000005    0.01000000
   16.31194305   -1.00000000    3.45000005    0.01000000
   16.31527710   -1.00000000    3.45000005    0.01000000
   16.31861115   -1.00000000    3.45000005    0.01000000
   16.32166672   -1.00000000    3.45000005    0.01000000
   16.32500076   -1.00000000    3.45000005    0.01000000
   16.32805634   -1.00000000    3.45000005    0.01000000
   16.33166695   -1.00000000    3.45000005    0.01000000
   16.33500099   -1.00000000    3.45000005    0.01000000
   16.33833313   -1.00000000    2.01999998    0.01000000
   16.34833336   -1.00000000    4.90999985    0.23000000
   16.35166740  406.80499268    4.90999985    1.71000004
   16.35361099  228.57200623    4.90999985    2.42000008
   16.35388947   -1.00000000    3.45000005    0.01000000
   16.35388947   -1.00000000    3.45000005    0.01000000
   16.35388947   -1.00000000    3.45000005    0.01000000
   16.35416794   -1.00000000    3.45000005    0.01000000
   16.35416794   -1.00000000    3.45000005    0.01000000
   16.35444450   -1.00000000    3.45000005    0.01000000
   16.35444450   -1.00000000    2.01999998    0.01000000
   16.35444450   -1.00000000    4.90999985    0.23000000
   16.35472298  406.80499268    4.90999985    1.71000004
   16.35666656  189.71099854    4.90999985    2.80999994
   16.35972214  178.53100586    1.19000006    2.76999998
   16.36305618  182.73399353    0.80000001    2.75000000
   16.36638832  173.23300171    4.90999985    2.84999990
   16.36944389   -1.00000000    4.90999985    1.36000001
   16.37444496   -1.00000000    4.90999985    2.19000006
   16.37861061   74.45549774    4.90999985    2.66000009
   16.38194466  189.37399292    4.90999985    2.44000006
   16.38500023  151.14599609    4.90999985    2.25000000
   16.38750076  137.47399902    4.90999985    2.78999996
   16.38888931  131.94700623    4.90999985    2.78999996
   16.39222145  126.96600342    0.63000000    2.75000000
   16.39527702  132.00199890    0.55000001    2.75000000
   16.39861107  121.83699799    0.55000001    2.75000000
   16.40194321  126.45700073    4.90999985    2.80999994
   16.40499878  128.32400513    4.90999985    2.51999998
   16.40833282  360.79400635    4.90999985    2.48000002
   16.41027832  243.21000671    4.90999985    2.51999998
   16.41027832  126.96600342    0.63000000    2.75000000
   16.41055489  132.00199890    0.55000001    2.75000000
   16.41055489  121.83699799    0.55000001    2.75000000
   16.41083336  126.45700073    4.90999985    2.80999994
   16.41083336  128.32400513    4.90999985    2.51999998
   16.41083336  360.79400635    4.90999985    2.48000002
   16.41110992  189.37399292    4.90999985    2.44000006
   16.41110992  151.14599609    4.90999985    2.25000000
   16.41110992  131.94700623    4.90999985    2.78999996
   16.41305542  118.53099823    4.90999985    2.48000002
   16.41638756  112.89099884    4.90999985    2.80999994
   16.41972160  113.74600220    4.90999985    2.78999996
   16.42277718  119.22499847    4.90999985    2.82999992
   16.42611122  117.73300171    4.90999985    2.80999994
   16.43111038  117.73300171    4.90999985    2.89000010
   16.43527603  198.36900330    4.90999985    2.73000002
   16.43833160   -1.00000000    4.90999985    2.73000002
   16.44166565  120.92700195    4.90999985    1.55999994
   16.44527626  232.47300720    4.90999985    1.50000000
   16.44861031  293.29400635    4.90999985    2.64000010
   16.45194435  128.85099792    4.90999985    1.53999996
   16.45499992  119.40399933    4.90999985    2.69000006
   16.45833397  120.63400269    4.90999985    2.75000000
   16.46166801  113.28099823    4.90999985    2.76999998
   16.46472359  119.56800079    1.78999996    2.75000000
   16.46805573  123.33599854    3.53999996    2.75000000
   16.47389030  123.33599854    0.55000001    2.73000002
   16.47805595  121.99099731    0.55000001    2.75000000
   16.48139000  127.96600342    0.55000001    2.75000000
   16.48444557  120.53800201    0.55000001    2.75000000
   16.48777771  121.21299744    0.55000001    2.75000000
   16.49111176  123.94599915    0.55000001    2.75000000
   16.49416733  117.20800018    0.52999997    2.73000002
   16.49749947  117.26399994    0.73000002    2.75000000
   16.50083351  111.53600311    0.76999998    2.75000000
   16.50388908  108.36100006    0.55000001    2.73000002
   16.50722313  110.84899902    0.55000001    2.73000002
   16.51027870  113.38600159    0.55000001    2.73000002
   16.51083374  114.68000031    0.55000001    2.73000002
   16.51694489  114.68000031    0.52999997    2.75000000
   16.52083397  119.42600250    0.52999997    2.75000000
   16.52416611  112.77799988    0.52999997    2.75000000
   16.52750015  123.29399872    0.52999997    2.75000000
   16.53055573  117.65000153    0.51999998    2.75000000
   16.53388786  112.17099762    0.51999998    2.75000000
   16.53722191  110.31500244    0.52999997    2.75000000
   16.54027748  118.71099854    0.58999997    2.75000000
   16.54361153  125.21099854    0.63000000    2.76999998
   16.54416656  112.84700012    0.63000000    2.76999998
   16.54722214  104.44400024    4.90999985    2.80999994
   16.55055428   -1.00000000    4.90999985    0.15000001
   16.55360985   -1.00000000    4.90999985    0.15000001
   16.56361008   -1.00000000    4.90999985    0.15000001
   16.56694603   -1.00000000    4.90999985    0.15000001
   16.57027817   -1.00000000    4.90999985    0.15000001
   16.57333374   -1.00000000    4.90999985    0.15000001
   16.57666779   -1.00000000    4.90999985    0.15000001
   16.58027840   -1.00000000    4.90999985    0.15000001
   16.58333397   -1.00000000    3.50000000    0.01000000
   16.58666801   -1.00000000    4.90999985    0.05000000
   16.59000015   -1.00000000    4.90999985    0.09000000
   16.59305573   -1.00000000    4.90999985    0.07000000
   16.59638977   -1.00000000    4.90999985    0.05000000
   16.60666656  307.99798584    4.90999985    0.98000002
   16.60861206  153.97399902    4.90999985    2.53999996
   16.60861206   -1.00000000    4.90999985    0.05000000
   16.60888863   -1.00000000    4.90999985    0.09000000
   16.60888863   -1.00000000    4.90999985    0.07000000
   16.60888863   -1.00000000    4.90999985    0.05000000
   16.60916710  307.99798584    4.90999985    0.98000002
   16.60916710   -1.00000000    4.90999985    0.15000001
   16.60944557   -1.00000000    4.90999985    0.15000001
   16.60944557   -1.00000000    4.90999985    0.15000001
   16.60944557   -1.00000000    3.50000000    0.01000000
   16.61138916  151.44000244    4.90999985    3.01999998
   16.61472321   -1.00000000    4.90999985    2.78999996
   16.61805534   -1.00000000    4.90999985    0.75000000
   16.62111092  230.51899719    4.90999985    1.26999998
   16.62444496  168.58999634    4.90999985    2.66000009
   16.62944412  168.58999634    0.76999998    2.75000000
   16.63361168  147.46699524    0.55000001    2.75000000
   16.63666725  151.27400208    0.55000001    2.76999998
   16.63999939  123.84700012    4.90999985    2.84999990
   16.64361191   -1.00000000    4.90999985    2.67000008
   16.64694405  168.33500671    4.90999985    1.86000001
   16.64999962   -1.00000000    4.90999985    0.88000000
   16.65333366   -1.00000000    4.90999985    0.05000000
   16.65666580   -1.00000000    4.90999985    0.01000000
   16.65972137   -1.00000000    4.90999985    0.01000000
   16.66305542   -1.00000000    4.90999985    0.01000000
   16.66638756   -1.00000000    4.90999985    0.01000000
   16.67638779   -1.00000000    4.90999985    0.01000000
   16.67944336   -1.00000000    4.90999985    0.01000000
   16.68277740   -1.00000000    4.90999985    0.01000000
   16.68610954   -1.00000000    4.90999985    0.01000000
   16.68916512   -1.00000000    4.90999985    0.01000000
   16.69249916   -1.00000000    4.90999985    0.01000000
   16.69555473   -1.00000000    4.90999985    0.01000000
   16.69888878   -1.00000000    4.90999985    0.01000000
   16.70222282   -1.00000000    4.90999985    0.01000000
   16.70527840   -1.00000000    4.00000000    0.01000000
   16.70861244   -1.00000000    4.90999985    0.05000000
   16.71916771   -1.00000000    4.90999985    0.03000000
   16.72249985   -1.00000000    4.90999985    0.03000000
   16.72555542   -1.00000000    4.90999985    0.03000000
   16.72888947   -1.00000000    4.90999985    0.03000000
   16.73194504   -1.00000000    4.90999985    0.03000000
   16.73527718   -1.00000000    4.90999985    0.03000000
   16.73861122   -1.00000000    4.90999985    0.03000000
   16.74166679   -1.00000000    4.90999985    0.03000000
   16.74527740   -1.00000000    4.90999985    0.01000000
   16.74861145   -1.00000000    4.90999985    0.05000000
   16.75194359   -1.00000000    4.90999985    0.23000000
   16.75805473   -1.00000000    4.90999985    2.01999998
   16.76194382   -1.00000000    4.90999985    2.07999992
   16.76527786   -1.00000000    4.90999985    0.81999999
   16.76861000   -1.00000000    4.90999985    1.16999996
   16.77166557  104.71900177    4.90999985    1.63000000
   16.77499962   -1.00000000    4.90999985    2.17000008
   16.77833366   -1.00000000    4.90999985    0.86000001
   16.78166580   -1.00000000    4.90999985    0.55000001
   16.78499985   -1.00000000    4.90999985    0.41999999
   16.78805542   23.57019997    4.90999985    0.55000001
   16.79138756  530.23999023    4.90999985    2.42000008
   16.79333305  229.40600586    4.90999985    2.64000010
   16.79361153   -1.00000000    4.90999985    0.41999999
   16.79361153   23.57019997    4.90999985    0.55000001
   16.79361153  530.23999023    4.90999985    2.42000008
   16.79388809   -1.00000000    4.90999985    0.81999999
   16.79388809   -1.00000000    4.90999985    1.16999996
   16.79388809  104.71900177    4.90999985    1.63000000
   16.79416656   -1.00000000    4.90999985    2.17000008
   16.79416656   -1.00000000    4.90999985    0.86000001
   16.79416656   -1.00000000    4.90999985    0.55000001
   16.79611015  219.39300537    4.90999985    2.80999994
   16.79944420  197.72399902    4.48999977    2.78999996
   16.80277634  141.81700134    4.90999985    2.84999990
   16.80583191  242.94999695    4.90999985    2.36999989
   16.80916595   -1.00000000    4.90999985    0.95999998
   16.81833458   -1.00000000    4.90999985    0.15000001
   16.82139015   -1.00000000    4.90999985    0.20999999
   16.82472229  307.14700317    4.90999985    1.48000002
   16.82666779  171.32099915    4.90999985    2.13000011
   16.82694626  219.39300537    4.90999985    2.80999994
   16.82694626  197.72399902    4.48999977    2.78999996
   16.82694626  141.81700134    4.90999985    2.84999990
   16.82722282  242.94999695    4.90999985    2.36999989
   16.82722282   -1.00000000    4.90999985    0.95999998
   16.82750130   -1.00000000    4.90999985    0.15000001
   16.82750130   -1.00000000    4.90999985    0.20999999
   16.82750130  307.14700317    4.90999985    1.48000002
   16.82944489   -1.00000000    4.90999985    2.55999994
   16.83277893   -1.00000000    4.90999985    0.55000001
   16.83583450  208.72399902    4.90999985    0.25999999
   16.83916664   -1.00000000    4.90999985    1.96000004
   16.84250069  159.00999451    4.90999985    1.89999998
   16.84749985  159.00999451    4.90999985    2.73000002
   16.85166740  158.77799988    4.90999985    2.82999992
   16.85499954  149.57600403    4.90999985    2.82999992
   16.85805511  157.82699585    4.90999985    2.78999996
   16.86055565  163.10899353    3.89000010    2.78999996
   16.86194420  171.07600403    4.90999985    2.76999998
   16.86527824  148.36099243    4.90999985    2.75000000
   16.86833382  259.97399902    4.90999985    1.96000004
   16.87166595  173.54800415    4.90999985    2.40000010
   16.87472153  159.73399353    4.90999985    2.66000009
   16.87805557  201.31799316    4.90999985    2.71000004
   16.88138962  143.41200256    4.90999985    2.66000009
   16.88444519  140.20500183    3.09999990    2.75000000
   16.89055634  140.20500183    1.51999998    2.73000002
   16.89444351  142.79299927    1.38000000    2.71000004
   16.89777756  156.67999268    1.26999998    2.73000002
   16.90111160  159.74400330    1.21000004    2.73000002
   16.90416718  161.89900208    1.09000003    2.73000002
   16.90749931  189.22999573    1.00000000    2.73000002
   16.91083336  180.31399536    1.00000000    2.73000002
   16.91388893  174.60800171    0.92000002    2.73000002
   16.91722107  162.74299622    0.92000002    2.73000002
   16.92027664  180.10899353    1.11000001    2.73000002
   16.92361069  176.63900757    1.11000001    2.73000002
   16.92694473  166.92300415    1.34000003    2.73000002
   16.92749977  170.68200684    1.36000001    2.75000000
   16.93333244  170.68200684    1.41999996    2.73000002
   16.93750000  172.16999817    1.76999998    2.73000002
   16.94055557  175.74099731    1.94000006    2.76999998
   16.94388771  210.72399902    3.95000005    2.78999996
   16.94722176   -1.00000000    4.90999985    2.39000010
   16.95027924   -1.00000000    4.90999985    0.36000001
   16.95361137   -1.00000000    4.90999985    0.17000000
   16.95666695   -1.00000000    4.90999985    0.46000001
   16.96000099   -1.00000000    4.90999985    0.28000000
   16.96361160   -1.00000000    4.90999985    1.16999996
   16.96694565   -1.00000000    4.90999985    0.55000001
   16.97000122   -1.00000000    4.90999985    0.31999999
   16.98027802  245.36999512    4.90999985    0.70999998
   16.98333359  177.32800293    4.90999985    2.84999990
   16.98666763  178.38400269    4.90999985    2.91000009
   16.98972321   -1.00000000    4.90999985    2.86999989
   16.99305534   -1.00000000    4.90999985    1.44000006
   16.99666786   -1.00000000    4.90999985    0.58999997
   16.99972153   -1.00000000    4.90999985    1.23000002
   17.00305557   -1.00000000    4.90999985    0.92000002
   17.00638962   -1.00000000    4.90999985    1.19000006
   17.00944519   -1.00000000    4.90999985    2.05999994
   17.01277733   -1.00000000    4.90999985    0.95999998
   17.02305603   -1.00000000    4.90999985    1.75000000
   17.02611160   -1.00000000    4.90999985    0.95999998
   17.02972221   -1.00000000    4.90999985    1.09000003
   17.03305435   -1.00000000    4.90999985    1.16999996
   17.03610992   -1.00000000    4.90999985    0.92000002
   17.03944397   -1.00000000    4.90999985    1.11000001
   17.04249954   -1.00000000    4.90999985    1.61000001
   17.04583359   -1.00000000    4.90999985    0.79000002
   17.04916573   -1.00000000    4.90999985    0.80000001
   17.05222130   -1.00000000    4.90999985    0.88000000
   17.05555534  225.99600220    4.90999985    1.09000003
   17.06194305  225.99600220    4.90999985    2.69000006
   17.06583214  162.34300232    4.90999985    2.69000006
   17.06916809  167.05200195    4.90999985    2.69000006
   17.07250023  173.81399536    4.90999985    2.66000009
   17.07555580  178.42999268    4.90999985    2.66000009
   17.07888985  176.06300354    4.90999985    2.67000008
   17.08194542  227.59500122    4.90999985    2.66000009
   17.08527756  327.81600952    4.90999985    2.61999989
   17.08722305  308.56799316    4.90999985    2.61999989
   17.08861160  351.07299805    4.90999985    2.61999989
   17.09000015  379.73901367    4.90999985    2.61999989
   17.09138870  297.15600586    4.90999985    2.61999989
   17.09277916  365.66799927    4.90999985    2.61999989
   17.09416771  432.65798950    4.90999985    2.61999989
   17.09555626  345.73498535    4.90999985    2.61999989
   17.09694481  357.18499756    4.90999985    2.64000010
   17.09833336  363.19100952    4.90999985    2.64000010
   17.09972191  351.24301147    4.90999985    2.66000009
   17.10111237  400.38800049    4.90999985    2.66000009
   17.10250092  409.63299561    4.90999985    2.66000009
   17.10388947  383.75100708    4.90999985    2.66000009
   17.10527802  357.62500000    4.90999985    2.66000009
   17.10666656  297.57199097    4.90999985    2.67000008
   17.10805511  275.94400024    4.90999985    2.67000008
   17.10944557  168.94900513    4.90999985    2.67000008
   17.10944557  178.42999268    4.90999985    2.66000009
   17.10972214  176.06300354    4.90999985    2.67000008
   17.10972214  227.59500122    4.90999985    2.66000009
   17.11000061  327.81600952    4.90999985    2.61999989
   17.11000061   -1.00000000    4.90999985    0.88000000
   17.11000061  225.99600220    4.90999985    1.09000003
   17.11027908  162.34300232    4.90999985    2.69000006
   17.11027908  167.05200195    4.90999985    2.69000006
   17.11027908  173.81399536    4.90999985    2.66000009
   17.11083412  169.75700378    4.90999985    2.66000009
   17.13055611   -1.00000000    4.90999985    2.67000008
   17.13472176   -1.00000000    4.90999985    2.73000002
   17.13888931   -1.00000000    4.90999985    2.76999998
   17.14222145   -1.00000000    4.90999985    2.76999998
   17.14583397   -1.00000000    4.90999985    1.03999996
   17.14888954   -1.00000000    4.90999985    1.96000004
   17.15222168   -1.00000000    4.90999985    2.80999994
   17.15527725   -1.00000000    4.90999985    1.21000004
   17.15861130   -1.00000000    4.90999985    0.98000002
   17.16194344   -1.00000000    4.90999985    2.26999998
   17.16499901   -1.00000000    4.90999985    2.57999992
   17.16833305   -1.00000000    4.90999985    2.57999992
   17.17166519   -1.00000000    4.90999985    2.75000000
   17.18166542   -1.00000000    4.90999985    2.67000008
   17.18499947   -1.00000000    4.90999985    2.64000010
   17.18805504   -1.00000000    4.90999985    2.73000002
   17.19138718   -1.00000000    4.90999985    2.75000000
   17.19444275   -1.00000000    4.78000021    2.69000006
   17.19777679   -1.00000000    4.80000019    2.75000000
   17.20111275   -1.00000000    3.72000003    2.75000000
   17.20416832   -1.00000000    3.26999998    2.75000000
   17.20750046   -1.00000000    3.26999998    2.76999998
   17.21111107   -1.00000000    2.59999990    2.75000000
   17.21416664   -1.00000000    2.32999992    2.76999998
   17.22444534   -1.00000000    4.90999985    2.91000009
   17.22777748   -1.00000000    4.90999985    2.26999998
   17.23083305   -1.00000000    3.50000000    2.80999994
   17.23416710   -1.00000000    2.51999998    2.76999998
   17.23750114   -1.00000000    0.69000000    2.76999998
   17.24055672   -1.00000000    0.64999998    2.76999998
   17.24444389   -1.00000000    0.63000000    2.75000000
   17.24749947   -1.00000000    0.61000001    2.75000000
   17.25083351   -1.00000000    0.55000001    2.76999998
   17.25388908   -1.00000000    0.52999997    2.75000000
   17.25722313   -1.00000000    0.52999997    2.75000000
   17.26722145   -1.00000000    0.52999997    2.75000000
   17.27055550   -1.00000000    0.51999998    2.75000000
   17.27388954   -1.00000000    0.51999998    2.75000000
   17.27750015   -1.00000000    0.51999998    2.75000000
   17.28055573   -1.00000000    0.51999998    2.75000000
   17.28388786   -1.00000000    0.51999998    2.75000000
   17.28694344   -1.00000000    0.52999997    2.76999998
   17.29027748   -1.00000000    0.52999997    2.75000000
   17.29361153   -1.00000000    0.51999998    2.75000000
   17.29666710   -1.00000000    0.52999997    2.75000000
   17.29999924   -1.00000000    0.51999998    2.75000000
   17.31027794   -1.00000000    0.51999998    2.75000000
   17.31333351   -1.00000000    0.51999998    2.75000000
   17.31666756   -1.00000000    0.51999998    2.75000000
   17.32000160   -1.00000000    0.51999998    2.75000000
   17.32305717   -1.00000000    0.51999998    2.75000000
   17.32638931   -1.00000000    0.52999997    2.75000000
   17.32944489   -1.00000000    0.52999997    2.75000000
   17.33277893   -1.00000000    0.52999997    2.76999998
   17.33611107   -1.00000000    0.52999997    2.76999998
   17.33916664   -1.00000000    0.52999997    2.76999998
   17.34250069   -1.00000000    4.90999985    2.80999994
   17.35305595   -1.00000000    0.55000001    2.76999998
   17.35639000   -1.00000000    4.90999985    2.80999994
   17.35944557   -1.00000000    4.90999985    2.73000002
   17.36277771   -1.00000000    4.90999985    2.69000006
   17.36583328   -1.00000000    4.90999985    2.25000000
   17.36944389   -1.00000000    4.90999985    0.55000001
   17.37277794   -1.00000000    4.90999985    0.47999999
   17.37611198   -1.00000000    4.90999985    1.53999996
   17.37972260   -1.00000000    4.90999985    0.58999997
   17.38277817   -1.00000000    4.90999985    0.63000000
   17.38611031   -1.00000000    4.90999985    0.28000000
   17.39583397   -1.00000000    1.83000004    0.01000000
   17.39916611   -1.00000000    2.05999994    0.01000000
   17.40222168   -1.00000000    4.90999985    0.05000000
   17.40555573   -1.00000000    4.90999985    0.07000000
   17.40888786   -1.00000000    4.90999985    1.94000006
   17.41250038   -1.00000000    4.90999985    2.57999992
   17.41555595   -1.00000000    4.90999985    2.64000010
   17.41888809   -1.00000000    4.90999985    2.71000004
   17.42222214   -1.00000000    4.90999985    2.78999996
   17.42527771   -1.00000000    4.90999985    2.76999998
   17.42860985   -1.00000000    4.90999985    2.67000008
   17.43861008   -1.00000000    4.90999985    2.69000006
   17.44194412   -1.00000000    4.90999985    2.66000009
   17.44555473   -1.00000000    4.90999985    2.66000009
   17.44861031   -1.00000000    4.90999985    2.75000000
   17.45194435   -1.00000000    4.90999985    0.25999999
   17.45527840   -1.00000000    4.90999985    0.01000000
   17.45833397   -1.00000000    1.64999998    0.01000000
   17.46166801   -1.00000000    3.25000000    0.01000000
   17.46472359   -1.00000000    4.90999985    0.05000000
   17.46805573   -1.00000000    4.90999985    0.20999999
   17.47138977   -1.00000000    4.90999985    0.23000000
   17.48166656   -1.00000000    4.90999985    2.19000006
   17.48472214   -1.00000000    4.90999985    1.34000003
   17.48805618   -1.00000000    4.90999985    0.69000000
   17.49138832   -1.00000000    4.90999985    0.19000000
   17.49444389   -1.00000000    4.90999985    0.09000000
   17.49777794   -1.00000000    4.90999985    0.05000000
   17.50083351   -1.00000000    4.90999985    0.03000000
   17.50416756   -1.00000000    2.84999990    0.01000000
   17.50749969   -1.00000000    2.84999990    0.01000000
   17.51111031   -1.00000000    2.84999990    0.01000000
   17.51416588   -1.00000000    2.84999990    0.01000000
   17.52444458   -1.00000000    2.84999990    0.01000000
   17.52777672   -1.00000000    2.84999990    0.01000000
   17.53083229   -1.00000000    1.85000002    0.01000000
   17.53416634   -1.00000000    2.42000008    0.01000000
   17.53722191   -1.00000000    3.97000003    0.01000000
   17.54055595   -1.00000000    4.90999985    0.05000000
   17.54416656   -1.00000000    4.90999985    0.07000000
   17.54722214   -1.00000000    4.90999985    0.11000000
   17.55055428   -1.00000000    4.90999985    0.13000000
   17.55388832   -1.00000000    4.90999985    0.15000001
   17.55694389   -1.00000000    4.90999985    0.11000000
   17.56722260   -1.00000000    4.90999985    0.17000000
   17.57055664   -1.00000000    4.90999985    0.23000000
   17.57361221   -1.00000000    4.90999985    0.55000001
   17.57750130   -1.00000000    4.90999985    1.41999996
   17.58055687   -1.00000000    4.90999985    2.64000010
   17.58388901   -1.00000000    4.90999985    2.82999992
   17.58722305   -1.00000000    4.90999985    2.76999998
   17.59027863   -1.00000000    4.90999985    2.73000002
   17.59361267   -1.00000000    4.90999985    2.71000004
   17.59666824   -1.00000000    4.90999985    2.69000006
   17.60000038   -1.00000000    4.90999985    2.66000009
   17.61000061   -1.00000000    4.90999985    2.59999990
   17.61333466   -1.00000000    4.90999985    2.48000002
   17.61666679   -1.00000000    4.90999985    2.42000008
   17.61972237   -1.00000000    4.90999985    2.50000000
   17.62305641   -1.00000000    4.90999985    2.46000004
   17.62611198   -1.00000000    4.90999985    2.53999996
   17.62944412   -1.00000000    4.90999985    2.57999992
   17.63277817   -1.00000000    4.90999985    2.61999989
   17.63583374   -1.00000000    4.90999985    2.71000004
   17.63916588   -1.00000000    4.90999985    2.67000008
   17.64249992   -1.00000000    4.90999985    2.67000008
   17.65305519   -1.00000000    4.90999985    2.64000010
   17.65611076   -1.00000000    4.90999985    2.67000008
   17.65944481   -1.00000000    4.90999985    2.30999994
   17.66250038   -1.00000000    4.90999985    2.03999996
   17.66583252   -1.00000000    4.90999985    2.61999989
   17.66916656   -1.00000000    4.90999985    2.57999992
   17.67222214   -1.00000000    4.90999985    2.51999998
   17.67555428   -1.00000000    4.90999985    2.55999994
   17.67916679   -1.00000000    4.90999985    2.51999998
   17.68222237   -1.00000000    4.90999985    2.51999998
   17.68555450   -1.00000000    4.90999985    2.50000000
   17.69583321   -1.00000000    4.90999985    2.46000004
   17.69888878   -1.00000000    4.90999985    2.46000004
   17.70222282   -1.00000000    4.90999985    2.46000004
   17.70555687   -1.00000000    4.90999985    2.44000006
   17.70861244   -1.00000000    4.90999985    2.42000008
   17.71222305   -1.00000000    4.90999985    2.40000010
   17.71527863   -1.00000000    4.90999985    2.39000010
   17.71861076   -1.00000000    4.90999985    2.40000010
   17.72194481   -1.00000000    4.90999985    2.34999990
   17.72500038   -1.00000000    4.90999985    2.23000002
   17.72833443   -1.00000000    4.90999985    2.26999998
   17.73861122   -1.00000000    4.90999985    2.23000002
   17.74194527   -1.00000000    4.90999985    2.19000006
   17.74555588   -1.00000000    4.90999985    2.23000002
   17.74861145   -1.00000000    4.90999985    2.07999992
   17.75194359   -1.00000000    4.90999985    2.15000010
   17.75527763   -1.00000000    4.90999985    2.23000002
   17.75833321   -1.00000000    4.90999985    2.21000004
   17.76166725   -1.00000000    4.90999985    2.34999990
   17.76499939   -1.00000000    4.90999985    2.28999996
   17.76805496   -1.00000000    4.90999985    2.40000010
   17.77138901   -1.00000000    4.90999985    2.30999994
   17.78138924   -1.00000000    4.90999985    2.28999996
   17.78472137   -1.00000000    4.90999985    2.17000008
   17.78805542   -1.00000000    4.90999985    2.39000010
   17.79111099   -1.00000000    4.90999985    2.30999994
   17.79444313   -1.00000000    4.90999985    2.40000010
   17.79749870   -1.00000000    4.90999985    2.36999989
   17.80083275   -1.00000000    4.90999985    2.40000010
   17.80416679   -1.00000000    4.90999985    2.40000010
   17.80722237   -1.00000000    4.90999985    2.39000010
   17.81083298   -1.00000000    4.90999985    2.39000010
   17.81388855   -1.00000000    4.90999985    2.36999989
   17.82444572   -1.00000000    4.90999985    2.44000006
   17.82750130   -1.00000000    4.90999985    2.40000010
   17.83083344   -1.00000000    4.90999985    2.39000010
   17.83388901   -1.00000000    4.90999985    2.40000010
   17.83722305   -1.00000000    4.90999985    2.44000006
   17.84055710   -1.00000000    4.90999985    2.46000004
   17.84416771   -1.00000000    4.90999985    2.50000000
   17.84722328   -1.00000000    4.90999985    2.53999996
   17.85055542   -1.00000000    4.90999985    2.46000004
   17.85388947   -1.00000000    4.90999985    2.42000008
   17.85694504   -1.00000000    4.90999985    2.48000002
   17.88583374  181.05599976    4.90999985    2.53999996
   17.88916588  206.06399536    4.90999985    2.53999996
   17.89249992  185.01899719    4.90999985    2.51999998
   17.89555550  164.01699829    4.90999985    2.53999996
   17.89888954  181.32000732    4.90999985    2.59999990
   17.90194321  204.23100281    4.90999985    2.57999992
   17.90611076  204.23100281    4.90999985    2.53999996
   17.91027832  202.00599670    4.90999985    2.53999996
   17.91361046  226.68899536    4.90999985    2.39000010
   17.91666603  194.76199341    4.90999985    2.40000010
   17.91916656  186.75300598    4.90999985    2.48000002
   17.92055511  183.75799561    4.90999985    2.48000002
   17.92388916  196.81900024    4.90999985    2.46000004
   17.92694473  208.54699707    4.90999985    2.46000004
   17.93027687  208.69500732    4.90999985    2.48000002
   17.93333244  190.16499329    4.90999985    2.51999998
   17.93666649  165.17399597    4.90999985    2.57999992
   17.93999863  163.12500000    4.90999985    2.59999990
   17.94305420  187.17799377    4.90999985    2.59999990
   17.94916534  187.17799377    4.90999985    2.44000006
   17.95305634   -1.00000000    4.90999985    1.83000004
   17.95639038   -1.00000000    4.90999985    1.33000004
   17.95972252  253.92500305    4.90999985    1.51999998
   17.96277809  187.22799683    4.90999985    2.17000008
   17.96611214  153.71400452    4.90999985    2.61999989
   17.96944427  170.71600342    4.90999985    2.61999989
   17.97249985  161.50399780    4.90999985    2.55999994
   17.97583389  168.98599243    4.90999985    2.61999989
   17.97888947  148.92599487    4.90999985    2.66000009
   17.98222351  152.11099243    4.90999985    2.69000006
   17.98555565  153.41200256    4.90999985    2.73000002
   17.98611069  154.71400452    4.90999985    2.75000000
   17.99194527  154.71400452    4.90999985    2.82999992
   17.99611092   89.39489746    4.90999985    2.75000000
   17.99916649   58.55450058    4.90999985    0.98000002
   18.00250053   -1.00000000    4.90999985    1.48000002
   18.00583267   -1.00000000    4.90999985    0.70999998
   18.00888824   -1.00000000    4.90999985    0.86000001
   18.01222229   -1.00000000    4.90999985    1.23000002
   18.01555634  103.45899963    4.90999985    1.66999996
   18.01861000  221.59599304    4.90999985    2.23000002
   18.01944351  331.51400757    4.90999985    2.23000002
   18.02222252  409.80398560    4.90999985    2.32999992
   18.02444458  214.34899902    4.90999985    2.17000008
   18.02444458   89.39489746    4.90999985    2.75000000
   18.02444458   58.55450058    4.90999985    0.98000002
   18.02472115   -1.00000000    4.90999985    1.48000002
   18.02472115   -1.00000000    4.90999985    0.70999998
   18.02472115   -1.00000000    4.90999985    0.86000001
   18.02499962   -1.00000000    4.90999985    1.23000002
   18.02499962  103.45899963    4.90999985    1.66999996
   18.02527809  221.59599304    4.90999985    2.23000002
   18.02527809  409.80398560    4.90999985    2.32999992
   18.02722168  343.35101318    4.90999985    1.98000002
   18.02916718  232.44599915    4.90999985    2.03999996
   18.03138924  364.65100098    4.90999985    2.25000000
   18.03333282  229.70399475    4.90999985    2.25000000
   18.03527641  227.02799988    4.90999985    2.26999998
   18.03861046  153.08399963    4.90999985    2.67000008
   18.04166603  151.65299988    4.90999985    2.76999998
   18.04500008  139.40400696    2.64000010    2.75000000
   18.04833221  153.94299316    1.41999996    2.75000000
   18.05416679  153.94299316    1.41999996    2.75000000
   18.05833244  127.17700195    1.25000000    2.75000000
   18.06138802  139.46800232    0.98000002    2.73000002
   18.06472206  145.49499512    0.92000002    2.75000000
   18.06722260  132.26699829    1.00000000    2.75000000
   18.06833458  141.97700500    1.03999996    2.73000002
   18.07166672  130.25799561    1.16999996    2.73000002
   18.07500076  137.28700256    1.21000004    2.75000000
   18.07805634  134.13099670    1.05999994    2.75000000
   18.08139038  138.03799438    0.76999998    2.75000000
   18.08472252  134.53599548    0.61000001    2.73000002
   18.08777809  128.73599243    0.58999997    2.73000002
   18.09111214  137.20599365    0.58999997    2.73000002
   18.09694481  137.20599365    0.58999997    2.73000002
   18.10111237  151.33599854    0.58999997    2.73000002
   18.10444450  139.93299866    0.58999997    2.75000000
   18.10750008  125.65399933    0.61000001    2.75000000
   18.11083412  140.77099609    0.58999997    2.73000002
   18.11416626  128.13200378    0.58999997    2.71000004
   18.11722183  142.13800049    0.58999997    2.73000002
   18.12055588  139.81500244    0.61000001    2.71000004
   18.12361145  132.13499451    0.58999997    2.73000002
   18.12694550  133.53700256    0.61000001    2.73000002
   18.13027763  141.56799316    0.58999997    2.73000002
   18.13333321  145.05499268    0.58999997    2.73000002
   18.13388824  135.36199951    0.58999997    2.73000002
   18.13972282  135.36199951    0.58999997    2.73000002
   18.14388847  136.04299927    0.61000001    2.73000002
   18.14722252  146.36099243    0.61000001    2.73000002
   18.15027809  136.45300293    0.58999997    2.73000002
   18.15361023  149.02299500    0.58999997    2.75000000
   18.15694427  150.99299622    0.58999997    2.73000002
   18.15999985  159.97999573    0.58999997    2.75000000
   18.16333389  155.57000732    0.58999997    2.73000002
   18.16666603  170.45199585    0.58999997    2.73000002
   18.16722107  148.37699890    0.58999997    2.75000000
   18.17027664  153.64500427    0.58999997    2.73000002
   18.17361069  158.92199707    0.56999999    2.75000000
   18.17666626  125.77600098    0.63000000    2.75000000
   18.18277740  125.77600098    1.01999998    2.73000002
   18.18694305  145.94200134    1.50000000    2.69000006
   18.18999863  161.99200439    2.69000006    2.76999998
   18.19333267  140.59300232    4.90999985    2.75000000
   18.19638824   74.83640289    4.90999985    2.69000006
   18.19972038  152.25300598    4.90999985    1.55999994
   18.20055580  175.27799988    4.90999985    1.91999996
   18.20333481  153.63099670    4.90999985    2.71000004
   18.20666695  142.01899719    4.90999985    2.75000000
   18.20972252  140.89199829    2.86999989    2.71000004
   18.21305656  128.73800659    0.88000000    2.69000006
   18.21611214  140.59399414    1.48000002    2.71000004
   18.21944427  144.76100159    1.33000004    2.73000002
   18.22555542  144.76100159    0.61000001    2.71000004
   18.22972298  139.67300415    0.61000001    2.73000002
   18.23277855  144.34899902    0.58999997    2.73000002
   18.23388863  155.76699829    0.61000001    2.73000002
   18.23638916  135.79699707    0.61000001    2.73000002
   18.23972321  144.38699341    0.58999997    2.73000002
   18.24277878  136.54600525    0.58999997    2.73000002
   18.24611092  145.14500427    0.58999997    2.73000002
   18.24916649  138.02699280    0.58999997    2.73000002
   18.25250053  139.09300232    0.58999997    2.73000002
   18.25583267  144.03199768    0.58999997    2.75000000
   18.25888824  136.32899475    0.56999999    2.75000000
   18.26222229  144.37199402    0.58999997    2.73000002
   18.26833344  144.37199402    0.67000002    2.73000002
   18.27249908  141.29299927    0.67000002    2.73000002
   18.27583313  141.04899597    0.70999998    2.73000002
   18.27888870  132.79200745    0.88000000    2.73000002
   18.28222275  131.24000549    1.09000003    2.73000002
   18.28555489  129.29699707    1.03999996    2.71000004
   18.28861046  139.07000732    1.13000000    2.73000002
   18.29194450  134.88800049    1.19000006    2.73000002
   18.29500008  138.34899902    1.14999998    2.71000004
   18.29833221  123.62300110    1.16999996    2.71000004
   18.30055428  147.17300415    1.16999996    2.71000004
   18.30194283  134.66200256    1.16999996    2.71000004
   18.30527687  147.60400391    1.16999996    2.71000004
   18.31110954  147.60400391    4.55999994    2.71000004
   18.31527710  138.47900391    4.90999985    2.69000006
   18.31861115  146.16200256    4.90999985    2.71000004
   18.32166672  129.36999512    4.90999985    2.69000006
   18.32500076  151.26899719    4.90999985    2.66000009
   18.32833481  146.88099670    4.90999985    2.64000010
   18.33139038  141.01499939    4.90999985    2.66000009
   18.33388901  144.85899353    4.90999985    2.67000008
   18.33500099  153.46800232    4.90999985    2.69000006
   18.33833313  163.05000305    4.90999985    2.67000008
   18.34138870  144.29899597    4.90999985    2.67000008
   18.34472275  124.91200256    4.90999985    2.71000004
   18.34777832  134.57099915    4.90999985    2.71000004
   18.35416794  134.57099915    4.90999985    2.73000002
   18.35833359  127.16699982    4.90999985    2.67000008
   18.36138916  140.33999634    4.90999985    2.26999998
   18.36472321  165.20300293    4.90999985    2.39000010
   18.36722183  198.64199829    4.90999985    1.96000004
   18.36833382  189.10499573    4.90999985    2.05999994
   18.37166595  133.92199707    4.90999985    2.75000000
   18.37472153  170.42700195    4.90999985    2.71000004
   18.37805557  143.57099915    4.90999985    2.42000008
   18.38138962  152.37800598    4.90999985    2.76999998
   18.38444519  133.09500122    4.90999985    2.76999998
   18.38777733  142.18800354    4.90999985    2.73000002
   18.39083290  146.06399536    4.90999985    2.69000006
   18.39694405  146.06399536    4.36999989    2.69000006
   18.40111160  143.50700378    4.30999994    2.69000006
   18.40416718  147.40499878    3.99000001    2.69000006
   18.40749931  163.52900696    3.97000003    2.69000006
   18.41083336  154.16099548    3.68000007    2.67000008
   18.41388893  167.91000366    3.36999989    2.69000006
   18.41722107  136.24800110    3.09999990    2.71000004
   18.42027664  131.08299255    2.86999989    2.71000004
   18.42361069  142.39999390    2.73000002    2.69000006
   18.42694473  143.53999329    2.86999989    2.71000004
   18.43000031  154.95100403    2.98000002    2.71000004
   18.43333244  133.50599670    3.28999996    2.71000004
   18.43388748  124.04699707    3.57999992    2.73000002
   18.43972206  124.04699707    4.90999985    2.75000000
   18.44388771  151.16400146    4.90999985    2.73000002
   18.44722176  139.50100708    4.90999985    2.71000004
   18.45027924  137.38600159    4.90999985    2.67000008
   18.45361137  137.78799438    4.90999985    2.64000010
   18.45694542  153.48300171    4.90999985    2.61999989
   18.46000099  201.34599304    4.90999985    2.55999994
   18.46333504  198.85000610    4.90999985    2.15000010
   18.46666718  103.34600067    4.90999985    2.05999994
   18.46722221  108.94200134    4.90999985    2.05999994
   18.47027779   -1.00000000   -1.00000000   -1.00000000
   18.47361183  304.48699951    4.90999985    2.00000000
   18.47555542  178.02299500    4.90999985    2.15000010
   18.47583389  153.48300171    4.90999985    2.61999989
   18.47583389  201.34599304    4.90999985    2.55999994
   18.47583389  198.85000610    4.90999985    2.15000010
   18.47611237  103.34600067    4.90999985    2.05999994
   18.47611237   -1.00000000   -1.00000000   -1.00000000
   18.47611237  304.48699951    4.90999985    2.00000000
   18.47638893  139.50100708    4.90999985    2.71000004
   18.47638893  137.38600159    4.90999985    2.67000008
   18.47638893  137.78799438    4.90999985    2.64000010
   18.47861099  330.75500488    4.90999985    2.23000002
   18.48055649  374.82699585    4.90999985    2.26999998
   18.48194504  363.39300537    4.90999985    2.23000002
   18.48333359  265.73599243    4.90999985    2.25000000
   18.48472214   -1.00000000   -1.00000000   -1.00000000
   18.48472214  330.75500488    4.90999985    2.23000002
   18.48527718  132.15499878    4.90999985    2.11999989
   18.48861122  136.98899841    4.90999985    1.89999998
   18.49166679  264.18499756    4.90999985    2.19000006
   18.49500084  307.22100830    4.90999985    2.25000000
   18.49694443   76.78829956    4.90999985    2.17000008
   18.49722290  132.15499878    4.90999985    2.11999989
   18.49722290  136.98899841    4.90999985    1.89999998
   18.49722290  264.18499756    4.90999985    2.19000006
   18.49749947  307.22100830    4.90999985    2.25000000
   18.49944496  117.24900055    4.90999985    2.07999992
   18.50250053   -1.00000000    4.90999985    2.09999990
   18.50583267   66.42720032    4.90999985    1.98000002
   18.50916672  356.44100952    4.90999985    2.07999992
   18.51111031  296.24700928    4.90999985    2.17000008
   18.51250076  313.72698975    4.90999985    2.17000008
   18.51388931  113.95300293    4.90999985    2.09999990
   18.51388931  117.24900055    4.90999985    2.07999992
   18.51388931   -1.00000000    4.90999985    2.09999990
   18.51416588   66.42720032    4.90999985    1.98000002
   18.51416588  356.44100952    4.90999985    2.07999992
   18.51472282   80.06860352    4.90999985    2.15000010
   18.51888847   80.06860352    4.90999985    1.96000004
   18.52305603   -1.00000000    4.90999985    2.09999990
   18.52611160   -1.00000000    4.90999985    1.51999998
   18.52944374  136.93899536    4.90999985    1.86000001
   18.53277779  205.16499329    4.90999985    2.28999996
   18.53583336  244.07099915    4.90999985    2.40000010
   18.53916550  314.37200928    4.90999985    2.26999998
   18.54111099  337.06900024    4.90999985    2.34999990
   18.54249954  202.97900391    4.90999985    2.44000006
   18.54249954   80.06860352    4.90999985    2.15000010
   18.54277802   -1.00000000    4.90999985    2.09999990
   18.54277802   -1.00000000    4.90999985    1.51999998
   18.54277802  136.93899536    4.90999985    1.86000001
   18.54305458  205.16499329    4.90999985    2.28999996
   18.54305458  244.07099915    4.90999985    2.40000010
   18.54333305  314.37200928    4.90999985    2.26999998
   18.54444313  309.22299194    4.90999985    2.40000010
   18.54638863  192.90899658    4.90999985    2.40000010
   18.54833221  164.22999573    4.90999985    2.53999996
   18.55166626  237.63000488    4.90999985    2.42000008
   18.55472183   -1.00000000    4.90999985    2.05999994
   18.55805397   -1.00000000    4.90999985    1.71000004
   18.56138802   -1.00000000    4.90999985    1.55999994
   18.56722260   -1.00000000    4.90999985    1.69000006
   18.57139015   -1.00000000    4.90999985    1.85000002
   18.57444572  208.91999817    4.90999985    1.98000002
   18.57777786  429.92898560    4.90999985    2.17000008
   18.57972336  164.22999573    4.90999985    2.53999996
   18.58000183  237.63000488    4.90999985    2.42000008
   18.58000183   -1.00000000    4.90999985    2.05999994
   18.58000183   -1.00000000    4.90999985    1.71000004
   18.58027840   -1.00000000    4.90999985    1.55999994
   18.58027840   -1.00000000    4.90999985    1.85000002
   18.58027840  208.91999817    4.90999985    1.98000002
   18.58055687  429.92898560    4.90999985    2.17000008
   18.58250046   -1.00000000    4.90999985    1.69000006
   18.58583450  292.56600952    4.90999985    1.73000002
   18.58889008  285.90499878    4.90999985    2.39000010
   18.59222221  181.53799438    4.90999985    2.40000010
   18.59527779  187.15699768    4.90999985    2.34999990
   18.60055542  187.15699768    4.90999985    2.57999992
   18.60472298  182.56399536    4.90999985    2.66000009
   18.60777855  150.66400146    4.90999985    2.69000006
   18.61111069  153.22599792    2.36999989    2.71000004
   18.61361122  157.58000183    1.60000002    2.71000004
   18.61499977  152.50700378    1.60000002    2.71000004
   18.61805534  141.23800659    1.19000006    2.71000004
   18.62138939  156.34599304    1.13000000    2.71000004
   18.62444496  181.05400085    1.00000000    2.71000004
   18.62777710  159.51400757    0.88000000    2.69000006
   18.63111115  159.11399841    0.86000001    2.71000004
   18.63416672  152.24699402    0.88000000    2.71000004
   18.63750076  148.05200195    0.92000002    2.71000004
   18.64333344  148.05200195    0.95999998    2.71000004
   18.64749908  161.38200378    0.94000000    2.71000004
   18.65083313  169.05700684    0.94000000    2.69000006
   18.65388870  158.32499695    0.63000000    2.71000004
   18.65722275  161.45500183    0.63000000    2.71000004
   18.66055489  156.86599731    0.63000000    2.71000004
   18.66361046  156.17799377    0.63000000    2.71000004
   18.66694450  142.89199829    0.63000000    2.71000004
   18.67027664  149.25500488    0.63000000    2.71000004
   18.67333221  165.33599854    0.63000000    2.71000004
   18.67666626  170.12500000    0.63000000    2.71000004
   18.68000031  160.93299866    0.63000000    2.71000004
   18.68027687  154.31500244    0.63000000    2.71000004
   18.68610954  154.31500244    2.00000000    2.73000002
   18.69027710  150.57099915    2.00000000    2.73000002
   18.69361115  140.41900635    1.88000000    2.71000004
   18.69694328  156.06199646    0.63000000    2.71000004
   18.70000076  160.91299438    0.69000000    2.71000004
   18.70333481  166.91499329    0.67000002    2.71000004
   18.70639038  146.07699585    0.64999998    2.71000004
   18.70972252  166.60000610    0.64999998    2.71000004
   18.71305656  171.81500244    0.63000000    2.71000004
   18.71389008  133.54699707    0.63000000    2.71000004
   18.71666718  145.76899719    0.64999998    2.73000002
   18.72000122  137.62399292    0.64999998    2.73000002
   18.72305679  136.29499817    0.63000000    2.71000004
   18.72916794  136.29499817    0.64999998    2.71000004
   18.73333359  135.24000549    0.69000000    2.69000006
   18.73638916  131.59599304    0.73000002    2.71000004
   18.73972321  145.19200134    0.76999998    2.71000004
   18.74277878  134.57400513    0.76999998    2.71000004
   18.74611092  148.10299683    0.81999999    2.71000004
   18.74722290  139.97999573    0.81999999    2.71000004
   18.74972153  138.68400574    0.76999998    2.73000002
   18.75305557  136.59700012    0.75000000    2.71000004
   18.75638962  128.51300049    0.73000002    2.71000004
   18.75944519  141.69500732    0.70999998    2.71000004
   18.76277733  136.65299988    0.69000000    2.71000004
   18.76583290  161.02499390    0.70999998    2.71000004
   18.77194405  161.02499390    0.67000002    2.71000004
   18.77611160  141.99499512    0.67000002    2.69000006
   18.77916718  166.19099426    0.69000000    2.71000004
   18.78055573  133.75500488    0.69000000    2.71000004
   18.78277779  163.99400330    0.67000002    2.69000006
   18.78610992  155.81100464    0.67000002    2.69000006
   18.78916550  139.34899902    0.67000002    2.69000006
   18.79249954  147.75000000    0.64999998    2.71000004
   18.79583359  145.05700684    0.67000002    2.71000004
   18.79888916  153.42900085    0.64999998    2.71000004
   18.80222130  146.16099548    0.67000002    2.71000004
   18.80555534  154.61999512    0.67000002    2.71000004
   18.80861092  150.33799744    0.67000002    2.69000006
   18.81472206  150.33799744    0.67000002    2.69000006
   18.81888962  149.18400574    0.67000002    2.69000006
   18.82222366  159.92399597    0.67000002    2.69000006
   18.82527924  146.29299927    0.70999998    2.69000006
   18.82861137  154.57600403    0.73000002    2.69000006
   18.83194542  155.79299927    0.70999998    2.71000004
   18.83500099  143.90800476    0.70999998    2.71000004
   18.83833313  156.30499268    4.00000000    2.71000004
   18.84166718  142.93800354    3.95000005    2.66000009
   18.84472275  152.52499390    3.46000004    2.67000008
   18.84722328  154.97500610    3.46000004    2.67000008
   18.84833336  150.60099792    0.73000002    2.69000006
   18.85166740  156.46000671    0.69000000    2.69000006
   18.85750008  156.46000671    1.11000001    2.69000006
   18.86166763  150.53100586    1.19000006    2.42000008
   18.86499977  158.55599976    1.78999996    2.69000006
   18.86805534  161.02699280    0.98000002    2.69000006
   18.87138939  151.68400574    0.69000000    2.69000006
   18.87472153  142.17799377    0.69000000    2.71000004
   18.87777710  149.35600281    0.69000000    2.71000004
   18.88055611  174.60299683    0.69000000    2.71000004
   18.88138962  157.85699463    0.70999998    2.71000004
   18.88472176  160.69500732    0.69000000    2.69000006
   18.90638924  160.69500732    0.69000000    2.71000004
   18.91055489  159.89100647    0.69000000    2.71000004
   18.91388893  151.45100403    0.69000000    2.71000004
   18.91416550  159.17199707    0.69000000    2.71000004
   18.91749954  137.02900696    0.67000002    2.69000006
   18.92083359  154.11700439    0.69000000    2.71000004
   18.92416573  150.95100403    0.69000000    2.71000004
   18.92722130  157.39799500    0.69000000    2.71000004
   18.93055534  157.30700684    0.69000000    2.71000004
   18.93361092  154.37699890    0.69000000    2.71000004
   18.93694305  166.18400574    0.69000000    2.69000006
   18.94027710  150.09500122    0.69000000    2.71000004
   18.94333267  147.76699829    0.69000000    2.71000004
   18.94916534  147.76699829    0.69000000    2.71000004
   18.95333481  176.86900330    0.69000000    2.71000004
   18.95666695  158.38800049    0.70999998    2.71000004
   18.95972252  154.05299377    0.70999998    2.69000006
   18.96305656  163.48399353    0.70999998    2.69000006
   18.96638870  152.27400208    0.69000000    2.69000006
   18.96944427  179.50999451    0.70999998    2.69000006
   18.97277832  167.78100586    0.70999998    2.71000004
   18.97583389  195.11700439    0.70999998    2.69000006
   18.97916794  167.13000488    0.73000002    2.69000006
   18.98055649  162.99800110    0.70999998    2.71000004
   18.98305511  151.11199951    0.70999998    2.71000004
   18.98611069  184.26300049    0.73000002    2.71000004
   18.99194527  184.26300049    0.70999998    2.71000004
   18.99611092  159.77200317    0.70999998    2.71000004
   18.99944496  185.80700684    0.70999998    2.69000006
   19.00277710  142.99400330    0.88000000    2.69000006
   19.00583267  197.05400085    2.89000010    2.34999990
   19.00916672  170.70199585    3.39000010    2.66000009
   19.01250076  189.87899780    3.16000009    2.67000008
   19.01388931  181.80799866    4.65999985    2.71000004
   19.01611137  151.53700256    4.65999985    2.71000004
   19.01916695  170.30499268    0.73000002    2.69000006
   19.02249908  159.17999268    0.70999998    2.69000006
   19.02583313  161.40800476    0.73000002    2.69000006
   19.02888870  161.09700012    0.73000002    2.69000006
   19.03499985  161.09700012    0.70999998    2.69000006
   19.03916550  160.79800415    0.70999998    2.69000006
   19.04222107  163.55799866    0.69000000    2.69000006
   19.04555511  156.57800293    0.70999998    2.69000006
   19.04722214  159.52999878    0.70999998    2.69000006
   19.04916573  154.64500427    0.70999998    2.69000006
   19.05249977  162.27400208    0.70999998    2.69000006
   19.05555534  170.11300659    0.70999998    2.69000006
   19.05888748  155.46699524    0.70999998    2.71000004
   19.06222153  148.52000427    0.70999998    2.69000006
   19.06527710  143.67300415    0.70999998    2.69000006
   19.06861115  150.77099609    0.70999998    2.69000006
   19.07166672  158.88600159    0.73000002    2.69000006
   19.07777786  158.88600159    0.73000002    2.69000006
   19.08194542  179.06300354    0.70999998    2.69000006
   19.08500099  164.26400757    0.70999998    2.69000006
   19.08833313  163.48599243    0.73000002    2.69000006
   19.09166718  170.43400574    0.73000002    2.69000006
   19.09472275  173.35699463    0.73000002    2.69000006
   19.09805679  175.95899963    1.34000003    2.69000006
   19.10138893  152.77000427    1.75000000    2.69000006
   19.10444450  173.40899658    4.01999998    2.69000006
   19.10777855   98.52349854    1.86000001    2.53999996
   19.11083412  174.65600586    3.25000000    2.25000000
   19.11388969  192.21299744    4.90999985    2.64000010
   19.11472321  181.67199707    4.90999985    2.66000009
   19.12055588  181.67199707    4.44999981    2.69000006
   19.12472153  157.70500183    1.69000006    2.69000006
   19.12805557  169.58799744    1.75000000    2.69000006
   19.13111115  163.57000732    2.09999990    2.69000006
   19.13444519  147.72300720    2.19000006    2.67000008
   19.13777733  166.50000000    2.15000010    2.66000009
   19.14083290  149.13999939    2.78999996    2.67000008
   19.14416695  158.02600098    2.86999989    2.66000009
   19.14722252  158.43200684    2.66000009    2.67000008
   19.14777756  159.22999573    2.66000009    2.67000008
   19.15111160  157.04899597    2.76999998    2.69000006
   19.15416718  157.54200745    2.59999990    2.69000006
   19.15749931   -1.00000000    4.90999985    2.73000002
   19.16749954   -1.00000000    4.38999987    0.03000000
   19.17083359   -1.00000000    4.90999985    0.03000000
   19.17388916   -1.00000000    4.90999985    0.03000000
   19.17722130   -1.00000000    4.90999985    0.03000000
   19.18027687   -1.00000000    4.90999985    0.07000000
   19.18416595   -1.00000000    4.90999985    0.11000000
   19.18722153   -1.00000000    4.90999985    0.11000000
   19.19055557   -1.00000000    4.90999985    0.07000000
   19.19388771   -1.00000000    4.90999985    0.09000000
   19.19694328   -1.00000000    4.90999985    0.05000000
   19.20027924   -1.00000000    1.11000001    0.01000000
   19.21027946   -1.00000000    1.11000001    0.01000000
   19.21361160   -1.00000000    1.11000001    0.01000000
   19.21722221   -1.00000000    1.11000001    0.01000000
   19.22027779   -1.00000000    1.11000001    0.01000000
   19.22361183   -1.00000000    1.11000001    0.01000000
   19.22694588   -1.00000000    1.01999998    0.01000000
   19.23000145   -1.00000000    1.48000002    0.01000000
   19.23333359   -1.00000000    4.90999985    0.05000000
   19.23638916   -1.00000000    4.90999985    0.09000000
   19.23972321  317.53601074    4.90999985    1.28999996
   19.24166679  156.29100037    4.90999985    1.41999996
   19.24194527   -1.00000000    1.48000002    0.01000000
   19.24194527   -1.00000000    4.90999985    0.05000000
   19.24194527   -1.00000000    4.90999985    0.09000000
   19.24222183  317.53601074    4.90999985    1.28999996
   19.24222183   -1.00000000    1.11000001    0.01000000
   19.24250031   -1.00000000    1.11000001    0.01000000
   19.24250031   -1.00000000    1.11000001    0.01000000
   19.24250031   -1.00000000    1.11000001    0.01000000
   19.24277878   -1.00000000    1.01999998    0.01000000
   19.24472237  375.97000122    4.90999985    2.75000000
   19.24666786  119.69200134    4.90999985    2.30999994
   19.24861145  206.88200378    4.90999985    1.94000006
   19.25194359   -1.00000000    4.90999985    2.23000002
   19.25527763   -1.00000000    4.90999985    1.61000001
   19.25833321  197.33500671    4.90999985    1.58000004
   19.26166725  199.20700073    4.90999985    2.61999989
   19.26749992  199.20700073    4.90999985    2.75000000
   19.27166557  166.59899902    0.80000001    2.71000004
   19.27499962  159.37399292    0.75000000    2.69000006
   19.27805519  155.45799255    0.86000001    2.66000009
   19.28055573  157.72399902    0.88000000    2.66000009
   19.28194427  166.06900024    0.83999997    2.66000009
   19.28499985  152.79400635    0.94000000    2.66000009
   19.28833199  154.34199524    0.81999999    2.66000009
   19.29166603  163.97099304    0.76999998    2.66000009
   19.29472160  151.48800659    0.76999998    2.66000009
   19.29805565  160.31799316    0.76999998    2.67000008
   19.30111122  151.76100159    0.76999998    2.67000008
   19.30444336  168.31399536    0.76999998    2.67000008
   19.31027794  168.31399536    0.79000002    2.66000009
   19.31444359  156.08999634    0.79000002    2.67000008
   19.31777954  149.52000427    0.79000002    2.66000009
   19.32083511  149.33500671    0.79000002    2.66000009
   19.32416725  154.18800354    0.76999998    2.67000008
   19.32750130  174.48899841    0.76999998    2.67000008
   19.33055687  149.78100586    0.75000000    2.67000008
   19.33388901  155.37300110    0.73000002    2.67000008
   19.33722305  158.64399719    0.73000002    2.69000006
   19.34027863  160.92500305    0.73000002    2.69000006
   19.34361267  165.17500305    0.73000002    2.71000004
   19.34666824  152.75599670    0.73000002    2.69000006
   19.34722328  155.05999756    0.73000002    2.69000006
   19.35333443  155.05999756    0.75000000    2.71000004
   19.35750008  158.50599670    4.90999985    2.73000002
   19.36055565  166.80499268    4.90999985    2.71000004
   19.36388969  157.80599976    4.90999985    2.73000002
   19.36694527  148.00799561    4.90999985    2.76999998
   19.37027740  109.51599884    4.90999985    2.82999992
   19.37361145   -1.00000000    4.90999985    1.28999996
   19.37666702   -1.00000000    4.90999985    0.11000000
   19.38000107   -1.00000000    4.90999985    0.03000000
   19.38361168   -1.00000000    3.30999994    0.01000000
   19.38666725   -1.00000000    3.30999994    0.01000000
   19.38999939   -1.00000000    3.30999994    0.01000000
   19.39999962   -1.00000000    4.90999985    0.01000000
   19.40333366   -1.00000000    4.90999985    0.01000000
   19.40666580   -1.00000000    4.90999985    0.01000000
   19.40972137   -1.00000000    4.90999985    0.01000000
   19.41305542   -1.00000000    4.90999985    0.01000000
   19.41666603   -1.00000000    4.90999985    0.01000000
   19.41972160   -1.00000000    3.89000010    0.01000000
   19.42305565   -1.00000000    0.79000002    0.01000000
   19.42638779   -1.00000000    2.07999992    0.01000000
   19.42944336   -1.00000000    4.09999990    0.01000000
   19.43277740   -1.00000000    3.36999989    0.03000000
   19.44305420   -1.00000000    4.90999985    0.05000000
   19.44610977   -1.00000000    4.90999985    0.07000000
   19.44972038   -1.00000000    4.90999985    0.07000000
   19.45277786   -1.00000000    4.90999985    0.09000000
   19.45611191   -1.00000000    4.90999985    0.11000000
   19.45944595   -1.00000000    4.90999985    0.15000001
   19.46250153   -1.00000000    4.90999985    0.55000001
   19.46583366  447.57699585    4.90999985    1.58000004
   19.46777916  487.64300537    4.90999985    1.98000002
   19.46916771  303.28500366    4.90999985    2.03999996
   19.47055626  240.95399475    4.90999985    2.03999996
   19.47055626   -1.00000000    4.90999985    0.15000001
   19.47083473   -1.00000000    4.90999985    0.55000001
   19.47083473  447.57699585    4.90999985    1.58000004
   19.47083473   -1.00000000    3.36999989    0.03000000
   19.47111130   -1.00000000    4.90999985    0.05000000
   19.47111130   -1.00000000    4.90999985    0.07000000
   19.47111130   -1.00000000    4.90999985    0.07000000
   19.47138977   -1.00000000    4.90999985    0.09000000
   19.47138977   -1.00000000    4.90999985    0.11000000
   19.47194481  173.41400146    4.90999985    2.39000010
   19.47527885  150.85200500    4.90999985    2.67000008
   19.47833443  154.51199341    2.34999990    2.67000008
   19.48166656  166.97500610    0.79000002    2.66000009
   19.48500061  169.38600159    0.76999998    2.64000010
   19.49138832  169.38600159    0.79000002    2.64000010
   19.49555588  161.02600098    0.76999998    2.64000010
   19.49861145  164.05599976    0.79000002    2.66000009
   19.50194359  159.38600159    0.76999998    2.66000009
   19.50444412  160.89100647    0.76999998    2.66000009
   19.50583267  155.96099854    0.76999998    2.66000009
   19.50916672  145.17799377    0.76999998    2.66000009
   19.51222229  153.84800720    0.76999998    2.66000009
   19.51555634  138.90499878    0.76999998    2.66000009
   19.51888847  144.11700439    0.76999998    2.66000009
   19.52194405  137.35000610    0.76999998    2.66000009
   19.52527809  149.30700684    0.76999998    2.67000008
   19.52833366  159.22099304    0.75000000    2.67000008
   19.53416634  159.22099304    0.76999998    2.66000009
   19.53833199  154.17399597    0.75000000    2.66000009
   19.54166603  146.30999756    0.76999998    2.66000009
   19.54472160  161.12800598    0.76999998    2.66000009
   19.54805565  155.01300049    0.76999998    2.66000009
   19.55111122  155.98699951    0.79000002    2.66000009
   19.55444336  145.69500732    0.79000002    2.66000009
   19.55777740  154.49299622    0.79000002    2.66000009
   19.56083298  152.51499939    0.79000002    2.66000009
   19.56416512  164.59800720    0.79000002    2.66000009
   19.56750107  162.03799438    0.79000002    2.66000009
   19.57055664  154.16400146    0.80000001    2.66000009
   19.57111168  150.88900757    0.80000001    2.66000009
   19.57694626  150.88900757    0.80000001    2.64000010
   19.58111191  150.32200623    0.80000001    2.66000009
   19.58444595  152.40299988    0.80000001    2.66000009
   19.58750153  148.63200378    0.81999999    2.66000009
   19.59083366  156.29400635    0.81999999    2.64000010
   19.59416771  148.65499878    0.81999999    2.66000009
   19.59722328  161.36700439    0.81999999    2.66000009
   19.60055542  162.60800171    0.80000001    2.66000009
   19.60361099  159.09700012    0.81999999    2.64000010
   19.60444450  142.56199646    0.81999999    2.64000010
   19.60750008  152.34199524    0.81999999    2.66000009
   19.61055565  152.67100525    0.81999999    2.64000010
   19.61388969  154.10800171    0.81999999    2.64000010
   19.61972237  154.10800171    0.81999999    2.64000010
   19.62388992  152.63299561    0.83999997    2.64000010
   19.62722206  151.73199463    0.83999997    2.64000010
   19.63055611  159.82099915    0.83999997    2.64000010
   19.63361168  153.47799683    0.83999997    2.64000010
   19.63694382  153.51400757    0.86000001    2.64000010
   19.63777733  157.25199890    0.83999997    2.64000010
   19.64055634  145.03100586    0.86000001    2.64000010
   19.64361191  157.31199646    0.83999997    2.64000010
   19.64694405  160.92599487    0.83999997    2.64000010
   19.65027809  146.15899658    0.83999997    2.64000010
   19.65333366  148.30999756    0.83999997    2.64000010
   19.65666580  161.36500549    0.83999997    2.64000010
   19.66277695  161.36500549    0.83999997    2.64000010
   19.66694450  157.08500671    0.83999997    2.64000010
   19.67000008  160.42399597    0.83999997    2.64000010
   19.67111015  155.88800049    0.83999997    2.64000010
   19.67361069  152.88000488    0.83999997    2.64000010
   19.67666626  146.69500732    0.81999999    2.64000010
   19.68000031  147.86799622    0.81999999    2.64000010
   19.68333244  161.61199951    0.83999997    2.66000009
   19.68638802  154.33700562    0.83999997    2.66000009
   19.68972206  158.94900513    0.89999998    2.66000009
   19.69305420  165.06700134    0.86000001    2.66000009
   19.69610977  148.95599365    0.83999997    2.64000010
   19.69944382  153.19999695    0.86000001    2.66000009
   19.70555687  153.19999695    0.92000002    2.66000009
   19.70972252  163.75000000    0.88000000    2.64000010
   19.71305656  157.42100525    0.89999998    2.64000010
   19.71611214  159.40499878    0.89999998    2.64000010
   19.71944427  147.86300659    1.28999996    2.64000010
   19.72249985  150.36099243    1.80999994    2.66000009
   19.72583389  151.27799988    1.88000000    2.66000009
   19.72916794  153.00100708    2.91000009    2.66000009
   19.73222351  138.11399841    3.16000009    2.61999989
   19.73555565  145.87899780    3.80999994    2.61999989
   19.73777771  164.03999329    4.48999977    2.64000010
   19.73916626  151.31300354    4.63999987    2.64000010
   19.74222183  156.47599792    4.40999985    2.64000010
   19.74833298  156.47599792    4.90999985    2.66000009
   19.75250053  141.01199341    4.90999985    2.59999990
   19.75583267  134.14900208    4.90999985    2.46000004
   19.75888824  178.74800110    4.90999985    1.98000002
   19.76222229  176.37800598    4.90999985    2.17000008
   19.76555634  158.33900452    4.90999985    2.51999998
   19.76861000  158.04400635    4.90999985    2.59999990
   19.77111053  155.31700134    4.90999985    2.69000006
   19.77249908  154.40699768    4.90999985    2.67000008
   19.77555466  155.10600281    3.76999998    2.67000008
   19.77888870  165.77200317    2.75000000    2.67000008
   19.78222275  158.49400330    2.40000010    2.67000008
   19.78527641  153.61199951    2.59999990    2.66000009
   19.79111099  153.61199951    3.72000003    2.59999990
   19.79527664  159.55099487    4.90999985    2.69000006
   19.79861069  161.99099731    4.90999985    2.73000002
   19.80194283  158.27099609    4.90999985    2.48000002
   19.80444336  152.81199646    4.90999985    2.73000002
   19.80555534  155.54800415    4.90999985    2.75000000
   19.80861092  148.71899414    4.90999985    2.67000008
   19.81194305  166.21499634    4.90999985    2.69000006
   19.81527710  157.09399414    4.90999985    2.59999990
   19.81833458  158.15800476    2.21000004    2.66000009
   19.82166672  157.37500000    2.13000011    2.61999989
   19.82472229  153.78900146    2.19000006    2.64000010
   19.82805634  160.87300110    2.42000008    2.61999989
   19.83416748  160.87300110    2.78999996    2.61999989
   19.83833313  158.52099609    2.39000010    2.59999990
   19.84138870  149.23199463    2.15000010    2.61999989
   19.84472275  151.47599792    2.01999998    2.59999990
   19.84777832  163.23599243    1.83000004    2.64000010
   19.85111237  168.45899963    1.41999996    2.61999989
   19.85444450  166.95100403    1.39999998    2.61999989
   19.85750008  164.62399292    1.44000006    2.64000010
   19.86083412  166.13600159    1.25000000    2.61999989
   19.86388969  172.22200012    1.13000000    2.61999989
   19.86722183  173.79699707    1.09000003    2.59999990
   19.87055588  167.73699951    1.05999994    2.61999989
   19.87111092  176.70199585    1.05999994    2.61999989
   19.87694550  176.70199585    1.09000003    2.59999990
   19.88111115  182.23500061    1.09000003    2.59999990
   19.88416672  183.86000061    1.07000005    2.59999990
   19.88750076  188.05099487    1.09000003    2.61999989
   19.89083290  204.69700623    1.11000001    2.61999989
   19.89388847  191.23100281    1.11000001    2.61999989
   19.89722252  197.28999329    1.71000004    2.61999989
   19.90055466  206.59399414    1.86000001    2.61999989
   19.92388916   -1.00000000    4.90999985    0.70999998
   19.92777634  146.07899475    4.90999985    0.94000000
   19.93111038  282.88299561    4.90999985    1.71000004
   19.93444443  192.71299744    4.90999985    2.66000009
   19.93750000  198.78500366    4.90999985    2.71000004
   19.94083214  139.33599854    4.90999985    2.71000004
   19.94416618   -1.00000000    4.90999985    1.16999996
   19.94722176   -1.00000000    4.90999985    0.95999998
   19.95055580   56.50550079    4.90999985    1.00000000
   19.95305634  218.58999634    4.90999985    2.00000000
   19.95416832  133.21600342    4.90999985    2.34999990
   19.95750046   -1.00000000    4.90999985    1.07000005
   19.96083450   -1.00000000    4.90999985    0.83999997
   19.96666718   -1.00000000    4.90999985    2.64000010
   19.97083473  162.31300354    4.90999985    2.64000010
   19.97389030  155.45300293    4.53000021    2.66000009
   19.97722244  170.16900635    3.11999989    2.66000009
   19.98055649  162.18299866    4.90999985    2.64000010
   19.98361206  169.81199646    4.90999985    2.64000010
   19.98722267  204.44299316    4.90999985    2.59999990
   19.99055672   82.16850281    4.90999985    2.50000000
   19.99388885  372.48001099    4.90999985    2.21000004
   19.99583435  192.85200500    4.90999985    2.36999989
   19.99583435  169.81199646    4.90999985    2.64000010
   19.99611092  204.44299316    4.90999985    2.59999990
   19.99611092   82.16850281    4.90999985    2.50000000
   19.99611092  372.48001099    4.90999985    2.21000004
   19.99638939   -1.00000000    4.90999985    0.83999997
   19.99638939  162.31300354    4.90999985    2.64000010
   19.99638939  155.45300293    4.53000021    2.66000009
   19.99666786  170.16900635    3.11999989    2.66000009
   19.99666786  162.18299866    4.90999985    2.64000010
   19.99861145  179.33500671    4.90999985    2.67000008
   20.00194359   -1.00000000    4.90999985    2.50000000
   20.00499916   -1.00000000    4.90999985    0.64999998
   20.00833321   70.57969666    4.90999985    0.80000001
   20.01166725  148.30999756    4.90999985    2.03999996
   20.02055550   -1.00000000    4.90999985    0.09000000
   20.02388954   -1.00000000    4.90999985    0.09000000
   20.02722168   -1.00000000    4.90999985    0.40000001
   20.03055573   -1.00000000    4.90999985    0.56999999
   20.03388786   -1.00000000    4.90999985    0.50000000
   20.03694344   -1.00000000    4.90999985    0.28000000
   20.04027748   -1.00000000    4.90999985    0.13000000
   20.04361153   -1.00000000    4.90999985    0.05000000
   20.04666710   -1.00000000    4.90999985    0.01000000
   20.04999924   -1.00000000    4.90999985    0.01000000
   20.05305481   -1.00000000    4.90999985    0.01000000
   20.06361008   -1.00000000    4.90999985    0.03000000
   20.06666756   -1.00000000    4.90999985    0.01000000
   20.07000160   -1.00000000    4.90999985    0.03000000
   20.07305717   -1.00000000    4.90999985    0.03000000
   20.07638931   -1.00000000    4.90999985    0.03000000
   20.07972336   -1.00000000    4.90999985    0.03000000
   20.08277893   -1.00000000    4.90999985    0.03000000
   20.08611107   -1.00000000    4.90999985    0.03000000
   20.08944511   -1.00000000    4.90999985    0.03000000
   20.09250069   -1.00000000    4.90999985    0.07000000
   20.09583473   -1.00000000    4.90999985    0.11000000
   20.10639000   -1.00000000    4.90999985    0.52999997
   20.10944557   -1.00000000    4.90999985    0.36000001
   20.11277771   -1.00000000    4.90999985    0.19000000
   20.11611176   -1.00000000    4.90999985    0.34000000
   20.11916733  191.19799805    4.90999985    0.98000002
   20.12249947  211.57000732    4.90999985    2.19000006
   20.12583351  191.49299622    4.90999985    2.55999994
   20.12888908  194.02799988    4.90999985    2.57999992
   20.12972260  183.89100647    4.90999985    2.57999992
   20.13249969  193.10800171    1.25000000    2.57999992
   20.13583374  191.87399292    1.13000000    2.57999992
   20.13916588  191.98599243    1.09000003    2.57999992
   20.14527702  191.98599243    1.11000001    2.57999992
   20.14916611  181.53100586    1.11000001    2.57999992
   20.15250015  185.61599731    1.09000003    2.57999992
   20.15583229  195.63400269    1.09000003    2.57999992
   20.15888786  192.60200500    1.09000003    2.55999994
   20.16222191  188.77799988    1.09000003    2.57999992
   20.16305542  196.28500366    1.09000003    2.57999992
   20.16583252  207.77999878    1.09000003    2.57999992
   20.16888809  200.05599976    1.09000003    2.57999992
   20.17222214  213.31900024    1.11000001    2.55999994
   20.17527771  207.02400208    1.11000001    2.57999992
   20.17860985  207.70500183    1.11000001    2.57999992
   20.18194389  190.94000244    1.13000000    2.57999992
   20.18805504  190.94000244    1.13000000    2.57999992
   20.19222069  199.48100281    1.13000000    2.57999992
   20.19527626  205.00599670    1.13000000    2.55999994
   20.19638824  187.72900391    1.13000000    2.55999994
   20.19916534  194.60800171    1.13000000    2.57999992
   20.20222282  177.91200256    1.13000000    2.57999992
   20.20555687  189.78199768    1.13000000    2.57999992
   20.20888901  181.19799805    1.13000000    2.57999992
   20.21194458  193.65699768    1.13000000    2.57999992
   20.21527863  200.25000000    1.13000000    2.57999992
   20.21833420  195.01800537    1.11000001    2.59999990
   20.22166634  194.46800232    1.11000001    2.57999992
   20.22500038  191.55400085    1.11000001    2.55999994
   20.23111153  191.55400085    1.11000001    2.55999994
   20.23500061  211.25999451    1.13000000    2.55999994
   20.23833275  199.66200256    1.11000001    2.57999992
   20.24166679  193.72300720    1.11000001    2.57999992
   20.24500084  192.10699463    1.11000001    2.57999992
   20.24805641  198.30299377    1.11000001    2.55999994
   20.25138855  197.01600647    1.13000000    2.57999992
   20.25444412  166.66600037    4.90999985    2.57999992
   20.25777817  109.57800293    4.90999985    2.61999989
   20.26111031  157.30900574    4.90999985    2.42000008
   20.26305580  159.29800415    4.90999985    2.67000008
   20.26472282   91.60379791    4.90999985    2.66000009
   20.26777840  149.32600403    4.90999985    1.26999998
   20.27777672   -1.00000000    4.90999985    0.13000000
   20.28083229   -1.00000000    4.90999985    1.07000005
   20.28416634   -1.00000000    4.90999985    0.15000001
   20.28750038   -1.00000000    4.90999985    0.09000000
   20.29055595   -1.00000000    4.90999985    0.20999999
   20.29388809   -1.00000000    4.90999985    0.05000000
   20.29749870   -1.00000000    4.90999985    0.01000000
   20.30083275   -1.00000000    4.90999985    0.01000000
   20.30388832   -1.00000000    4.90999985    0.01000000
   20.30722237   -1.00000000    4.90999985    0.01000000
   20.31055450   -1.00000000    4.90999985    0.01000000
   20.32055664   -1.00000000    4.90999985    0.01000000
   20.32389069   -1.00000000    4.90999985    0.01000000
   20.32694626   -1.00000000    4.90999985    0.01000000
   20.33055687   -1.00000000    4.90999985    0.07000000
   20.33388901   -1.00000000    4.90999985    0.15000001
   20.33694458   -1.00000000    4.90999985    0.25000000
   20.34027863   -1.00000000    4.90999985    0.47999999
   20.34361267   -1.00000000    4.90999985    0.31999999
   20.34666824   -1.00000000    4.90999985    0.80000001
   20.35000038  143.41099548    4.90999985    0.94000000
   20.35333443  206.89799500    4.90999985    2.05999994
   20.35944557  206.89799500    4.90999985    2.55999994
   20.36361122  178.67399597    4.90999985    2.55999994
   20.36666679  169.55499268    4.90999985    2.57999992
   20.37000084  184.10299683    4.90999985    2.55999994
   20.37333298  166.01499939    1.96000004    2.53999996
   20.37638855  182.13999939    1.34000003    2.53999996
   20.37972260  178.41799927    1.26999998    2.53999996
   20.38277817  175.10499573    1.26999998    2.53999996
   20.38611031  173.13299561    1.26999998    2.51999998
   20.38944435  179.67900085    1.25000000    2.51999998
   20.39249992  178.91299438    1.25000000    2.51999998
   20.39583397  176.61000061    1.23000002    2.51999998
   20.39638901  170.22999573    1.23000002    2.51999998
   20.40222168  170.22999573    1.25000000    2.53999996
   20.40638924  198.08299255    1.25000000    2.51999998
   20.40972137  172.55000305    1.25000000    2.51999998
   20.41277695  183.75100708    1.25000000    2.51999998
   20.41611099  175.23100281    1.26999998    2.51999998
   20.41916656  175.71499634    1.28999996    2.53999996
   20.42249870  167.48599243    1.30999994    2.51999998
   20.42583275  170.62300110    2.98000002    2.51999998
   20.42888832  158.56300354    2.00000000    2.53999996
   20.42972183  174.88400269    1.78999996    2.53999996
   20.43277740  175.93099976    1.39999998    2.51999998
   20.43583298  158.30200195    1.34000003    2.51999998
   20.43916512  175.81700134    1.30999994    2.51999998
   20.44499969  175.81700134    1.33000004    2.51999998
   20.44916534  161.13000488    1.33000004    2.50000000
   20.45250130  164.02900696    1.33000004    2.51999998
   20.45555687  163.19299316    1.30999994    2.51999998
   20.45888901  168.32499695    1.30999994    2.53999996
   20.46222305  161.57899475    1.30999994    2.53999996
   20.46305656  173.67100525    1.28999996    2.53999996
   20.46583366  170.60200500    1.28999996    2.53999996
   20.46888924  166.87199402    1.28999996    2.53999996
   20.47222328  164.80200195    1.30999994    2.53999996
   20.47527885  166.32200623    1.30999994    2.53999996
   20.47861099  171.99899292    1.28999996    2.51999998
   20.48194504  175.55099487    1.30999994    2.51999998
   20.48805618  175.55099487    1.33000004    2.50000000
   20.49222183  232.57200623    1.34000003    2.51999998
   20.49527740  180.25300598    1.34000003    2.51999998
   20.49638939  161.79100037    1.34000003    2.51999998
   20.49916649  167.22900391    1.36000001    2.51999998
   20.50222206  172.08700562    1.36000001    2.50000000
   20.50555611  192.61199951    1.36000001    2.51999998
   20.50888824  170.88600159    1.38000000    2.51999998
   20.51194382  200.86999512    1.38000000    2.51999998
   20.51527786  184.51199341    1.38000000    2.51999998
   20.51833344  190.87899780    1.38000000    2.51999998
   20.52166557  238.36399841    1.38000000    2.51999998
   20.52499962  207.18499756    1.38000000    2.53999996
   20.53083229  207.18499756    1.58000004    2.53999996
   20.53499985  246.11199951    4.90999985    2.55999994
   20.53805542  253.01300049    4.90999985    2.53999996
   20.54138756  239.63200378    4.90999985    2.53999996
   20.54444313  275.90499878    4.86999989    2.51999998
   20.54777718  283.67498779    1.51999998    2.50000000
   20.55111122  259.82000732    1.39999998    2.51999998
   20.55416679  247.29100037    1.39999998    2.50000000
   20.55749893  251.13600159    1.39999998    2.50000000
   20.56083298  276.83999634    1.39999998    2.50000000
   20.56305504  286.26599121    1.39999998    2.50000000
   20.56444359  255.60099792    1.41999996    2.50000000
   20.56750107  231.12600708    1.41999996    2.50000000
   20.57361221  231.12600708    1.44000006    2.50000000
   20.57777786  262.86801147    1.44000006    2.50000000
   20.58111191  245.24400330    1.44000006    2.51999998
   20.58416748  255.30200195    1.46000004    2.50000000
   20.58750153  255.17900085    2.73000002    2.51999998
   20.59055710  257.80398560    4.61999989    2.51999998
   20.59388924  258.79400635    4.90999985    2.53999996
   20.59638977  129.05599976    4.90999985    2.46000004
   20.59777832   -1.00000000   -1.00000000   -1.00000000
   20.60083389  128.07400513    4.90999985    1.34000003
   20.60416794  434.69198608    4.90999985    1.88000000
   20.60611153  237.25999451    4.90999985    2.05999994
   20.60639000  258.79400635    4.90999985    2.53999996
   20.60639000   -1.00000000   -1.00000000   -1.00000000
   20.60639000  128.07400513    4.90999985    1.34000003
   20.60666656  434.69198608    4.90999985    1.88000000
   20.60666656  262.86801147    1.44000006    2.50000000
   20.60694504  245.24400330    1.44000006    2.51999998
   20.60694504  255.30200195    1.46000004    2.50000000
   20.60694504  255.17900085    2.73000002    2.51999998
   20.60722351  257.80398560    4.61999989    2.51999998
   20.60916710  239.29899597    4.05999994    2.48000002
   20.61222267  254.80299377    1.58000004    2.48000002
   20.61555672  266.90899658    1.53999996    2.48000002
   20.61888885  259.82800293    1.53999996    2.46000004
   20.62194443  274.19500732    1.53999996    2.48000002
   20.62694550  274.19500732    1.53999996    2.48000002
   20.63111115  258.34201050    1.55999994    2.48000002
   20.63444519  265.25100708    1.55999994    2.48000002
   20.63750076  244.27000427    1.55999994    2.48000002
   20.63999939  258.53399658    1.55999994    2.48000002
   20.64138794  232.23599243    1.55999994    2.48000002
   20.64472198  263.88198853    1.55999994    2.48000002
   20.64777756  245.96099854    1.55999994    2.48000002
   20.65111160  244.33900452    1.55999994    2.48000002
   20.65416718  241.78799438    1.53999996    2.48000002
   20.65749931  255.03599548    1.55999994    2.48000002
   20.66083336  251.63699341    1.53999996    2.50000000
   20.66388893  221.89999390    1.53999996    2.48000002
   20.67000008  221.89999390    1.53999996    2.48000002
   20.67416573  235.78300476    1.53999996    2.48000002
   20.67722130  228.78999329    1.53999996    2.48000002
   20.68055534  228.99000549    1.53999996    2.48000002
   20.68361092  226.57400513    1.53999996    2.48000002
   20.68694305  234.90199280    1.53999996    2.50000000
   20.69027710  210.99400330    1.53999996    2.50000000
   20.69333267  235.56300354    1.53999996    2.48000002
   20.69666672  215.95100403    1.55999994    2.48000002
   20.69972038  215.42900085    1.53999996    2.48000002
   20.70305634  228.62800598    1.53999996    2.48000002
   20.70639038  213.37899780    1.55999994    2.48000002
   20.70694542  223.40899658    1.55999994    2.48000002
   20.71277809  223.40899658    1.55999994    2.48000002
   20.71694565  216.33099365    1.55999994    2.48000002
   20.72000122  214.32499695    1.55999994    2.48000002
   20.72333336  190.91799927    1.55999994    2.50000000
   20.72638893  201.77200317    1.55999994    2.50000000
   20.72972298  207.36000061    1.55999994    2.50000000
   20.73305511  193.70500183    1.55999994    2.50000000
   20.73611069  211.09300232    1.58000004    2.50000000
   20.73944473  190.61399841    1.63000000    2.48000002
   20.74027824  210.92599487    1.63000000    2.48000002
   20.74305534  201.04100037    1.94000006    2.48000002
   20.74638939  213.19999695    1.73000002    2.46000004
   20.74972153  201.68400574    1.75000000    2.46000004
   20.75555611  201.68400574    1.75000000    2.46000004
   20.75972176  220.32600403    1.89999998    2.48000002
   20.76277733  213.05599976    1.94000006    2.46000004
   20.76611137  196.55099487    2.00000000    2.46000004
   20.76944351  213.85400391    2.07999992    2.46000004
   20.77249908  195.22700500    2.17000008    2.46000004
   20.77361107  206.10800171    2.21000004    2.44000006
   20.77611160  224.11000061    2.26999998    2.46000004
   20.77944374  212.52000427    2.42000008    2.46000004
   20.78277779  231.49400330    2.57999992    2.46000004
   20.78583336  207.12500000    2.67000008    2.46000004
   20.78916550  193.71099854    2.76999998    2.46000004
   20.79222107  209.80900574    2.84999990    2.44000006
   20.79833221  209.80900574    3.01999998    2.44000006
   20.80249977  214.88200378    3.20000005    2.46000004
   20.80583191  213.99600220    3.23000002    2.44000006
   20.80694389  203.64999390    3.21000004    2.44000006
   20.80916595  189.70899963    3.09999990    2.46000004
   20.81250000  211.29699707    3.01999998    2.44000006
   20.81583214  206.04200745    3.03999996    2.44000006
   20.81888962  209.08999634    3.16000009    2.44000006
   20.82222366  168.44000244    3.28999996    2.44000006
   20.82527924  260.38400269    3.50000000    2.39000010
   20.82861137  236.10299683    4.36999989    2.39000010
   20.83194542  251.92700195    4.90999985    2.32999992
   20.83500099  233.82899475    4.90999985    2.32999992
   20.84138870  233.82899475    4.90999985    2.28999996
   20.84527779  256.40600586    4.90999985    2.32999992
   20.84861183  241.91600037    4.90999985    2.39000010
   20.85194397  268.26098633    4.90999985    2.39000010
   20.85499954  279.56600952    4.90999985    2.32999992
   20.85833359  313.87899780    4.90999985    2.30999994
   20.86027908  356.77301025    4.90999985    2.26999998
   20.86166763  347.79901123    4.90999985    2.26999998
   20.86305618  425.76098633    4.90999985    2.25000000
   20.86444473  445.29998779    4.90999985    2.23000002
   20.86583328  497.22500610    4.90999985    2.21000004
   20.86722183  418.09600830    4.90999985    2.19000006
   20.86861038  238.63900757    4.90999985    2.17000008
   20.86861038  279.56600952    4.90999985    2.32999992
   20.86888885  313.87899780    4.90999985    2.30999994
   20.86888885  260.38400269    3.50000000    2.39000010
   20.86888885  236.10299683    4.36999989    2.39000010
   20.86916733  251.92700195    4.90999985    2.32999992
   20.86916733  233.82899475    4.90999985    2.32999992
   20.86944389  256.40600586    4.90999985    2.32999992
   20.86944389  241.91600037    4.90999985    2.39000010
   20.86944389  268.26098633    4.90999985    2.39000010
   20.87000084   89.81649780    4.90999985    2.13000011
   20.87333298   84.76329803    4.90999985    2.01999998
   20.87666702   35.47029877    4.90999985    1.89999998
   20.87972260   -1.00000000    4.90999985    1.86000001
   20.88305473   -1.00000000    4.90999985    1.63000000
   20.89333344   -1.00000000    4.90999985    0.13000000
   20.89666748   -1.00000000    4.90999985    0.07000000
   20.89999962   -1.00000000    4.90999985    0.05000000
   20.90333366   -1.00000000    4.90999985    0.05000000
   20.90666580   -1.00000000    4.90999985    0.09000000
   20.90972137   -1.00000000    4.90999985    0.07000000
   20.91305542   -1.00000000    4.90999985    0.03000000
   20.91638756   -1.00000000    4.90999985    0.03000000
   20.91944313   -1.00000000    4.90999985    0.01000000
   20.94444275   -1.00000000    4.90999985    0.01000000
   20.94749832   -1.00000000    4.90999985    0.01000000
   20.95083427   -1.00000000    4.90999985    0.01000000
   20.95388985   -1.00000000    4.90999985    0.01000000
   20.95722389   -1.00000000    4.90999985    0.01000000
   20.96055603   -1.00000000    4.90999985    0.01000000
   20.96361160   -1.00000000    4.90999985    0.01000000
   20.96694565   -1.00000000    4.90999985    0.01000000
   20.97027779   -1.00000000    4.90999985    0.03000000
   20.97361183   -1.00000000    4.90999985    0.07000000
   20.97694588   -1.00000000    4.90999985    0.17000000
   20.98694420   -1.00000000    4.90999985    0.19000000
   20.99027824   -1.00000000    4.90999985    0.20999999
   20.99361229   -1.00000000    4.90999985    0.20999999
   20.99666786   -1.00000000    4.90999985    0.13000000
   21.00000000   -1.00000000    4.90999985    0.05000000
   21.00333405   -1.00000000    4.90999985    0.05000000
   21.00666618   -1.00000000    4.90999985    0.07000000
   21.01000023   -1.00000000    4.90999985    0.09000000
   21.01333427   -1.00000000    4.90999985    0.11000000
   21.01638794   -1.00000000    4.90999985    0.28000000
   21.01972198   -1.00000000    4.90999985    0.44000000
   21.03000069   -1.00000000    4.90999985    0.61000001
   21.03305435   -1.00000000    4.90999985    0.44000000
   21.03638840   -1.00000000    4.90999985    0.70999998
   21.03999901   -1.00000000    4.90999985    0.55000001
   21.04333305   -1.00000000    4.90999985    0.70999998
   21.04638863   -1.00000000    4.90999985    0.55000001
   21.04972076   -1.00000000    4.90999985    0.76999998
   21.05305481   -1.00000000    4.90999985    0.70999998
   21.05611038   -1.00000000    4.90999985    0.44000000
   21.05944443   -1.00000000    4.90999985    0.55000001
   21.06277657   23.57019997    4.90999985    1.34000003
   21.06888962   23.57019997    4.90999985    1.85000002
   21.07277870   -1.00000000    4.90999985    1.26999998
   21.07611275   -1.00000000    4.90999985    1.01999998
   21.07944489   -1.00000000    4.90999985    0.17000000
   21.08250046   -1.00000000    4.90999985    0.03000000
   21.08583450   -1.00000000    4.90999985    0.01000000
   21.08889008   -1.00000000    2.15000010    0.01000000
   21.09222221   -1.00000000    1.73000002    0.01000000
   21.09555626   -1.00000000    1.73000002    0.01000000
   21.09861183   -1.00000000    1.73000002    0.01000000
   21.10194397   -1.00000000    1.73000002    0.01000000
   21.10555649   -1.00000000    1.73000002    0.01000000
   21.11555672   -1.00000000    1.73000002    0.01000000
   21.11888885   -1.00000000    1.73000002    0.01000000
   21.12222290   -1.00000000    1.73000002    0.01000000
   21.12527847   -1.00000000    1.73000002    0.01000000
   21.12861061   -1.00000000    1.73000002    0.01000000
   21.13166618   -1.00000000    1.73000002    0.01000000
   21.13500023   -1.00000000    1.73000002    0.01000000
   21.13861084   -1.00000000    1.73000002    0.01000000
   21.14194489   -1.00000000    1.73000002    0.01000000
   21.14500046   -1.00000000    1.73000002    0.01000000
   21.14833260   -1.00000000    1.73000002    0.01000000
   21.15833282   -1.00000000    1.73000002    0.01000000
   21.16166687   -1.00000000    4.28999996    0.01000000
   21.16499901   -1.00000000    4.51000023    0.01000000
   21.16805458   -1.00000000    4.90999985    0.03000000
   21.17166519   -1.00000000    4.90999985    0.05000000
   21.17499924   -1.00000000    4.90999985    0.07000000
   21.17805481   -1.00000000    4.90999985    0.11000000
   21.18138885   -1.00000000    4.90999985    0.07000000
   21.18472099   -1.00000000    4.90999985    0.31999999
   21.18777657   -1.00000000    4.90999985    1.26999998
   21.19111061   -1.00000000    4.90999985    1.25000000
   21.20138931   -1.00000000    4.90999985    0.05000000
   21.20444489   -1.00000000    4.90999985    0.03000000
   21.20833397   -1.00000000    4.90999985    0.01000000
   21.21138954   -1.00000000    4.90999985    0.01000000
   21.21472359   -1.00000000    4.90999985    0.01000000
   21.21777916   -1.00000000    4.90999985    0.01000000
   21.22111130   -1.00000000    4.90999985    0.01000000
   21.22444534   -1.00000000    4.90999985    0.01000000
   21.22750092   -1.00000000    4.90999985    0.01000000
   21.23083305   -1.00000000    4.90999985    0.01000000
   21.23416710   -1.00000000    4.90999985    0.01000000
   21.24416733   -1.00000000    4.90999985    0.01000000
   21.24749947   -1.00000000    4.90999985    0.01000000
   21.25055504   -1.00000000    4.90999985    0.01000000
   21.25388908   -1.00000000    4.90999985    0.01000000
   21.25694466   -1.00000000    4.90999985    0.01000000
   21.26027870   -1.00000000    4.90999985    0.01000000
   21.26361084   -1.00000000    4.90999985    0.01000000
   21.26666641   -1.00000000    4.90999985    0.01000000
   21.27000046   -1.00000000    4.90999985    0.01000000
   21.27361107   -1.00000000    4.90999985    0.01000000
   21.27666664   -1.00000000    4.90999985    0.01000000
   21.28694344   -1.00000000    4.90999985    0.01000000
   21.29027748   -1.00000000    4.90999985    0.01000000
   21.29333305   -1.00000000    4.90999985    0.01000000
   21.29666710   -1.00000000    4.90999985    0.01000000
   21.29999924   -1.00000000    4.90999985    0.01000000
   21.30305481   -1.00000000    4.90999985    0.01000000
   21.30694389   -1.00000000    4.90999985    0.01000000
   21.30999947   -1.00000000    4.90999985    0.01000000
   21.31333351   -1.00000000    4.90999985    0.01000000
   21.31638718   -1.00000000    4.90999985    0.01000000
   21.31972313   -1.00000000    4.90999985    0.01000000
   21.32972336   -1.00000000    4.90999985    0.01000000
   21.33305550   -1.00000000    4.90999985    0.01000000
   21.33638954   -1.00000000    4.90999985    0.01000000
   21.34000015   -1.00000000    4.90999985    0.01000000
   21.34333420   -1.00000000    4.90999985    0.01000000
   21.34638977   -1.00000000    4.90999985    0.01000000
   21.34972191   -1.00000000    4.90999985    0.01000000
   21.35277748   -1.00000000    4.90999985    0.01000000
   21.35611153   -1.00000000    4.90999985    0.01000000
   21.35944557   -1.00000000    4.90999985    0.01000000
   21.36250114   -1.00000000    4.90999985    0.01000000
   21.37277794   -1.00000000    4.90999985    0.01000000
   21.37583351   -1.00000000    4.90999985    0.01000000
   21.37916756   -1.00000000    4.90999985    0.01000000
   21.38249969   -1.00000000    4.90999985    0.01000000
   21.38555527   -1.00000000    4.90999985    0.01000000
   21.38888931   -1.00000000    4.90999985    0.01000000
   21.39194489   -1.00000000    4.90999985    0.01000000
   21.39527702   -1.00000000    4.90999985    0.01000000
   21.39861107   -1.00000000    4.90999985    0.01000000
   21.40166664   -1.00000000    4.90999985    0.01000000
   21.40499878   -1.00000000    4.90999985    0.01000000
   21.41555595   -1.00000000    4.90999985    0.01000000
   21.41888809   -1.00000000    4.90999985    0.01000000
   21.42194366   -1.00000000    4.90999985    0.01000000
   21.42527771   -1.00000000    4.90999985    0.01000000
   21.42833328   -1.00000000    4.90999985    0.01000000
   21.43166542   -1.00000000    4.90999985    0.01000000
   21.43499947   -1.00000000    4.90999985    0.01000000
   21.43805504   -1.00000000    4.90999985    0.01000000
   21.44166565   -1.00000000    4.90999985    0.01000000
   21.44499969   -1.00000000    4.90999985    0.01000000
   21.44805527   -1.00000000    4.90999985    0.01000000
   21.45833397   -1.00000000    4.90999985    0.01000000
   21.46166801   -1.00000000    4.90999985    0.01000000
   21.46472359   -1.00000000    4.90999985    0.01000000
   21.46805573   -1.00000000    4.90999985    0.01000000
   21.47138977   -1.00000000    4.90999985    0.01000000
   21.47472191   -1.00000000    4.90999985    0.01000000
   21.47805595   -1.00000000    4.90999985    0.01000000
   21.48111153   -1.00000000    4.90999985    0.01000000
   21.48444557   -1.00000000    4.90999985    0.01000000
