    HOUR (UT)   FLARE FACTOR    SKY TESTER    SUN TESTER
   11.62583351   -1.00000000   -1.00000000   -1.00000000
   11.66750050  163.44599915    4.90999985    2.66000009
   11.67055607  158.27699280    4.90999985    2.66000009
   11.67388916  155.96000671    4.90999985    2.66000009
   11.67694473  162.41900635    4.90999985    2.66000009
   11.68027782  154.28599548    4.90999985    2.66000009
   11.68361092  161.86300659    4.90999985    2.66000009
   11.68777752  161.86300659    4.90999985    2.66000009
   11.69166660  157.25100708    4.90999985    2.67000008
   11.69499969  162.47000122    4.90999985    2.66000009
   11.69833374  151.78700256    4.90999985    2.64000010
   11.70083332  144.42599487    4.90999985    2.67000008
   11.70194435  141.59599304    4.90999985    2.66000009
   11.70527744  140.95700073    4.90999985    2.66000009
   11.70833302  144.11599731    4.90999985    2.66000009
   11.71166611  165.22200012    4.90999985    2.66000009
   11.71500015  154.13000488    4.90999985    2.66000009
   11.71805477  158.78799438    4.90999985    2.66000009
   11.72138882  158.27999878    4.90999985    2.66000009
   11.72444439  150.69900513    4.90999985    2.67000008
   11.73055553  150.69900513    4.90999985    2.67000008
   11.73472214  152.36399841    4.90999985    2.67000008
   11.73777771  144.67399597    4.90999985    2.66000009
   11.74111176  150.39300537    4.90999985    2.66000009
   11.74444485  148.55599976    4.90999985    2.66000009
   11.74750042  136.62600708    4.90999985    2.66000009
   11.75083351  159.74499512    4.90999985    2.67000008
   11.75388908  145.66400146    4.90999985    2.67000008
   11.75722218  143.61900330    4.90999985    2.66000009
   11.76055527  156.29499817    4.90999985    2.67000008
   11.76361084  141.75000000    4.90999985    2.67000008
   11.76694393  143.88900757    4.90999985    2.67000008
   11.76749992  149.37399292    4.90999985    2.66000009
   11.77333355  149.37399292    4.90999985    2.66000009
   11.77750015  144.61500549    4.90999985    2.67000008
   11.78055573  158.67300415    4.90999985    2.66000009
   11.78388977  150.14900208    4.90999985    2.66000009
   11.78722286  142.84100342    4.90999985    2.67000008
   11.79027843  152.97700500    4.90999985    2.69000006
   11.79361153  148.38699341    4.90999985    2.67000008
   11.79666710  138.68699646    4.90999985    2.67000008
   11.80000019  135.34500122    4.90999985    2.67000008
   11.80083370  138.74400330    4.90999985    2.67000008
   11.80361176  147.07499695    4.90999985    2.69000006
   11.80694485  145.96000671    4.90999985    2.67000008
   11.81027794  146.21600342    4.90999985    2.69000006
   11.81611156  146.21600342    4.90999985    2.69000006
   11.82027817  147.74600220    4.90999985    2.67000008
   11.82361126  127.51000214    4.90999985    2.67000008
   11.82666683  141.05700684    4.90999985    2.69000006
   11.82999992  137.05599976    4.90999985    2.69000006
   11.83305550  137.42900085    4.90999985    2.69000006
   11.83416653  149.13600159    4.90999985    2.69000006
   11.83666611  141.28799438    4.90999985    2.69000006
   11.84000015  149.79699707    4.90999985    2.71000004
   11.84333324  142.28100586    4.90999985    2.69000006
   11.84638882  137.99600220    4.90999985    2.69000006
   11.84972191  130.78300476    4.90999985    2.69000006
   11.85305595  136.97399902    4.90999985    2.67000008
   11.85888958  136.97399902    4.90999985    2.69000006
   11.86305618  157.40299988    4.90999985    2.69000006
   11.86638927  132.58399963    4.90999985    2.71000004
   11.86750031  148.28199768    4.90999985    2.69000006
   11.86999989  157.63699341    4.90999985    2.71000004
   11.87333393  155.32899475    4.90999985    2.69000006
   11.87666702  149.52200317    4.90999985    2.71000004
   11.87972260  134.96499634    4.90999985    2.71000004
   11.88305569  148.40699768    4.90999985    2.71000004
   11.88638878  145.63499451    4.90999985    2.71000004
   11.88944435  148.97000122    4.90999985    2.69000006
   11.89277744  143.26800537    4.90999985    2.69000006
   11.89583302  155.35099792    4.90999985    2.71000004
   11.90194416  155.35099792    4.90999985    2.69000006
   11.90611076  146.77999878    4.90999985    2.71000004
   11.90916634  149.00700378    4.90999985    2.71000004
   11.91249943  154.05599976    4.90999985    2.69000006
   11.91555500  149.61900330    4.90999985    2.69000006
   11.91888905  151.65499878    4.90999985    2.71000004
   11.92222214  152.95300293    4.90999985    2.71000004
   11.92527771  147.59300232    4.90999985    2.71000004
   11.92861176  152.72999573    4.90999985    2.71000004
   11.93194485  149.00300598    4.90999985    2.71000004
   11.93416691  157.31799316    4.90999985    2.71000004
   11.93555546  144.58000183    4.90999985    2.69000006
   11.93861103  149.57899475    4.90999985    2.71000004
   11.94472218  149.57899475    4.90999985    2.71000004
   11.94888878  151.72799683    4.90999985    2.73000002
   11.95194435  135.88099670    4.90999985    2.71000004
   11.95527744  141.47900391    4.90999985    2.71000004
   11.95861053  140.08399963    4.90999985    2.71000004
   11.96166611  137.73199463    4.90999985    2.71000004
   11.96500015  136.66400146    4.90999985    2.73000002
   11.96749973  141.65800476    4.90999985    2.73000002
   11.96833324  151.68299866    4.90999985    2.71000004
   11.97166634  135.15299988    4.90999985    2.73000002
   11.97499943  147.63099670    4.90999985    2.71000004
   11.97805500  130.74800110    4.90999985    2.71000004
   11.98138809  136.01499939    4.90999985    2.73000002
   11.98750019  136.01499939    4.90999985    2.71000004
   11.99166679  138.23899841    4.90999985    2.73000002
   11.99499989  151.05700684    4.90999985    2.73000002
   11.99805546  129.43299866    4.90999985    2.71000004
   12.00083351  134.38000488    4.90999985    2.73000002
   12.00194454  134.40199280    4.90999985    2.71000004
   12.00500011  131.93800354    4.90999985    2.73000002
   12.00833321  133.16900635    4.90999985    2.73000002
   12.01138878  128.98199463    4.90999985    2.73000002
   12.01472187  134.88600159    4.90999985    2.71000004
   12.01805496  134.56599426    4.90999985    2.71000004
   12.02111053  128.77299500    4.90999985    2.73000002
   12.02444458  125.21499634    4.90999985    2.73000002
   12.03027725  125.21499634    4.90999985    2.73000002
   12.03444481  128.96200562    4.90999985    2.73000002
   12.03777790  129.33999634    4.90999985    2.73000002
   12.04083347  125.87899780    4.90999985    2.73000002
   12.04416752  125.38700104    4.90999985    2.73000002
   12.04750061  129.88299561    4.90999985    2.73000002
   12.05055618  123.31600189    4.90999985    2.75000000
   12.05388927  136.88800049    4.90999985    2.73000002
   12.05694485  120.50800323    4.90999985    2.73000002
   12.06027794  127.84999847    4.90999985    2.75000000
   12.06361103  128.99299622    4.90999985    2.75000000
   12.06666660  128.42399597    4.90999985    2.73000002
   12.06750011  122.79900360    4.90999985    2.73000002
   12.07333374  122.79900360    4.90999985    2.75000000
   12.07722187  133.27799988    4.90999985    2.75000000
   12.08055592  133.97000122    4.90999985    2.75000000
   12.08388901  128.28700256    4.90999985    2.75000000
   12.08694458  135.35499573    4.90999985    2.75000000
   12.09027767  126.51000214    4.90999985    2.75000000
   12.09361076  129.46400452    4.90999985    2.75000000
   12.09666634  123.12300110    4.90999985    2.73000002
   12.10000038  137.21099854    4.90999985    2.75000000
   12.10083389  135.72999573    4.90999985    2.75000000
   12.10361195  122.22599792    4.90999985    2.75000000
   12.10666752  129.83999634    4.90999985    2.75000000
   12.11000061  129.32299805    4.90999985    2.75000000
   12.11611176  129.32299805    4.90999985    2.76999998
   12.12027836  134.02799988    4.90999985    2.75000000
   12.12333393  128.41099548    4.90999985    2.75000000
   12.12666702  129.69599915    4.90999985    2.76999998
   12.13000011  127.50099945    4.90999985    2.75000000
   12.13305569  129.94500732    4.90999985    2.75000000
   12.13416672  122.29399872    4.90999985    2.75000000
   12.13694477  126.71499634    4.90999985    2.75000000
   12.14000034  131.32699585    4.90999985    2.75000000
   12.14333344  127.93699646    4.90999985    2.75000000
   12.14638901  128.33000183    4.90999985    2.75000000
   12.14972210  125.51100159    4.90999985    2.75000000
   12.15305519  118.58799744    4.90999985    2.75000000
   12.15888882  118.58799744    4.90999985    2.75000000
   12.16305542  125.41999817    4.90999985    2.76999998
   12.16638851  114.12999725    4.90999985    2.75000000
   12.16750050  121.88899994    4.90999985    2.75000000
   12.17000008  127.69599915    4.90999985    2.73000002
   12.17305565  131.37699890    4.90999985    2.75000000
   12.17638874  125.02899933    4.90999985    2.76999998
   12.17944431  131.37100220    4.90999985    2.76999998
   12.18277836  134.24299622    4.90999985    2.76999998
   12.18611145  127.21800232    4.90999985    2.75000000
   12.18916702  117.02200317    4.90999985    2.76999998
   12.19250011  124.36199951    4.90999985    2.76999998
   12.19583321  134.65400696    4.90999985    2.75000000
   12.20166683  134.65400696    4.90999985    2.76999998
   12.20583344  133.97700500    4.90999985    2.76999998
   12.20916653  129.61099243    4.90999985    2.76999998
   12.21249962  136.10299683    4.90999985    2.76999998
   12.21555519  119.59999847    4.90999985    2.78999996
   12.21888828  135.03999329    4.90999985    2.76999998
   12.22194386  124.23000336    4.90999985    2.76999998
   12.22527695  121.91600037    4.90999985    2.76999998
   12.22861099  129.75100708    4.90999985    2.75000000
   12.23166656  133.42599487    4.90999985    2.78999996
   12.23416710  126.01200104    4.90999985    2.76999998
   12.23555565  131.28100586    4.90999985    2.76999998
   12.23861122  126.34600067    4.90999985    2.76999998
   12.24472237  126.34600067    4.90999985    2.76999998
   12.24888897  134.41299438    4.90999985    2.78999996
   12.25194454  130.03599548    4.90999985    2.75000000
   12.25527763  131.79400635    4.90999985    2.76999998
   12.25833321  117.38500214    4.90999985    2.78999996
   12.26166630  110.81800079    4.90999985    2.78999996
   12.26500034  117.35600281    4.90999985    2.76999998
   12.26749992  126.74700165    4.90999985    2.76999998
   12.26861095  128.69500732    4.90999985    2.78999996
   12.27166653  136.21899414    4.90999985    2.78999996
   12.27499962  123.33300018    4.90999985    2.76999998
   12.27833271  127.74800110    4.90999985    2.76999998
   12.28138828  137.16099548    4.90999985    2.76999998
   12.28750038  137.16099548    4.90999985    2.76999998
   12.29166698  129.90100098    4.90999985    2.76999998
   12.29472256  116.54599762    4.90999985    2.78999996
   12.29805565  111.19300079    4.90999985    2.78999996
   12.30083370  130.53100586    4.90999985    2.78999996
   12.30166721  123.50900269    4.90999985    2.78999996
   12.30472279  125.73500061    4.90999985    2.76999998
   12.30805588  125.70300293    4.90999985    2.78999996
   12.31138897  123.98600006    4.90999985    2.76999998
   12.31444454  131.61799622    4.90999985    2.76999998
   12.31777763  117.52799988    4.90999985    2.78999996
   12.32083321  123.83499908    4.90999985    2.78999996
   12.32416630  134.13999939    4.90999985    2.76999998
   12.33027744  134.13999939    4.90999985    2.78999996
   12.33444405  115.63800049    4.90999985    2.78999996
   12.33777714  110.84400177    4.90999985    2.78999996
   12.34111118  119.68199921    4.90999985    2.76999998
   12.34416676  128.11300659    4.90999985    2.78999996
   12.34749985  123.37799835    4.90999985    2.78999996
   12.35055637  121.96600342    4.90999985    2.78999996
   12.35388947  124.57800293    4.90999985    2.78999996
   12.35722256  127.96199799    4.90999985    2.80999994
   12.36027813  124.50299835    4.90999985    2.78999996
   12.36361122  129.50900269    4.90999985    2.78999996
   12.36694431  125.98899841    4.90999985    2.78999996
   12.36750031  128.31799316    4.90999985    2.78999996
   12.37333393  128.31799316    4.90999985    2.80999994
   12.37750053  125.47100067    4.90999985    2.78999996
   12.38055611  131.75100708    4.90999985    2.76999998
   12.38388920  123.62699890    4.90999985    2.78999996
   12.38694477  124.51200104    4.90999985    2.78999996
   12.39027786  122.65899658    4.90999985    2.78999996
   12.39361095  119.34999847    4.90999985    2.78999996
   12.39666653  123.58200073    4.90999985    2.80999994
   12.39999962  130.28100586    4.90999985    2.78999996
   12.40083313  128.24800110    4.90999985    2.78999996
   12.40361118  124.10800171    4.90999985    2.78999996
   12.43722248  116.47299957    4.90999985    2.80999994
   12.44027805  125.83399963    4.90999985    2.78999996
   12.44361115  124.74600220    4.90999985    2.80999994
   12.44694424  127.81099701    4.90999985    2.78999996
   12.44999981  130.86000061    4.90999985    2.80999994
   12.45333290  126.62300110    4.90999985    2.80999994
   12.45749950  126.62300110    4.90999985    2.80999994
   12.46166611  124.76000214    4.90999985    2.80999994
   12.46472168  137.69200134    4.90999985    2.80999994
   12.46833324  115.36799622    4.90999985    2.80999994
   12.47055531  125.20600128    4.90999985    2.80999994
   12.47194386  128.69099426    4.90999985    2.80999994
   12.47527695  139.16200256    4.90999985    2.78999996
   12.47861099  124.48899841    4.90999985    2.80999994
   12.48166656  124.63999939    4.90999985    2.80999994
   12.48500061  123.92099762    4.90999985    2.80999994
   12.48833370  133.37300110    4.90999985    2.80999994
   12.49138927  130.58500671    4.90999985    2.80999994
   12.49472237  137.38200378    4.90999985    2.78999996
   12.50027752  137.38200378    4.90999985    2.82999992
   12.50444412  109.11599731    4.90999985    2.80999994
   12.50777817  125.52799988    4.90999985    2.80999994
   12.51083374  121.55500031    4.90999985    2.82999992
   12.51416683  132.32600403    4.90999985    2.82999992
   12.51722240  124.41100311    4.90999985    2.82999992
   12.52055550  118.64399719    4.90999985    2.80999994
   12.52388859  125.81999969    4.90999985    2.80999994
   12.52694416  118.53399658    4.90999985    2.82999992
   12.53027725  122.08899689    4.90999985    2.82999992
   12.53333378  131.57000732    4.90999985    2.80999994
   12.53666687  131.34500122    4.90999985    2.80999994
   12.53722286  122.60600281    4.90999985    2.80999994
   12.54305553  122.60600281    4.90999985    2.82999992
   12.54722309  132.39399719    4.90999985    2.82999992
   12.55055618  128.20100403    4.90999985    2.80999994
   12.55361176  131.66999817    4.90999985    2.80999994
   12.55694485  136.38699341    4.90999985    2.82999992
   12.56027794  122.27400208    4.90999985    2.82999992
   12.56333351  136.96200562    4.90999985    2.80999994
   12.56666660  128.27400208    4.90999985    2.80999994
   12.56972218  123.96499634    4.90999985    2.82999992
   12.57055569  133.15899658    4.90999985    2.82999992
   12.57361126  130.46000671    4.90999985    2.82999992
   12.57666683  131.09500122    4.90999985    2.82999992
   12.57999992  129.88000488    4.90999985    2.82999992
   12.58611107  129.88000488    4.90999985    2.80999994
   12.59000015  109.69400024    4.90999985    2.82999992
   12.59333324  123.28900146    4.90999985    2.80999994
   12.59666634  132.19999695    4.90999985    2.82999992
   12.59972191  126.05899811    4.90999985    2.80999994
   12.60305595  129.81100464    4.90999985    2.82999992
   12.60388947  125.38899994    4.90999985    2.82999992
   12.60666752  125.68699646    4.90999985    2.82999992
   12.60972214  128.51899719    4.90999985    2.82999992
   12.61305618  119.63899994    4.90999985    2.82999992
   12.61611176  121.69000244    4.90999985    2.84999990
   12.61944485  126.21499634    4.90999985    2.82999992
   12.62277794  124.74800110    4.90999985    2.82999992
   12.62888908  124.74800110    4.90999985    2.82999992
   12.63305569  122.47299957    4.90999985    2.82999992
   12.63611126  124.99500275    4.90999985    2.82999992
   12.63722229  129.19500732    4.90999985    2.84999990
   12.64000034  126.48799896    4.90999985    2.84999990
   12.64305496  124.26899719    4.90999985    2.84999990
   12.64638901  120.37699890    4.90999985    2.82999992
   12.64972210  133.65199280    4.90999985    2.82999992
   12.65277767  123.64399719    4.90999985    2.84999990
   12.65611076  126.23400116    4.90999985    2.82999992
   12.65916634  125.58999634    4.90999985    2.82999992
   12.66249943  126.37100220    4.90999985    2.84999990
   12.66583252  121.75000000    4.90999985    2.84999990
   12.67166710  121.75000000    4.90999985    2.82999992
   12.67583370  126.61499786    4.90999985    2.84999990
   12.67888927  137.81100464    4.90999985    2.84999990
   12.68222237  124.65599823    4.90999985    2.82999992
   12.68555546  124.22899628    4.90999985    2.84999990
   12.68861103  135.28199768    4.90999985    2.84999990
   12.69194412  131.76800537    4.90999985    2.82999992
   12.69499969  121.30200195    4.90999985    2.82999992
   12.69833374  129.58000183    4.90999985    2.82999992
   12.70166683  129.03100586    4.90999985    2.84999990
   12.70388889  129.82000732    4.90999985    2.84999990
   12.70527744  127.60399628    4.90999985    2.84999990
   12.70833302  125.02799988    4.90999985    2.82999992
   12.71444416  125.02799988    4.90999985    2.84999990
   12.71861076  120.61900330    4.90999985    2.84999990
   12.72194386  120.95899963    4.90999985    2.82999992
   12.72499943  124.70300293    4.90999985    2.84999990
   12.72833252  123.58399963    4.90999985    2.84999990
   12.73138809  127.32900238    4.90999985    2.84999990
   12.73472214  133.64799500    4.90999985    2.84999990
   12.73722267  136.47099304    4.90999985    2.84999990
   12.73833370  133.36599731    4.90999985    2.84999990
   12.74138927  128.77999878    4.90999985    2.82999992
   12.74472237  134.43699646    4.90999985    2.84999990
   12.74805546  133.37199402    4.90999985    2.84999990
   12.75111103  132.21899414    4.90999985    2.82999992
   12.75722218  132.21899414    4.90999985    2.84999990
   12.76138878  138.39300537    4.90999985    2.84999990
   12.76472187  132.69200134    4.90999985    2.84999990
   12.76805496  138.84800720    4.90999985    2.84999990
   12.77055550  138.99899292    4.90999985    2.82999992
   12.77166653  128.74699402    4.90999985    2.84999990
   12.77472210  132.78999329    4.90999985    2.82999992
   12.77805519  134.72099304    4.90999985    2.84999990
   12.78138828  128.36300659    4.90999985    2.84999990
   12.78444481  129.46699524    4.90999985    2.84999990
   12.78777790  133.56799316    4.90999985    2.86999989
   12.79083347  132.25300598    4.90999985    2.84999990
   12.79416752  129.42100525    4.90999985    2.84999990
   12.80027771  129.42100525    4.90999985    2.84999990
   12.80444431  135.84599304    4.90999985    2.84999990
   12.80749989  135.76499939    4.90999985    2.84999990
   12.81083393  128.08200073    4.90999985    2.84999990
   12.81388950  132.23599243    4.90999985    2.84999990
   12.81722260  125.74199677    4.90999985    2.84999990
   12.82055569  129.76100159    4.90999985    2.82999992
   12.82388878  133.19900513    4.90999985    2.84999990
   12.82694435  124.91899872    4.90999985    2.84999990
   12.83027744  124.41699982    4.90999985    2.86999989
   12.83333302  131.92500305    4.90999985    2.86999989
   12.83666611  132.32299805    4.90999985    2.86999989
   12.83722210  137.75599670    4.90999985    2.86999989
   12.84305477  137.75599670    4.90999985    2.84999990
   12.84722233  138.02499390    4.90999985    2.84999990
   12.85027790  130.03999329    4.90999985    2.84999990
   12.85361195  130.91600037    4.90999985    2.86999989
   12.85694504  124.29299927    4.90999985    2.86999989
   12.86000061  141.82699585    4.90999985    2.86999989
   12.86333370  139.91000366    4.90999985    2.86999989
   12.86638927  128.92599487    4.90999985    2.86999989
   12.86972237  127.11900330    4.90999985    2.86999989
   12.87055588  122.98300171    4.90999985    2.86999989
   12.87333393  135.12899780    4.90999985    2.84999990
   12.87638855  129.23100281    4.90999985    2.84999990
   12.87972260  126.51000214    4.90999985    2.84999990
   12.88583279  126.51000214    4.90999985    2.84999990
   12.89000034  126.91000366    4.90999985    2.86999989
   12.89333344  125.66799927    4.90999985    2.86999989
   12.89638901  126.39099884    4.90999985    2.86999989
   12.89972210  132.69599915    4.90999985    2.86999989
   12.90305519  124.06700134    4.90999985    2.86999989
   12.90388870  128.36999512    4.90999985    2.86999989
   12.90666676  134.54100037    4.90999985    2.86999989
   12.90972137  135.09599304    4.90999985    2.86999989
   12.91305542  126.95300293    4.90999985    2.86999989
   12.91638851  128.37300110    4.90999985    2.86999989
   12.91944504  125.01699829    4.90999985    2.86999989
   12.92277813  127.25099945    4.90999985    2.86999989
   12.92888927  127.25099945    4.90999985    2.89000010
   12.93277836  135.68600464    4.90999985    2.89000010
   12.93611145  130.46499634    4.90999985    2.86999989
   12.93722248  135.45899963    4.90999985    2.86999989
   12.93972206  142.16600037    4.90999985    2.86999989
   12.94277763  130.03700256    4.90999985    2.86999989
   12.94611073  137.27200317    4.90999985    2.86999989
   12.94944477  133.24000549    4.90999985    2.86999989
   12.95249939  130.51199341    4.90999985    2.86999989
   12.95583344  126.51999664    4.90999985    2.84999990
   12.95888901  133.00399780    4.90999985    2.86999989
   12.96222210  129.61700439    4.90999985    2.84999990
   12.96555519  126.20400238    4.90999985    2.86999989
   12.97166634  126.20400238    4.90999985    2.86999989
   12.97583294  129.79100037    4.90999985    2.86999989
   12.97888851  131.69999695    4.90999985    2.86999989
   12.98222160  128.78999329    4.90999985    2.84999990
   12.98527813  130.16700745    4.90999985    2.86999989
   12.98861122  123.92500305    4.90999985    2.86999989
   12.99194431  134.63099670    4.90999985    2.86999989
   12.99499989  134.87399292    4.90999985    2.86999989
   12.99833393  128.55200195    4.90999985    2.86999989
   13.00138855  134.73500061    4.90999985    2.86999989
   13.00388908  133.47399902    4.90999985    2.89000010
   13.00527763  120.70500183    4.90999985    2.86999989
   13.00833321  140.45300293    4.90999985    2.89000010
   13.01444435  140.45300293    4.90999985    2.86999989
   13.01861095  143.01400757    4.90999985    2.86999989
   13.02166653  138.76899719    4.90999985    2.86999989
   13.02499962  135.50599670    4.90999985    2.86999989
   13.02833271  139.79800415    4.90999985    2.89000010
   13.03138828  128.58299255    4.90999985    2.86999989
   13.03472233  134.84199524    4.90999985    2.89000010
   13.03722286  132.66099548    4.90999985    2.89000010
   13.03833389  125.17199707    4.90999985    2.89000010
   13.04138947  122.56500244    4.90999985    2.86999989
   13.04472256  135.51100159    4.90999985    2.89000010
   13.04805565  133.50300598    4.90999985    2.89000010
   13.05111122  132.48300171    4.90999985    2.89000010
   13.05722237  132.48300171    4.90999985    2.89000010
   13.06138897  126.34400177    4.90999985    2.86999989
   13.06472206  141.38699341    4.90999985    2.86999989
   13.06777763  132.72399902    4.90999985    2.89000010
   13.07055569  137.58099365    4.90999985    2.86999989
   13.07166672  131.48699951    4.90999985    2.86999989
   13.07472229  128.41900635    4.90999985    2.89000010
   13.07805538  132.30499268    4.90999985    2.86999989
   13.08138847  127.01399994    4.90999985    2.89000010
   13.08444405  126.57299805    4.90999985    2.91000009
   13.08777714  128.15899658    4.90999985    2.89000010
   13.09111118  132.27900696    4.90999985    2.89000010
   13.09416676  130.03100586    4.90999985    2.89000010
   13.10000038  130.03100586    4.90999985    2.89000010
   13.10416698  131.47000122    4.90999985    2.89000010
   13.10750008  140.31599426    4.90999985    2.89000010
   13.11083412  132.11000061    4.90999985    2.91000009
   13.11388969  140.96400452    4.90999985    2.89000010
   13.11722279  142.82699585    4.90999985    2.89000010
   13.12027836  134.04600525    4.90999985    2.89000010
   13.12361145  135.07400513    4.90999985    2.89000010
   13.12694454  135.28999329    4.90999985    2.89000010
   13.13000011  130.79100037    4.90999985    2.89000010
   13.13333321  128.80599976    4.90999985    2.86999989
   13.13638878  133.22799683    4.90999985    2.89000010
   13.13722229  137.14399719    4.90999985    2.89000010
   13.14305496  137.14399719    4.90999985    2.89000010
   13.14722252  135.60800171    4.90999985    2.89000010
   13.15027714  138.11999512    4.90999985    2.89000010
   13.15361118  140.02000427    4.90999985    2.89000010
   13.15666676  143.11500549    4.90999985    2.89000010
   13.15999985  140.79200745    4.90999985    2.89000010
   13.16333294  140.62899780    4.90999985    2.89000010
   13.16638851  145.78500366    4.90999985    2.89000010
   13.16972256  144.30400085    4.90999985    2.89000010
   13.17055607  134.33099365    4.90999985    2.89000010
   13.17333412  134.46200562    4.90999985    2.89000010
   13.17638874  132.40899658    4.90999985    2.89000010
   13.17972279  139.21600342    4.90999985    2.89000010
   13.18583298  139.21600342    4.90999985    2.89000010
   13.19000053  143.94000244    4.90999985    2.89000010
   13.19305515  140.76199341    4.90999985    2.91000009
   13.19638920  129.52900696    4.90999985    2.89000010
   13.19972229  141.03399658    4.90999985    2.89000010
   13.20277786  135.41700745    4.90999985    2.89000010
   13.20388889  139.32099915    4.90999985    2.89000010
   13.20638847  139.63900757    4.90999985    2.89000010
   13.20972157  131.58599854    4.90999985    2.89000010
   13.21277714  144.05799866    4.90999985    2.91000009
   13.21611118  125.41699982    4.90999985    2.89000010
   13.21916580  141.80599976    4.90999985    2.91000009
   13.22249985  129.27799988    4.90999985    2.91000009
   13.22861099  129.27799988    4.90999985    2.89000010
   13.23277760  136.82200623    4.90999985    2.89000010
   13.23611164  138.35299683    4.90999985    2.91000009
   13.23722267  136.78999329    4.90999985    2.91000009
   13.23972225  132.89599609    4.90999985    2.89000010
   13.24305534  138.99299622    4.90999985    2.91000009
   13.24611092  127.75299835    4.90999985    2.91000009
   13.24944496  132.77000427    4.90999985    2.91000009
   13.25249958  137.40499878    4.90999985    2.89000010
   13.25583363  128.00000000    4.90999985    2.91000009
   13.25916672  128.04100037    4.90999985    2.89000010
   13.26222229  132.97399902    4.90999985    2.89000010
   13.26555538  126.17700195    4.90999985    2.93000007
   13.27138901  126.17700195    4.90999985    2.93000007
   13.27555561  134.37800598    4.90999985    2.93000007
   13.27888870  127.75299835    4.90999985    2.91000009
   13.28222179  147.59700012    4.90999985    2.91000009
   13.28527832  135.25799561    4.90999985    2.91000009
   13.28861141  137.38600159    4.90999985    2.91000009
   13.29166698  132.42399597    4.90999985    2.91000009
   13.29500008  138.44999695    4.90999985    2.89000010
   13.29833412  151.97900391    4.90999985    2.91000009
   13.30138874  136.39799500    4.90999985    2.91000009
   13.30388927  127.02100372    4.90999985    2.91000009
   13.30500031  176.05299377    4.90999985    2.91000009
   13.30833340  198.09100342    4.90999985    2.91000009
   13.31444454  198.09100342    4.90999985    2.91000009
   13.31861115  160.31700134    4.90999985    2.91000009
   13.32166672  171.48500061    4.90999985    2.91000009
   13.32499981  139.42100525    4.90999985    2.91000009
   13.32805538  192.92700195    4.90999985    2.94000006
   13.33138847  171.20599365    4.90999985    2.91000009
   13.33472157  172.94700623    4.90999985    2.91000009
   13.33722210  164.95300293    4.90999985    2.91000009
   13.33833313  177.52099609    4.90999985    2.93000007
   13.34166622  165.87600708    4.90999985    2.91000009
   13.34472179  168.04499817    4.90999985    2.93000007
   13.34805489  162.08500671    4.90999985    2.91000009
   13.35111141  174.37199402    4.90999985    2.91000009
   13.35722256  174.37199402    4.90999985    2.91000009
   13.36138916  165.07800293    4.90999985    2.93000007
   13.36444473  161.58399963    4.90999985    2.93000007
   13.36777782  157.35899353    4.90999985    2.93000007
   13.37055588  170.91600037    4.90999985    2.93000007
   13.37138939  165.92599487    4.90999985    2.93000007
   13.37472248  164.44099426    4.90999985    2.91000009
   13.37777805  174.42399597    4.90999985    2.93000007
   13.38111115  181.21000671    4.90999985    2.91000009
   13.38416672  188.07299805    4.90999985    2.93000007
   13.38749981  164.78599548    4.90999985    2.91000009
   13.39083290  138.66799927    4.90999985    2.93000007
   13.39388847  176.13499451    4.90999985    2.93000007
   13.39999962  176.13499451    4.90999985    2.91000009
   13.40416622  151.54800415    4.90999985    2.93000007
   13.40749931  159.33200073    4.90999985    2.91000009
   13.41055489  144.68200684    4.90999985    2.91000009
   13.41388893  175.80700684    4.90999985    2.93000007
   13.41722298  175.51800537    4.90999985    2.91000009
   13.42027855  159.49099731    4.90999985    2.93000007
   13.42361164  165.30700684    4.90999985    2.93000007
   13.42666721  152.81700134    4.90999985    2.93000007
   13.43000031  162.84599304    4.90999985    2.93000007
   13.43333340  126.35900116    4.90999985    2.93000007
   13.43638897  142.63499451    4.90999985    2.93000007
   13.43722248  165.68099976    4.90999985    2.93000007
   13.45805550  165.68099976    4.90999985    2.93000007
   13.46222210  145.47099304    4.90999985    2.94000006
   13.46527767  154.24200439    4.90999985    2.93000007
   13.46861076  139.25900269    4.90999985    2.94000006
   13.47055531  149.65199280    4.90999985    2.94000006
   13.47222137  148.67900085    4.90999985    2.94000006
   13.47527695  133.48100281    4.90999985    2.93000007
   13.47861099  152.20799255    4.90999985    2.93000007
   13.48194408  147.33399963    4.90999985    2.93000007
   13.48500061  136.53100586    4.90999985    2.93000007
   13.48833370  140.94299316    4.90999985    2.93000007
   13.49166679  135.31799316    4.90999985    2.93000007
   13.49472237  138.50999451    4.90999985    2.94000006
   13.50083351  138.50999451    4.90999985    2.94000006
   13.50472260  138.56300354    4.90999985    2.94000006
   13.50805569  136.02099609    4.90999985    2.94000006
   13.51138878  141.35899353    4.90999985    2.93000007
   13.51444435  138.24499512    4.90999985    2.94000006
   13.51777744  123.63600159    4.90999985    2.93000007
   13.52083302  134.38400269    4.90999985    2.94000006
   13.52416611  141.40699768    4.90999985    2.93000007
   13.52750015  141.95199585    4.90999985    2.94000006
   13.53055573  142.41900635    4.90999985    2.93000007
   13.53388977  140.80000305    4.90999985    2.94000006
   13.53694534  141.15400696    4.90999985    2.93000007
   13.53750038  134.90899658    4.90999985    2.93000007
   13.54361153  134.90899658    4.90999985    2.93000007
   13.54777813  123.90200043    4.90999985    2.94000006
   13.55083370  141.27200317    4.90999985    2.94000006
   13.55416679  130.35400391    4.90999985    2.94000006
   13.55722237  140.64799500    4.90999985    2.94000006
   13.56055546  138.83900452    4.90999985    2.93000007
   13.56388950  144.37600708    4.90999985    2.93000007
   13.56694412  140.45899963    4.90999985    2.94000006
   13.57027817  132.71099854    4.90999985    2.93000007
   13.57083321  140.42399597    4.90999985    2.93000007
   13.57388878  133.93800354    4.90999985    2.94000006
   13.57722187  138.48500061    4.90999985    2.94000006
   13.58027744  135.40699768    4.90999985    2.94000006
   13.58638859  135.40699768    4.90999985    2.94000006
   13.59055519  133.31100464    4.90999985    2.94000006
   13.59388828  132.42300415    4.90999985    2.94000006
   13.59694386  135.41799927    4.90999985    2.94000006
   13.60027790  118.18900299    4.90999985    2.94000006
   13.60333347  136.03900146    4.90999985    2.94000006
   13.60416698  135.55900574    4.90999985    2.94000006
   13.60694504  138.06799316    4.90999985    2.93000007
   13.61027813  131.01600647    4.90999985    2.94000006
   13.61333370  139.81399536    4.90999985    2.94000006
   13.61666679  134.82800293    4.90999985    2.94000006
   13.61999989  136.47999573    4.90999985    2.94000006
   13.62305546  128.30200195    4.90999985    2.94000006
   13.62916660  128.30200195    4.90999985    2.93000007
   13.63333321  138.91799927    4.90999985    2.94000006
   13.63666630  133.20300293    4.90999985    2.94000006
   13.63749981  135.55299377    4.90999985    2.94000006
   13.64027786  133.81799316    4.90999985    2.94000006
   13.64361095  136.95500183    4.90999985    2.96000004
   13.64666653  135.62300110    4.90999985    2.94000006
   13.64999962  136.66299438    4.90999985    2.94000006
   13.65333271  136.84800720    4.90999985    2.94000006
   13.65638828  133.73300171    4.90999985    2.94000006
   13.65972137  137.25000000    4.90999985    2.94000006
   13.66277695  128.53199768    4.90999985    2.94000006
   13.66611099  129.96000671    4.90999985    2.94000006
   13.67194462  129.96000671    4.90999985    2.96000004
   13.67611122  141.76100159    4.90999985    2.94000006
   13.67944431  138.57899475    4.90999985    2.96000004
   13.68277836  136.22900391    4.90999985    2.96000004
   13.68583298  134.46800232    4.90999985    2.96000004
   13.68916702  136.12699890    4.90999985    2.94000006
   13.69222260  131.80700684    4.90999985    2.94000006
   13.69555569  135.62500000    4.90999985    2.94000006
   13.69888878  149.97999573    4.90999985    2.94000006
   13.70194435  132.11799622    4.90999985    2.94000006
   13.70416641  139.75999451    4.90999985    2.94000006
   13.70555496  132.88900757    4.90999985    2.94000006
   13.70888901  132.37100220    4.90999985    2.96000004
   13.71500015  132.37100220    4.90999985    2.96000004
   13.71916580  134.28599548    4.90999985    2.96000004
   13.72222137  131.55099487    4.90999985    2.96000004
   13.72555542  137.71299744    4.90999985    2.94000006
   13.72861099  136.79100037    4.90999985    2.96000004
   13.73194408  137.24600220    4.90999985    2.94000006
   13.73555565  130.76100159    4.90999985    2.94000006
   13.73750019  133.88299561    4.90999985    2.94000006
   13.73916721  140.36599731    4.90999985    2.94000006
   13.74250031  137.51499939    4.90999985    2.96000004
   13.74555588  129.44599915    4.90999985    2.94000006
   13.74888897  135.00599670    4.90999985    2.94000006
   13.75222206  137.67399597    4.90999985    2.96000004
   13.75777817  137.67399597    4.90999985    2.94000006
   13.76194477  138.90100098    4.90999985    2.94000006
   13.76500034  130.66700745    4.90999985    2.96000004
   13.76833344  132.57800293    4.90999985    2.94000006
   13.77111053  129.51499939    4.90999985    2.94000006
   13.77194405  142.41799927    4.90999985    2.94000006
   13.77527714  134.47399902    4.90999985    2.96000004
   13.77833271  131.84899902    4.90999985    2.94000006
   13.78166676  137.50199890    4.90999985    2.96000004
   13.78472233  126.58100128    4.90999985    2.96000004
   13.78805637  134.68400574    4.90999985    2.96000004
   13.79138947  133.30599976    4.90999985    2.94000006
   13.79444504  125.43399811    4.90999985    2.96000004
   13.80055618  125.43399811    4.90999985    2.96000004
   13.80472279  138.12100220    4.90999985    2.94000006
   13.80805588  134.92599487    4.90999985    2.96000004
   13.81111145  134.38200378    4.90999985    2.96000004
   13.81444454  133.50599670    4.90999985    2.96000004
   13.81750011  127.60299683    4.90999985    2.96000004
   13.82083321  130.79899597    4.90999985    2.96000004
   13.82416630  138.07299805    4.90999985    2.98000002
   13.82722187  133.68899536    4.90999985    2.96000004
   13.83055592  131.52999878    4.90999985    2.96000004
   13.83361053  136.45399475    4.90999985    2.96000004
   13.83694458  123.95400238    4.90999985    2.96000004
   13.83777714  127.95200348    4.90999985    2.96000004
   13.84333324  127.95200348    4.90999985    2.96000004
   13.84749985  131.68200684    4.90999985    2.96000004
   13.85083389  133.60699463    4.90999985    2.96000004
   13.85388947  134.91299438    4.90999985    2.96000004
   13.85722256  130.02000427    4.90999985    2.96000004
   13.86055565  131.86900330    4.90999985    2.98000002
   13.86361122  137.10699463    4.90999985    2.98000002
   13.86694431  129.40699768    4.90999985    2.94000006
   13.87027836  136.75000000    4.90999985    2.94000006
   13.87111092  134.95700073    4.90999985    2.94000006
   13.87361145  137.33200073    4.90999985    2.94000006
   13.87694454  143.21299744    4.90999985    2.96000004
   13.88000011  132.63600159    4.90999985    2.96000004
   13.88638878  132.63600159    4.90999985    2.98000002
   13.89055538  135.44700623    4.90999985    2.98000002
   13.89361095  133.84399414    4.90999985    2.96000004
   13.89694405  131.51800537    4.90999985    2.96000004
   13.89999962  128.52699280    4.90999985    2.98000002
   13.90333271  128.87199402    4.90999985    2.98000002
   13.90444374  128.78399658    4.90999985    2.96000004
   13.90694427  138.72700500    4.90999985    2.96000004
   13.91027737  136.71499634    4.90999985    2.96000004
   13.91361046  126.46099854    4.90999985    2.98000002
   13.91666698  127.03199768    4.90999985    2.96000004
   13.92000008  134.74099731    4.90999985    2.96000004
   13.92333412  127.76000214    4.90999985    2.98000002
   13.92916679  127.76000214    4.90999985    2.96000004
   13.93333340  134.99499512    4.90999985    2.98000002
   13.93638897  132.89799500    4.90999985    2.96000004
   13.93777752  139.34700012    4.90999985    2.96000004
   13.94000053  129.53100586    4.90999985    2.98000002
   13.94333363  141.45500183    4.90999985    2.98000002
   13.94638920  131.95500183    4.90999985    2.96000004
   13.94972229  139.82000732    4.90999985    2.96000004
   13.95305538  138.39700317    4.90999985    2.98000002
   13.95611095  133.98399353    4.90999985    2.96000004
   13.95944405  140.40100098    4.90999985    2.98000002
   13.96277714  137.04699707    4.90999985    2.98000002
   13.96611118  130.97300720    4.90999985    2.96000004
   13.97194386  130.97300720    4.90999985    2.98000002
   13.97611046  135.71200562    4.90999985    2.98000002
   13.97916603  132.53900146    4.90999985    2.98000002
   13.98249912  128.86599731    4.90999985    2.98000002
   13.98583317  137.53500366    4.90999985    2.96000004
   13.98888874  133.57099915    4.90999985    2.96000004
   13.99222279  140.30599976    4.90999985    2.98000002
   13.99555588  135.76100159    4.90999985    2.98000002
   13.99861145  137.24800110    4.90999985    2.98000002
   14.00194454  144.90199280    4.90999985    2.98000002
   14.00416660  141.88699341    4.90999985    3.00000000
   14.00555515  135.88699341    4.90999985    2.98000002
   14.00888920  137.00000000    4.90999985    2.98000002
   14.01472187  137.00000000    4.90999985    2.98000002
   14.01888847  133.79100037    4.90999985    2.96000004
   14.02222157  121.70200348    4.90999985    2.98000002
   14.02527714  137.31100464    4.90999985    2.96000004
   14.02861118  136.47599792    4.90999985    2.98000002
   14.03166676  129.50799561    4.90999985    2.98000002
   14.03500080  138.84899902    4.90999985    2.98000002
   14.03750038  138.73300171    4.90999985    2.98000002
   14.03861141  135.50199890    4.90999985    2.98000002
   14.04194450  128.42100525    4.90999985    2.98000002
   14.04500008  128.92900085    4.90999985    2.98000002
   14.04833412  135.71800232    4.90999985    2.98000002
   14.05138874  130.82800293    4.90999985    2.98000002
   14.05749989  130.82800293    4.90999985    2.98000002
   14.06166649  135.50100708    4.90999985    2.98000002
   14.06500053  138.33900452    4.90999985    2.96000004
   14.06805515  138.07299805    4.90999985    3.00000000
   14.07083321  141.71400452    4.90999985    2.98000002
   14.07194424  143.51699829    4.90999985    2.98000002
   14.07527733  141.48399353    4.90999985    2.98000002
   14.07833290  135.10699463    4.90999985    2.98000002
   14.08166695  137.11199951    4.90999985    2.98000002
   14.08472157  131.84700012    4.90999985    3.00000000
   14.08805561  137.68800354    4.90999985    2.98000002
   14.09138870  134.10400391    4.90999985    2.98000002
   14.09444427  136.48100281    4.90999985    2.98000002
   14.10055637  136.48100281    4.90999985    2.98000002
   14.10472298  131.12399292    4.90999985    2.98000002
   14.10777855  137.92999268    4.90999985    2.98000002
   14.11111164  132.21299744    4.90999985    2.98000002
   14.11416721  142.83900452    4.90999985    3.00000000
   14.11750031  148.69200134    4.90999985    3.00000000
   14.12083340  138.05700684    4.90999985    3.00000000
   14.12388897  128.35899353    4.90999985    2.98000002
   14.12722206  126.90699768    4.90999985    3.00000000
   14.13027763  134.02000427    4.90999985    3.00000000
   14.13361073  131.06300354    4.90999985    3.00000000
   14.13694477  134.53199768    4.90999985    3.00000000
   14.13749981  128.24899292    4.90999985    3.00000000
   14.14333344  128.24899292    4.90999985    3.00000000
   14.14750004  131.96600342    4.90999985    2.98000002
   14.15055561  132.76300049    4.90999985    2.98000002
   14.15388870  142.24499512    4.90999985    2.98000002
   14.15722179  136.23300171    4.90999985    3.00000000
   14.16027737  126.94599915    4.90999985    3.00000000
   14.16361046  127.31099701    4.90999985    2.98000002
   14.16694450  129.85899353    4.90999985    2.98000002
   14.17000008  137.76199341    4.90999985    3.00000000
   14.17083359  130.66900635    4.90999985    3.00000000
   14.17361164  136.80200195    4.90999985    3.00000000
   14.17694473  138.16900635    4.90999985    2.98000002
   14.18000031  128.30999756    4.90999985    3.00000000
   14.18611145  128.30999756    4.90999985    3.00000000
   14.19027805  136.26600647    4.90999985    2.98000002
   14.19361115  131.66000366    4.90999985    3.00000000
   14.19666672  135.32099915    4.90999985    3.00000000
   14.19999981  143.44099426    4.90999985    3.00000000
   14.20305538  137.51800537    4.90999985    3.00000000
   14.20416641  135.37399292    4.90999985    2.98000002
   14.20666695  131.56900024    4.90999985    3.00000000
   14.21000004  130.70399475    4.90999985    2.98000002
   14.21305561  133.84800720    4.90999985    3.00000000
   14.21638870  125.67500305    4.90999985    3.00000000
   14.21972179  141.63400269    4.90999985    3.00000000
   14.22277737  135.41600037    4.90999985    3.00000000
   14.22888851  135.41600037    4.90999985    3.00000000
   14.23305511  133.83500671    4.90999985    3.00000000
   14.23638916  134.28399658    4.90999985    3.00000000
   14.23750019  129.13900757    4.90999985    3.00000000
   14.24000072  119.84999847    4.90999985    2.98000002
   14.24333382  132.36199951    4.90999985    3.00000000
   14.24638939  134.44999695    4.90999985    2.98000002
   14.24972248  135.37899780    4.90999985    2.98000002
   14.25305557  130.30099487    4.90999985    3.00000000
   14.25611115  125.48699951    4.90999985    2.98000002
   14.25944424  125.55999756    4.90999985    3.00000000
   14.26249981  132.39599609    4.90999985    3.00000000
   14.26583290  129.16700745    4.90999985    3.00000000
   14.27194405  129.16700745    4.90999985    3.00000000
   14.27583313  136.39599609    4.90999985    3.00000000
   14.27916622  128.37600708    4.90999985    3.00000000
   14.28249931  124.61199951    4.90999985    3.01999998
   14.28555584  132.74899292    4.90999985    3.01999998
   14.28888893  123.30400085    4.90999985    3.01999998
   14.29222298  134.60099792    4.90999985    3.00000000
   14.29527855  128.87300110    4.90999985    2.98000002
   14.29861164  137.25300598    4.90999985    3.00000000
   14.30166721  144.78599548    4.90999985    3.00000000
   14.30416679  150.29200745    4.90999985    3.00000000
   14.30527782  126.59899902    4.90999985    3.00000000
   14.30861092  130.63099670    4.90999985    3.00000000
   14.31472206  130.63099670    4.90999985    3.00000000
   14.31888866  143.43200684    4.90999985    3.00000000
   14.32194424  138.39999390    4.90999985    3.01999998
   14.32527733  138.82400513    4.90999985    3.01999998
   14.32861137  120.20200348    4.90999985    3.01999998
   14.33166695  124.01599884    4.90999985    3.01999998
   14.33500004  132.75999451    4.90999985    3.00000000
   14.33777714  131.48800659    4.90999985    3.00000000
   14.33861065  128.72099304    4.90999985    3.00000000
   14.34194374  124.22499847    4.90999985    3.00000000
   14.34499931  137.27799988    4.90999985    3.00000000
   14.34833336  141.96000671    4.90999985    3.00000000
   14.35166740  132.83700562    4.90999985    3.00000000
   14.35750008  132.83700562    4.90999985    3.00000000
   14.36166668  135.83000183    4.90999985    3.00000000
   14.36500072  134.16700745    4.90999985    3.00000000
   14.36805534  130.30000305    4.90999985    3.00000000
   14.37111092  134.66999817    4.90999985    3.00000000
   14.37166691  129.12500000    4.90999985    3.00000000
   14.37500000  137.19500732    4.90999985    3.00000000
   14.37805557  131.41600037    4.90999985    3.00000000
   14.38138866  133.32099915    4.90999985    3.00000000
   14.38472176  129.19200134    4.90999985    3.00000000
   14.38777733  142.09700012    4.90999985    3.01999998
   14.39111137  130.05799866    4.90999985    3.01999998
   14.39416695  131.79899597    4.90999985    3.01999998
   14.40027714  131.79899597    4.90999985    3.01999998
   14.40444374  140.68200684    4.90999985    3.01999998
   14.40777779  131.46200562    4.90999985    3.00000000
   14.41083336  122.35500336    4.90999985    3.01999998
   14.41416645  124.21700287    4.90999985    2.98000002
   14.41750050  129.93600464    4.90999985    3.01999998
   14.42055607  135.10099792    4.90999985    3.00000000
   14.42388916  136.88099670    4.90999985    3.00000000
   14.42722225  128.25199890    4.90999985    3.01999998
   14.43027782  127.18599701    4.90999985    3.00000000
   14.43361092  129.12699890    4.90999985    3.01999998
   14.43666649  128.60600281    4.90999985    3.00000000
   14.43777752  131.14500427    4.90999985    3.00000000
   14.44333363  131.14500427    4.90999985    3.00000000
   14.44722271  134.34800720    4.90999985    3.01999998
   14.45055580  130.76699829    4.90999985    3.00000000
   14.45388889  124.62699890    4.90999985    3.00000000
   14.47138882  136.21699524    4.90999985    3.01999998
   14.47388840  134.42399597    4.90999985    3.00000000
   14.47694397  134.69900513    4.90999985    3.00000000
   14.48027706  132.51800537    4.90999985    3.01999998
   14.48638916  132.51800537    4.90999985    3.01999998
   14.49027824  131.58500671    4.90999985    3.01999998
   14.49361134  123.67199707    4.90999985    3.01999998
   14.49694443  134.49699402    4.90999985    3.01999998
   14.50000000  123.89800262    4.90999985    3.01999998
   14.50333309  126.54199982    4.90999985    3.01999998
   14.50472260  131.45199585    4.90999985    3.01999998
   14.50722218  127.47799683    4.90999985    3.01999998
   14.51027775  132.52299500    4.90999985    3.01999998
   14.51361084  127.85500336    4.90999985    3.00000000
   14.51666641  135.29400635    4.90999985    3.01999998
   14.51999950  135.57299805    4.90999985    3.01999998
   14.52333355  131.09800720    4.90999985    3.01999998
   14.52916622  131.09800720    4.90999985    3.03999996
   14.53333378  124.82299805    4.90999985    3.01999998
   14.53638935  126.48000336    4.90999985    3.01999998
   14.53805637  138.50500488    4.90999985    3.01999998
   14.54000092  127.31999969    4.90999985    3.01999998
   14.54333401  132.36199951    4.90999985    3.01999998
   14.54638958  125.81700134    4.90999985    3.01999998
   14.54972267  128.87500000    4.90999985    3.00000000
   14.55305576  131.23800659    4.90999985    3.03999996
   14.55638885  132.43200684    4.90999985    3.01999998
   14.55944443  135.30200195    4.90999985    3.01999998
   14.56277752  130.08700562    4.90999985    3.01999998
   14.56583309  129.87399292    4.90999985    3.01999998
   14.57194424  129.87399292    4.90999985    3.01999998
   14.57611084  139.90199280    4.90999985    3.01999998
   14.57944393  135.83399963    4.90999985    3.01999998
   14.58249950  136.21099854    4.90999985    3.01999998
   14.58583260  137.68400574    4.90999985    3.01999998
   14.58888817  131.49400330    4.90999985    3.01999998
   14.59222221  131.99200439    4.90999985    3.01999998
   14.59555531  136.27600098    4.90999985    3.03999996
   14.59861088  138.82299805    4.90999985    3.01999998
   14.60194492  129.63999939    4.90999985    3.03999996
   14.60472298  130.76400757    4.90999985    3.01999998
   14.60527802  126.13200378    4.90999985    3.01999998
   14.60861111  131.95100403    4.90999985    3.03999996
   14.61500072  131.95100403    4.90999985    3.01999998
   14.61888885  131.32699585    4.90999985    3.01999998
   14.62222195  126.65200043    4.90999985    3.03999996
   14.62555599  128.92199707    4.90999985    3.03999996
   14.62888908  120.54000092    4.90999985    3.01999998
   14.63194466  125.36199951    4.90999985    3.01999998
   14.63527775  123.47799683    4.90999985    3.01999998
   14.63805580  124.68800354    4.90999985    3.03999996
   14.63916683  129.36999512    4.90999985    3.03999996
   14.64222240  129.67900085    4.90999985    3.01999998
   14.64555550  126.22499847    4.90999985    3.01999998
   14.64861107  130.02699280    4.90999985    3.03999996
   14.65194416  120.78700256    4.90999985    3.01999998
   14.65777779  120.78700256    4.90999985    3.01999998
   14.66194439  136.84899902    4.90999985    3.01999998
   14.66499996  128.81199646    4.90999985    3.01999998
   14.66833401  136.21600342    4.90999985    3.01999998
   14.67138958  124.11900330    4.90999985    3.01999998
   14.67194462  131.66000366    4.90999985    3.01999998
   14.67500019  132.23599243    4.90999985    3.03999996
   14.67833328  135.37399292    4.90999985    3.00000000
   14.68166733  126.36299896    4.90999985    3.01999998
   14.68472195  121.91200256    4.90999985    3.01999998
   14.68805599  125.26799774    4.90999985    3.03999996
   14.69111156  125.49800110    4.90999985    3.01999998
   14.69444466  154.52099609    4.90999985    3.03999996
   14.70055580  154.52099609    4.90999985    3.01999998
   14.70472240  123.91799927    4.90999985    3.01999998
   14.70777798  131.48199463    4.90999985    3.01999998
   14.71111107  122.56900024    4.90999985    3.01999998
   14.71444416  123.31400299    4.90999985    3.03999996
   14.71749973  134.06900024    4.90999985    3.03999996
   14.72083282  126.16799927    4.90999985    3.01999998
   14.72388840  128.44799805    4.90999985    3.01999998
   14.72722149  131.67300415    4.90999985    3.01999998
   14.73055553  118.43299866    4.90999985    3.01999998
   14.73361111  128.59399414    4.90999985    3.01999998
   14.73694515  126.68699646    4.90999985    3.01999998
   14.73805618  128.83599854    4.90999985    3.03999996
   14.74333382  128.83599854    4.90999985    3.03999996
   14.74750042  134.76800537    4.90999985    3.03999996
   14.75083351  130.02099609    4.90999985    3.01999998
   14.75388908  126.37300110    4.90999985    3.03999996
   14.75722218  131.55200195    4.90999985    3.01999998
   14.76055527  123.89499664    4.90999985    3.03999996
   14.76361084  124.22200012    4.90999985    3.03999996
   14.76694393  132.86900330    4.90999985    3.01999998
   14.76999950  130.17799377    4.90999985    3.03999996
   14.77138901  129.31199646    4.90999985    3.03999996
   14.77388859  135.18400574    4.90999985    3.03999996
   14.77694416  123.27200317    4.90999985    3.03999996
   14.78027725  126.80300140    4.90999985    3.03999996
   14.78638935  126.80300140    4.90999985    3.03999996
   14.79027843  130.53300476    4.90999985    3.03999996
   14.79361153  130.92700195    4.90999985    3.01999998
   14.79694462  132.33399963    4.90999985    3.03999996
   14.80000019  133.21600342    4.90999985    3.03999996
   14.80333328  125.81600189    4.90999985    3.03999996
   14.80472279  136.08900452    4.90999985    3.03999996
   14.80694485  133.93299866    4.90999985    3.03999996
   14.81000042  131.66999817    4.90999985    3.03999996
   14.81333351  137.55099487    4.90999985    3.03999996
   14.81638908  129.38000488    4.90999985    3.03999996
   14.81972218  135.53399658    4.90999985    3.03999996
   14.82305527  141.41600037    4.90999985    3.03999996
   14.82916641  141.41600037    4.90999985    3.03999996
   14.83333302  121.38700104    4.90999985    3.03999996
   14.83638859  128.00399780    4.90999985    3.03999996
   14.83805561  122.06400299    4.90999985    3.03999996
   14.84027767  132.42799377    4.90999985    3.03999996
   14.84333324  135.24699402    4.90999985    3.03999996
   14.84666634  127.06199646    4.90999985    3.03999996
   14.85000038  143.00300598    4.90999985    3.03999996
   14.85305595  133.85299683    4.90999985    3.03999996
   14.85638905  132.38299561    4.90999985    3.03999996
   14.85972214  130.64999390    4.90999985    3.03999996
   14.86277771  127.50199890    4.90999985    3.03999996
   14.86611176  133.93400574    4.90999985    3.03999996
   14.87194443  133.93400574    4.90999985    3.05999994
   14.87611103  128.41999817    4.90999985    3.03999996
   14.87916660  126.86900330    4.90999985    3.03999996
   14.88249969  131.14199829    4.90999985    3.03999996
   14.88583279  143.28199768    4.90999985    3.01999998
   14.88888836  129.52400208    4.90999985    3.03999996
   14.89222240  134.27000427    4.90999985    3.01999998
   14.89527798  121.45899963    4.90999985    3.03999996
   14.89861107  117.69799805    4.90999985    3.05999994
   14.90194416  130.12399292    4.90999985    3.03999996
   14.90472221  132.84899902    4.90999985    3.03999996
   14.90555477  133.54699707    4.90999985    3.03999996
   14.90861034  130.75599670    4.90999985    3.01999998
   14.91472149  130.75599670    4.90999985    3.03999996
   14.91888905  134.44999695    4.90999985    3.03999996
   14.92222214  127.68199921    4.90999985    3.05999994
   14.92527771  128.68600464    4.90999985    3.03999996
   14.92861176  130.00599670    4.90999985    3.05999994
   14.93194485  134.65800476    4.90999985    3.03999996
   14.93500042  132.51600647    4.90999985    3.03999996
   14.93805599  130.40800476    4.90999985    3.03999996
   14.93888855  134.57200623    4.90999985    3.03999996
   15.05222225   -1.00000000   -1.00000000   -1.00000000
   15.32638836   -1.00000000   -1.00000000   -1.00000000
   15.47055531   -1.00000000   -1.00000000   -1.00000000
   15.52750015   81.21779633    4.90999985    3.05999994
   15.53055573  132.94999695    4.90999985    3.05999994
   15.53388977  133.46899414    4.90999985    3.05999994
   15.53722286  128.88999939    4.90999985    3.05999994
   15.54027843  135.56599426    4.90999985    3.05999994
   15.54361153  132.59500122    4.90999985    3.05999994
   15.54777813  132.59500122    4.90999985    3.05999994
   15.55194473  132.51699829    4.90999985    3.03999996
   15.55500031  129.77699280    4.90999985    3.05999994
   15.55833340  130.91099548    4.90999985    3.05999994
   15.56083393  135.64900208    4.90999985    3.03999996
   15.56194496  120.85800171    4.90999985    3.05999994
   15.56527805  121.57499695    4.90999985    3.05999994
   15.56833363  127.38300323    4.90999985    3.03999996
   15.57166672  128.66299438    4.90999985    3.05999994
   15.57499981  137.27400208    4.90999985    3.05999994
   15.57805538  126.43499756    4.90999985    3.05999994
   15.58138847  131.36900330    4.90999985    3.05999994
   15.58444405  135.75599670    4.90999985    3.05999994
   15.59055519  135.75599670    4.90999985    3.03999996
   15.59472179  122.23500061    4.90999985    3.05999994
   15.59777737  128.44200134    4.90999985    3.05999994
   15.60111141  130.66200256    4.90999985    3.05999994
   15.60444450  123.79199982    4.90999985    3.05999994
   15.60750008  131.05099487    4.90999985    3.05999994
   15.61083412  129.03599548    4.90999985    3.07999992
   15.61388969  130.82499695    4.90999985    3.05999994
   15.61722279  116.50099945    4.90999985    3.05999994
   15.62055588  123.77500153    4.90999985    3.05999994
   15.62361145  124.15899658    4.90999985    3.03999996
   15.62694454  128.65499878    4.90999985    3.05999994
   15.62750053  122.60700226    4.90999985    3.05999994
   15.63388920  122.60700226    4.90999985    3.03999996
   15.63777733  125.94899750    4.90999985    3.05999994
   15.64111137  125.82299805    4.90999985    3.05999994
   15.64444447  131.88000488    4.90999985    3.05999994
   15.64750004  127.18499756    4.90999985    3.03999996
   15.65083313  120.48000336    4.90999985    3.05999994
   15.65388870  120.52700043    4.90999985    3.03999996
   15.65722179  129.16000366    4.90999985    3.03999996
   15.66055489  128.90499878    4.90999985    3.05999994
   15.66111088  129.66400146    4.90999985    3.05999994
   15.66416645  133.23599243    4.90999985    3.07999992
   15.66750050  122.85199738    4.90999985    3.05999994
   15.67055607  129.74099731    4.90999985    3.03999996
   15.67638874  129.74099731    4.90999985    3.05999994
   15.68055630  128.80299377    4.90999985    3.05999994
   15.68361092  122.47399902    4.90999985    3.05999994
   15.68694496  122.35800171    4.90999985    3.03999996
   15.69000053  128.87699890    4.90999985    3.05999994
   15.69333363  127.00399780    4.90999985    3.05999994
   15.69444466  123.93599701    4.90999985    3.03999996
   15.69694424  127.83300018    4.90999985    3.05999994
   15.70027733  129.39399719    4.90999985    3.07999992
   15.70333290  125.55400085    4.90999985    3.07999992
   15.70666695  124.31900024    4.90999985    3.05999994
   15.71000004  125.44699860    4.90999985    3.05999994
   15.71305561  132.63400269    4.90999985    3.05999994
   15.71916580  132.63400269    4.90999985    3.05999994
   15.72333336  124.57099915    4.90999985    3.05999994
   15.72638798  126.63200378    4.90999985    3.07999992
   15.72777748  125.66899872    4.90999985    3.05999994
   15.72999954  126.58399963    4.90999985    3.05999994
   15.73333359  125.02200317    4.90999985    3.05999994
   15.73638916  120.46700287    4.90999985    3.07999992
   15.73972225  124.95999908    4.90999985    3.07999992
   15.74305534  125.54900360    4.90999985    3.05999994
   15.74611092  127.79199982    4.90999985    3.05999994
   15.74944496  124.21499634    4.90999985    3.05999994
   15.75249958  122.57700348    4.90999985    3.05999994
   15.75583363  120.46900177    4.90999985    3.05999994
   15.76194477  120.46900177    4.90999985    3.07999992
   15.76611137  124.54399872    4.90999985    3.05999994
   15.76916599  119.54599762    4.90999985    3.07999992
   15.77250004  127.17500305    4.90999985    3.07999992
   15.77583313  129.50300598    4.90999985    3.05999994
   15.77888870  123.51300049    4.90999985    3.05999994
   15.78222179  127.14099884    4.90999985    3.05999994
   15.78527832  123.97200012    4.90999985    3.05999994
   15.78861141  124.48100281    4.90999985    3.05999994
   15.79194450  124.97000122    4.90999985    3.05999994
   15.79444504  128.90299988    4.90999985    3.07999992
   15.79555607  127.62899780    4.90999985    3.07999992
   15.79888916  119.75000000    4.90999985    3.07999992
   15.80472279  119.75000000    4.90999985    3.07999992
   15.80888939  117.09999847    4.90999985    3.07999992
   15.81222248  124.87799835    4.90999985    3.07999992
   15.81527805  119.17299652    4.90999985    3.05999994
   15.81861115  121.17600250    4.90999985    3.05999994
   15.82194424  128.30200195    4.90999985    3.07999992
   15.82499981  118.32700348    4.90999985    3.07999992
   15.82777786  121.66999817    4.90999985    3.05999994
   15.82861137  121.37100220    4.90999985    3.07999992
   15.83194447  125.03600311    4.90999985    3.07999992
   15.83500004  119.62400055    4.90999985    3.07999992
   15.83833313  122.54599762    4.90999985    3.05999994
   15.84166622  121.56199646    4.90999985    3.07999992
   15.84777737  121.56199646    4.90999985    3.05999994
   15.85166740  128.07299805    4.90999985    3.07999992
   15.85500050  119.90799713    4.90999985    3.05999994
   15.85833359  123.26799774    4.90999985    3.05999994
   15.86111164  121.58799744    4.90999985    3.07999992
   15.86194515  121.19699860    4.90999985    3.07999992
   15.86527824  117.91799927    4.90999985    3.07999992
   15.86833382  124.98300171    4.90999985    3.05999994
   15.87166691  127.84600067    4.90999985    3.07999992
   15.87500000  117.54000092    4.90999985    3.05999994
   15.87805557  121.08000183    4.90999985    3.05999994
   15.88138866  120.59999847    4.90999985    3.07999992
   15.88444424  124.41100311    4.90999985    3.07999992
   15.89055538  124.41100311    4.90999985    3.05999994
   15.89472198  125.49400330    4.90999985    3.05999994
   15.89777756  126.01699829    4.90999985    3.05999994
   15.90111065  128.64900208    4.90999985    3.05999994
   15.90416622  118.09200287    4.90999985    3.07999992
   15.90749931  125.15899658    4.90999985    3.05999994
   15.91083336  120.75000000    4.90999985    3.05999994
   15.91388893  123.07199860    4.90999985    3.05999994
   15.91722298  129.85000610    4.90999985    3.07999992
   15.92055607  129.54499817    4.90999985    3.09999990
   15.92361164  122.69200134    4.90999985    3.05999994
   15.92694473  130.91900635    4.90999985    3.07999992
   15.92777824  122.37100220    4.90999985    3.05999994
   15.93333340  122.37100220    4.90999985    3.03999996
   15.93750000  120.54599762    4.90999985    3.07999992
   15.94055557  120.59100342    4.90999985    3.07999992
   15.94388866  123.95400238    4.90999985    3.07999992
   15.94722271  124.02600098    4.90999985    3.07999992
   15.95055580  119.51000214    4.90999985    3.05999994
   15.95444393  120.61399841    4.90999985    3.05999994
   15.95749950  119.58100128    4.90999985    3.07999992
   15.96083355  121.10900116    4.90999985    3.07999992
   15.96138859  123.20700073    4.90999985    3.05999994
   15.96472168  121.89099884    4.90999985    3.05999994
   15.96777725  118.00399780    4.90999985    3.07999992
   15.97111034  125.10900116    4.90999985    3.07999992
   15.97611046  125.10900116    4.90999985    3.07999992
   15.98027706  116.95099640    4.90999985    3.05999994
   15.98361111  123.91300201    4.90999985    3.07999992
   15.98666668  116.71800232    4.90999985    3.05999994
   15.99000072  124.72100067    4.90999985    3.05999994
   15.99333382  126.54299927    4.90999985    3.07999992
   15.99472237  123.82900238    4.90999985    3.07999992
   15.99694443  124.15799713    4.90999985    3.07999992
   16.00000000  126.49299622    4.90999985    3.07999992
   16.00333405  126.04499817    4.90999985    3.07999992
   16.00666618  124.84799957    4.90999985    3.07999992
   16.00972176  122.35700226    4.90999985    3.07999992
   16.01305580  122.27400208    4.90999985    3.07999992
   16.01916695  122.27400208    4.90999985    3.07999992
   16.02305603  124.02899933    4.90999985    3.07999992
   16.02638817  128.55999756    4.90999985    3.07999992
   16.02805519  120.74700165    4.90999985    3.07999992
   16.03000069  128.52600098    4.90999985    3.07999992
   16.03305435  124.95600128    4.90999985    3.07999992
   16.03638840  127.06400299    4.90999985    3.07999992
   16.03944397  120.77899933    4.90999985    3.07999992
   16.04277802  118.21299744    4.90999985    3.07999992
   16.04611015  126.15599823    4.90999985    3.07999992
   16.04916573  120.76100159    4.90999985    3.05999994
   16.05249977  121.73400116    4.90999985    3.07999992
   16.05555534  120.48799896    4.90999985    3.03999996
   16.06194305  120.48799896    4.90999985    3.07999992
   16.06611061  125.81600189    4.90999985    3.05999994
   16.06916809  129.73500061    4.90999985    3.07999992
   16.07250023  127.01799774    4.90999985    3.07999992
   16.07611275  119.85500336    4.90999985    3.05999994
   16.07916832  123.54399872    4.90999985    3.03999996
   16.08250046  126.88700104    4.90999985    3.07999992
   16.08583450  123.02200317    4.90999985    3.07999992
   16.08889008  134.53900146    4.90999985    3.07999992
   16.09222221  124.29299927    4.90999985    3.07999992
   16.09472275  125.21499634    4.90999985    3.05999994
   16.09583473  114.13200378    4.90999985    3.05999994
   16.09889030  119.64199829    4.90999985    3.05999994
   16.10472298  119.64199829    4.90999985    3.07999992
   16.10888863  123.44899750    4.90999985    3.07999992
   16.11194420  127.16999817    4.90999985    3.05999994
   16.11527824  122.43199921    4.90999985    3.07999992
   16.11861038  119.66600037    4.90999985    3.05999994
   16.12166595  120.83899689    4.90999985    3.07999992
   16.12500000  134.70599365    4.90999985    3.07999992
   16.12805557  124.29100037    4.90999985    3.05999994
   16.12861061  125.16200256    4.90999985    3.05999994
   16.13166618  134.82800293    4.90999985    3.07999992
   16.13500023  122.32399750    4.90999985    3.05999994
   16.13805580  124.43099976    4.90999985    3.07999992
   16.14138794  123.36799622    4.90999985    3.05999994
   16.14749908  123.36799622    4.90999985    3.07999992
   16.15166664  134.80900574    4.90999985    3.07999992
   16.15499878  133.34300232    4.90999985    3.05999994
   16.15805435  125.91300201    4.90999985    3.07999992
   16.16138840  132.92900085    4.90999985    3.05999994
   16.16194344  123.51899719    4.90999985    3.05999994
   16.16499901  123.09300232    4.90999985    3.05999994
   16.16833305  126.27899933    4.90999985    3.07999992
   16.17138863  116.33999634    0.09000000    0.52999997
   16.17472076  130.26199341    0.07000000    0.38000000
   16.17805481  125.16600037    0.05000000    0.09000000
   16.18111038  122.12899780    0.05000000    0.09000000
   16.18444443  125.29799652    0.05000000    0.09000000
   16.19055557  125.29799652    0.05000000    0.09000000
   16.19444275  119.98500061    0.05000000    0.09000000
   16.19499969  122.10500336    0.05000000    0.09000000
   16.19833183  134.07499695    0.05000000    0.09000000
   16.20166779  124.93399811    0.05000000    0.09000000
   16.20472336  140.52600098    0.05000000    0.09000000
   16.20805550  122.70400238    0.05000000    0.09000000
   16.21111107  132.11300659    0.05000000    0.09000000
   16.21444511  126.73000336    0.05000000    0.09000000
   16.21777916  120.66400146    0.05000000    0.09000000
   16.22083473  122.97699738    0.05000000    0.09000000
   16.22416687  125.52700043    0.05000000    0.09000000
   16.22722244  120.69999695    0.05000000    0.09000000
   16.22833443  126.11699677    0.05000000    0.09000000
   16.23333359  126.11699677    0.05000000    0.09000000
   16.23750114  130.57600403    0.05000000    0.09000000
   16.24055672  124.34700012    0.05000000    0.09000000
   16.24388885  127.48200226    0.05000000    0.09000000
   16.24694443  120.79299927    0.05000000    0.09000000
   16.25027847  119.32499695    0.05000000    0.09000000
   16.25361061  133.77999878    0.05000000    0.09000000
   16.25666618  122.62000275    0.05000000    0.09000000
   16.26000023  123.69200134    0.05000000    0.09000000
   16.26166725  119.32399750    0.05000000    0.09000000
   16.26361084  123.30000305    0.05000000    0.09000000
   16.26694489  120.87799835    0.05000000    0.09000000
   16.27000046  120.94699860    0.05000000    0.09000000
   16.27611160  120.94699860    0.05000000    0.09000000
   16.28027725  123.31999969    0.05000000    0.09000000
   16.28361130  118.46099854    0.05000000    0.09000000
   16.28666687  125.58599854    0.05000000    0.09000000
   16.28999901  129.28199768    0.05000000    0.09000000
   16.29333305  123.58399963    0.05000000    0.09000000
   16.29500008  120.18699646    0.05000000    0.09000000
   16.29694366  122.43900299    0.05000000    0.09000000
   16.29999924  120.80100250    0.05000000    0.09000000
   16.30333328  120.48500061    0.05000000    0.09000000
   16.30666542  122.72499847    0.05000000    0.09000000
   16.30972099  131.95399475    0.05000000    0.09000000
   16.31305504  122.54399872    0.05000000    0.09000000
   16.31888962  122.54399872    0.05000000    0.09000000
   16.32305717  121.51300049    0.05000000    0.09000000
   16.32638931  137.81199646    0.05000000    0.09000000
   16.32833481  123.34200287    0.05000000    0.09000000
   16.33000183  130.53599548    0.05000000    0.09000000
   16.33333397  134.52999878    0.05000000    0.09000000
   16.33638954  135.70100403    0.05000000    0.09000000
   16.33972359  122.91899872    0.05000000    0.09000000
   16.34277916  133.75100708    0.05000000    0.09000000
   16.34611130  127.37100220    0.05000000    0.09000000
   16.34944534  123.54699707    0.05000000    0.09000000
   16.35250092  123.03900146    0.05000000    0.09000000
   16.35583305  125.10500336    0.05000000    0.09000000
   16.36194420  125.10500336    0.05000000    0.09000000
   16.36583328  121.98400116    0.05000000    0.09000000
   16.36916733  126.22000122    0.05000000    0.09000000
   16.37249947  124.97899628    0.05000000    0.09000000
   16.37555504  123.75199890    0.05000000    0.09000000
   16.37888908  137.92700195    0.05000000    0.09000000
   16.38194466  130.55099487    0.05000000    0.09000000
   16.38527679  127.91400146    0.05000000    0.09000000
   16.38861084  122.61900330    0.05000000    0.09000000
   16.39166641  123.44400024    0.05000000    0.09000000
   16.39500046  124.28299713    0.05000000    0.09000000
   16.39555550  122.12300110    0.05000000    0.09000000
   16.39861107  119.84200287    0.05000000    0.09000000
   16.40472221  119.84200287    0.05000000    0.09000000
   16.40888786  119.72299957    0.05000000    0.09000000
   16.41194344  120.51999664    0.05000000    0.09000000
   16.41527748  122.05300140    0.05000000    0.09000000
   16.41833305  119.97899628    0.05000000    0.09000000
   16.42166519  118.06700134    0.05000000    0.09000000
   16.42499924  126.56999969    0.05000000    0.09000000
   16.42805481  134.02999878    0.05000000    0.09000000
   16.42888832  128.16000366    0.05000000    0.09000000
   16.43166542  118.07900238    0.05000000    0.09000000
   16.43499947  122.41400146    0.05000000    0.09000000
   16.43805504  125.74800110    0.05000000    0.09000000
   16.44138718  128.40400696    0.05000000    0.09000000
   16.44749832  128.40400696    0.05000000    0.09000000
   16.45166779  124.43000031    0.05000000    0.09000000
   16.45472336  125.04699707    0.05000000    0.09000000
   16.45805550  123.16899872    0.05000000    0.09000000
   16.46138954  127.93900299    0.05000000    0.09000000
   16.46222305  123.56900024    0.05000000    0.09000000
   16.46472359  120.66600037    0.05000000    0.09000000
   16.46805573  127.63600159    0.05000000    0.09000000
   16.47138977  126.73999786    0.05000000    0.09000000
   16.47444534  129.69599915    0.05000000    0.09000000
   16.47777748  123.37000275    0.05000000    0.09000000
   16.48083305  129.55099487    0.05000000    0.09000000
   16.48416710  122.11799622    0.05000000    0.09000000
   16.49027824  122.11799622    0.05000000    0.09000000
   16.49444389  127.49700165    0.05000000    0.09000000
   16.49555588  132.85200500    0.05000000    0.09000000
   16.49805641  125.18000031    0.05000000    0.09000000
   16.50138855  119.58699799    0.05000000    0.09000000
   16.50444412  119.14099884    0.05000000    0.09000000
   16.50777817  121.83799744    0.05000000    0.09000000
   16.51111031  131.44999695    0.05000000    0.09000000
   16.51416588  124.57399750    0.05000000    0.09000000
   16.51749992  125.71399689    0.05000000    0.09000000
   16.52083397  120.86000061    0.05000000    0.09000000
   16.52388954  120.41699982    0.05000000    0.09000000
   16.52722168  122.09300232    0.05000000    0.09000000
   16.54472160  127.66999817    0.05000000    0.09000000
   16.54888916  127.66999817    0.05000000    0.09000000
   16.55305481  120.18499756    0.05000000    0.09000000
   16.55611038  124.64499664    0.05000000    0.09000000
   16.55944443  132.25500488    0.05000000    0.09000000
   16.56277657  120.80500031    0.05000000    0.09000000
   16.56583214  129.58200073    0.05000000    0.09000000
   16.56916809  130.47500610    0.05000000    0.09000000
   16.57222366  138.30299377    0.05000000    0.09000000
   16.57555580  124.94400024    0.05000000    0.09000000
   16.57805634  129.98599243    0.05000000    0.09000000
   16.57916832  131.01800537    0.05000000    0.09000000
   16.58250046  126.60399628    0.05000000    0.09000000
   16.58555603  135.12600708    0.05000000    0.09000000
   16.59166718  135.12600708    0.05000000    0.09000000
   16.59583473  121.71199799    0.05000000    0.09000000
   16.59916687  122.46600342    0.05000000    0.09000000
   16.60222244  125.04499817    0.05000000    0.09000000
   16.60555649  137.60099792    0.05000000    0.09000000
   16.60861206  125.83699799    0.05000000    0.09000000
   16.61138916  129.23399353    0.05000000    0.09000000
   16.61222267  119.37400055    0.05000000    0.09000000
   16.61555672  131.44700623    0.05000000    0.09000000
   16.61861038  124.82800293    0.05000000    0.09000000
   16.62194443  122.11399841    0.05000000    0.09000000
   16.62527847  123.15100098    0.05000000    0.09000000
   16.62861061  123.41799927    0.05000000    0.09000000
   16.63444519  123.41799927    0.05000000    0.09000000
   16.63861084  129.67300415    0.05000000    0.09000000
   16.64194489  125.47799683    0.05000000    0.09000000
   16.64472198  119.52500153    0.05000000    0.09000000
   16.64555550  130.07200623    0.05000000    0.09000000
   16.64888954  139.83900452    0.05000000    0.09000000
   16.65222168  125.00499725    0.05000000    0.09000000
   16.65527725  132.23800659    0.05000000    0.09000000
   16.65861130  148.03100586    0.05000000    0.09000000
   16.66166687  134.36500549    0.05000000    0.09000000
   16.66499901  121.06199646    0.05000000    0.09000000
   16.66833305  140.68400574    0.05000000    0.09000000
   16.67138863  144.13900757    0.05000000    0.09000000
   16.67749977  144.13900757    0.05000000    0.09000000
   16.68166542  131.42999268    0.05000000    0.09000000
   16.68472099  136.61599731    0.05000000    0.09000000
   16.68805504  132.04100037    0.05000000    0.09000000
   16.69111061  134.51400757    0.05000000    0.09000000
   16.69444275  144.53900146    0.05000000    0.09000000
   16.69777679  134.87500000    0.05000000    0.09000000
   16.70083427  137.88000488    0.05000000    0.09000000
   16.70416832  128.87699890    0.05000000    0.09000000
   16.70750046  127.57399750    0.05000000    0.09000000
   16.71055603  143.00199890    0.05000000    0.09000000
   16.71250153  119.06600189    0.05000000    0.09000000
   16.71416664  132.82899475    0.05000000    0.09000000
   16.72027779  132.82899475    0.05000000    0.09000000
   16.72444534  121.77500153    0.05000000    0.09000000
   16.72750092  124.80799866    0.05000000    0.09000000
   16.73083305  152.08999634    0.05000000    0.09000000
   16.73416710  137.76600647    0.05000000    0.09000000
   16.73722267  131.15199280    0.05000000    0.09000000
   16.74055672  127.40599823    0.05000000    0.09000000
   16.74361229  127.05899811    0.05000000    0.09000000
   16.74583435  133.47900391    0.05000000    0.09000000
   16.74749947  129.02799988    0.05000000    0.09000000
   16.75055504  128.97399902    0.05000000    0.09000000
   16.75388908  129.44000244    0.05000000    0.09000000
   16.75722313  132.24600220    0.05000000    0.09000000
   16.76305580  132.24600220    0.05000000    0.09000000
   16.76722145  133.32400513    0.05000000    0.09000000
   16.77055550  132.10699463    0.05000000    0.09000000
   16.77361107  126.69499969    0.05000000    0.09000000
   16.77694511  123.89199829    0.05000000    0.09000000
   16.77944374  141.72700500    0.05000000    0.09000000
   16.78055573  133.35899353    0.05000000    0.09000000
   16.78388786  137.80900574    0.05000000    0.09000000
   16.78694344  130.78399658    0.05000000    0.09000000
   16.79027748  125.68399811    0.05000000    0.09000000
   16.79361153  120.48600006    0.05000000    0.09000000
   16.79666710  129.08900452    0.05000000    0.09000000
   16.79999924  127.76599884    0.05000000    0.09000000
   16.80583191  127.76599884    0.05000000    0.09000000
   16.80999947  129.40800476    0.05000000    0.09000000
   16.81277657  136.06300354    0.05000000    0.09000000
   16.81361008  134.61199951    0.05000000    0.09000000
   16.81694603  126.47699738    0.05000000    0.09000000
   16.82000160  124.64199829    0.05000000    0.09000000
   16.82333374  125.18399811    0.05000000    0.09000000
   16.82666779  134.20199585    0.05000000    0.09000000
   16.82972336  123.58300018    0.05000000    0.09000000
   16.83305550  120.19599915    0.05000000    0.09000000
   16.83611107  122.92199707    0.05000000    0.09000000
   16.83944511  124.77999878    0.05000000    0.09000000
   16.84277916  123.40499878    0.05000000    0.09000000
   16.84889030  123.40499878    0.05000000    0.09000000
   16.85277748  120.50299835    0.05000000    0.09000000
   16.85611153  126.84799957    0.05000000    0.09000000
   16.85944557  125.56500244    0.05000000    0.09000000
   16.86250114  125.48200226    0.05000000    0.09000000
   16.86583328  120.64199829    0.05000000    0.09000000
   16.86888885  122.76799774    0.05000000    0.09000000
   16.87222290  124.10299683    0.05000000    0.09000000
   16.87555504  126.47799683    0.05000000    0.09000000
   16.87861061  120.56199646    0.05000000    0.09000000
   16.87972260  123.34700012    0.05000000    0.09000000
   16.88249969  130.69700623    0.05000000    0.09000000
   16.88555527  120.66000366    0.05000000    0.09000000
   16.89166641  120.66000366    0.05000000    0.09000000
   16.89583397  130.17300415    0.05000000    0.09000000
   16.89888954  120.99199677    0.05000000    0.09000000
   16.90222168  126.16999817    0.05000000    0.09000000
   16.90527725  136.34199524    0.05000000    0.09000000
   16.90861130  136.98100281    0.05000000    0.09000000
   16.91194344  121.83399963    0.05000000    0.09000000
   16.91305542  128.51199341    0.05000000    0.09000000
   16.91527748  134.59800720    0.05000000    0.09000000
   16.91860962  122.97899628    0.05000000    0.09000000
   16.92194366  128.08599854    0.05000000    0.09000000
   16.92499924  124.23500061    0.05000000    0.09000000
   16.92833328  124.54199982    0.05000000    0.09000000
   16.93444443  124.54199982    0.05000000    0.09000000
   16.93861008  123.55200195    0.05000000    0.09000000
   16.94194412  119.97499847    0.05000000    0.09000000
   16.94499969  127.23200226    0.05000000    0.09000000
   16.94666672  123.37400055    0.05000000    0.09000000
   16.94861031  129.22000122    0.05000000    0.09000000
   16.95194435  123.60399628    0.05000000    0.09000000
   16.95499992  122.17600250    0.05000000    0.09000000
   16.95833397  124.32399750    0.05000000    0.09000000
   16.96166801  122.83200073    0.05000000    0.09000000
   16.96472359  121.11900330    0.05000000    0.09000000
   16.96805573  130.21899414    0.05000000    0.09000000
   16.97138977  128.32200623    0.05000000    0.09000000
   16.97722244  128.32200623    0.05000000    0.09000000
   16.98139000  130.38200378    0.05000000    0.09000000
   16.98472214  129.26899719    0.05000000    0.09000000
   16.98777771  127.73600006    0.05000000    0.09000000
   16.99111176  119.88200378    0.05000000    0.09000000
   16.99444389  119.59600067    0.05000000    0.09000000
   16.99749947  120.57599640    0.05000000    0.09000000
   17.00083351  124.31600189    0.05000000    0.09000000
   17.00388908  123.00499725    0.05000000    0.09000000
   17.00722313  124.75800323    0.05000000    0.09000000
   17.01055527  125.87999725    0.05000000    0.09000000
   17.01333427  124.86000061    0.05000000    0.09000000
   17.01388931  129.37899780    0.05000000    0.09000000
   17.02027702  129.37899780    0.05000000    0.09000000
   17.02416611  123.87300110    0.05000000    0.09000000
   17.02750015  127.22299957    0.05000000    0.09000000
   17.03083229  123.68199921    0.05000000    0.09000000
   17.03388786  124.88400269    0.05000000    0.09000000
   17.03722191  123.02899933    0.05000000    0.09000000
   17.04027748  130.69000244    0.05000000    0.09000000
   17.04361153  124.34300232    0.05000000    0.09000000
   17.04666710  125.19200134    0.05000000    0.09000000
   17.04722214  120.95899963    0.05000000    0.09000000
   17.05055428  120.65299988    0.05000000    0.09000000
   17.05360985  123.69599915    0.05000000    0.09000000
   17.05694389  122.59700012    0.05000000    0.09000000
   17.06305504  122.59700012    0.05000000    0.09000000
   17.06722260  126.06999969    0.05000000    0.09000000
   17.07027817  119.22499847    0.05000000    0.09000000
   17.07361221  120.79399872    0.05000000    0.09000000
   17.07666779  125.07599640    0.05000000    0.09000000
   17.08000183  129.24299622    0.05000000    0.09000000
   17.08027840  122.23100281    0.05000000    0.09000000
   17.08361244  129.77600098    0.05000000    0.09000000
   17.08694458  125.02500153    0.05000000    0.09000000
   17.09000015  122.62799835    0.05000000    0.09000000
   17.09333420  124.89399719    0.05000000    0.09000000
   17.09638977  123.52799988    0.05000000    0.09000000
   17.09972191  126.55799866    0.05000000    0.09000000
   17.10583305  126.55799866    0.05000000    0.09000000
   17.11000061  130.08200073    0.05000000    0.09000000
   17.11333466  127.73000336    0.05000000    0.09000000
   17.11361122  126.58499908    0.05000000    0.09000000
   17.11694527  123.22399902    0.05000000    0.09000000
   17.12027740  134.36700439    0.05000000    0.09000000
   17.12333298  127.21399689    0.05000000    0.09000000
   17.12666702  129.53199768    0.05000000    0.09000000
   17.12972260  117.51899719    0.05000000    0.09000000
   17.13305473  123.10099792    0.05000000    0.09000000
   17.13638878  123.36399841    0.05000000    0.09000000
   17.13944435  122.69999695    0.05000000    0.09000000
   17.14277840  126.19999695    0.05000000    0.09000000
   17.14861107  126.19999695    0.05000000    0.09000000
   17.15277672  125.98699951    0.05000000    0.09000000
   17.15611076  118.52300262    0.05000000    0.09000000
   17.15916634  122.12300110    0.05000000    0.09000000
   17.16250038  125.97100067    0.05000000    0.09000000
   17.16583252  122.80899811    0.05000000    0.09000000
   17.16888809  128.79200745    0.05000000    0.09000000
   17.17222214  124.96900177    0.05000000    0.09000000
   17.17527771  126.94499969    0.05000000    0.09000000
   17.17860985  122.98500061    0.05000000    0.09000000
   17.18000031  121.81900024    0.05000000    0.09000000
   17.18222237  126.87200165    0.05000000    0.09000000
   17.18555450  115.72799683    0.05000000    0.09000000
   17.19166565  115.72799683    0.05000000    0.09000000
   17.19555473  121.80500031    0.05000000    0.09000000
   17.19888878  129.23100281    0.05000000    0.09000000
   17.20222282  126.72200012    0.05000000    0.09000000
   17.20527840  129.09599304    0.05000000    0.09000000
   17.20861244  126.94400024    0.05000000    0.09000000
   17.21166801  126.85299683    0.05000000    0.09000000
   17.21333504  129.75199890    0.05000000    0.09000000
   17.21527863  123.69499969    0.05000000    0.09000000
   17.21861076  127.09999847    0.05000000    0.09000000
   17.22194481  114.28600311    0.05000000    0.09000000
   17.22500038  121.85600281    0.05000000    0.09000000
   17.22833443  121.81500244    0.05000000    0.09000000
   17.23444557  121.81500244    0.05000000    0.09000000
   17.23861122  125.62799835    0.05000000    0.09000000
   17.24166679  124.00700378    0.05000000    0.09000000
   17.24500084  126.43900299    0.05000000    0.09000000
   17.24694443  123.49299622    0.05000000    0.09000000
   17.24861145  125.26399994    0.05000000    0.09000000
   17.25194359  124.15200043    0.05000000    0.09000000
   17.25499916  128.43400574    0.05000000    0.09000000
   17.25833321  124.44599915    0.05000000    0.09000000
   17.26166725  123.62699890    0.05000000    0.09000000
   17.26472282  122.73500061    0.05000000    0.09000000
   17.26805496  122.53500366    0.05000000    0.09000000
   17.27111053  122.43499756    0.05000000    0.09000000
   17.27722168  122.43499756    0.05000000    0.09000000
   17.28138924  128.41600037    0.05000000    0.09000000
   17.28472137  128.92199707    0.05000000    0.09000000
   17.28777695  131.41700745    0.05000000    0.09000000
   17.29111099  124.35900116    0.05000000    0.09000000
   17.29416656  136.71299744    0.05000000    0.09000000
   17.29749870  130.26600647    0.05000000    0.09000000
   17.30055428  125.71199799    0.05000000    0.09000000
   17.30388832  123.26000214    0.05000000    0.09000000
   17.30722237  125.31800079    0.05000000    0.09000000
   17.31027794  130.33500671    0.05000000    0.09000000
   17.31333351  127.50800323    0.05000000    0.09000000
   17.31388855  127.07099915    0.05000000    0.09000000
   17.32000160  127.07099915    0.05000000    0.09000000
   17.32416725  120.84400177    0.05000000    0.09000000
   17.32750130  129.67599487    0.05000000    0.09000000
   17.33055687  127.84700012    0.05000000    0.09000000
   17.33388901  117.74299622    0.05000000    0.09000000
   17.33722305  127.87899780    0.05000000    0.09000000
   17.34027863  123.32299805    0.05000000    0.09000000
   17.34361267  126.80899811    0.05000000    0.09000000
   17.34666824  125.81099701    0.05000000    0.09000000
   17.34722328  127.14099884    0.05000000    0.09000000
   17.35055542  127.91600037    0.05000000    0.09000000
   17.35361099  132.69599915    0.05000000    0.09000000
   17.35694504  126.91100311    0.05000000    0.09000000
   17.36277771  126.91100311    0.05000000    0.09000000
   17.36694527  129.35200500    0.05000000    0.09000000
   17.37027740  124.67900085    0.05000000    0.09000000
   17.37333298  129.39599609    0.05000000    0.09000000
   17.37666702  125.65699768    0.05000000    0.09000000
   17.38000107  125.05100250    0.05000000    0.09000000
   17.38055611  124.13400269    0.05000000    0.09000000
   17.38361168  131.23800659    0.05000000    0.09000000
   17.38694382  130.40199280    0.05000000    0.09000000
   17.38999939  122.48200226    0.05000000    0.09000000
   17.39333344  131.01400757    0.05000000    0.09000000
   17.39666748  126.56099701    0.05000000    0.09000000
   17.39972115  132.66499329    0.05000000    0.09000000
   17.40583229  132.66499329    0.05000000    0.09000000
   17.40972137  127.16699982    0.05000000    0.09000000
   17.41305542  126.39499664    0.05000000    0.09000000
   17.41388893  121.12000275    0.05000000    0.09000000
   17.41666603  122.66799927    0.05000000    0.09000000
   17.42000008  128.65400696    0.05000000    0.09000000
   17.42305565  126.57499695    0.05000000    0.09000000
   17.42638779  129.58900452    0.05000000    0.09000000
   17.42972183  138.61999512    0.05000000    0.09000000
   17.43277740  129.63999939    0.05000000    0.09000000
   17.43610954  129.75500488    0.05000000    0.09000000
   17.43916512  126.31199646    0.05000000    0.09000000
   17.44249916  125.78199768    0.05000000    0.09000000
   17.44861031  125.78199768    0.05000000    0.09000000
   17.45277786  128.11000061    0.05000000    0.09000000
   17.45583344  127.77200317    0.05000000    0.09000000
   17.45916748  124.16600037    0.05000000    0.09000000
   17.46250153  124.39499664    0.05000000    0.09000000
   17.46555710  121.68800354    0.05000000    0.09000000
   17.46888924  127.19300079    0.05000000    0.09000000
   17.47194481  124.87699890    0.05000000    0.09000000
   17.47527885  132.44799805    0.05000000    0.09000000
   17.47861099  121.97000122    0.05000000    0.09000000
   17.48055649  128.13400269    0.05000000    0.09000000
   17.48222351  123.36299896    0.05000000    0.09000000
   17.48555565  126.29000092    0.05000000    0.09000000
   17.49138832  126.29000092    0.05000000    0.09000000
   17.49555588  126.02799988    0.05000000    0.09000000
   17.49888992  131.99899292    0.05000000    0.09000000
   17.50194359  131.23500061    0.05000000    0.09000000
   17.50527763  120.99800110    0.05000000    0.09000000
   17.50833321  121.76100159    0.05000000    0.09000000
   17.51166725  124.00900269    0.05000000    0.09000000
   17.51388931  126.05100250    0.05000000    0.09000000
   17.51527786  130.08900452    0.05000000    0.09000000
   17.51861000  128.78700256    0.05000000    0.09000000
   17.52166557  125.81600189    0.05000000    0.09000000
   17.52499962  126.19899750    0.05000000    0.09000000
   17.52833366  122.38300323    0.05000000    0.09000000
   17.53416634  122.38300323    0.05000000    0.09000000
   17.53833199  133.63499451    0.05000000    0.09000000
   17.54166603  125.35500336    0.05000000    0.09000000
   17.54472160  122.98000336    0.05000000    0.09000000
   17.56194305  128.90800476    0.05000000    0.09000000
   17.56499863  123.52999878    0.05000000    0.09000000
   17.56805611  132.00399780    0.05000000    0.09000000
   17.57139015  125.26999664    0.05000000    0.09000000
   17.57722282  125.26999664    0.05000000    0.09000000
   17.58139038  126.58499908    0.05000000    0.09000000
   17.58472252  138.46299744    0.05000000    0.09000000
   17.58777809  126.89900208    0.05000000    0.09000000
   17.59111214  127.31700134    0.05000000    0.09000000
   17.59444427  125.52300262    0.05000000    0.09000000
   17.59527779  124.11000061    0.05000000    0.09000000
   17.59777832  127.13300323    0.05000000    0.09000000
   17.60111237  128.45199585    0.05000000    0.09000000
   17.60416794  123.70099640    0.05000000    0.09000000
   17.60750008  125.75399780    0.05000000    0.09000000
   17.61083412  119.53600311    0.05000000    0.09000000
   17.61388969  124.15000153    0.05000000    0.09000000
   17.62000084  124.15000153    0.05000000    0.09000000
   17.62416649  122.54599762    0.05000000    0.09000000
   17.62750053  120.76499939    0.05000000    0.09000000
   17.62861061  125.31099701    0.05000000    0.09000000
   17.63111115  127.77600098    0.05000000    0.09000000
   17.63444519  126.89199829    0.05000000    0.09000000
   17.63750076  124.45600128    0.05000000    0.09000000
   17.64083290  130.51100159    0.05000000    0.09000000
   17.64388847  120.01100159    0.05000000    0.09000000
   17.64722252  131.62399292    0.05000000    0.09000000
   17.65055466  124.69400024    0.05000000    0.09000000
   17.65361023  136.15699768    0.05000000    0.09000000
   17.65694427  129.19299316    0.05000000    0.09000000
   17.66305542  129.19299316    0.05000000    0.09000000
   17.66722107  134.42399597    0.05000000    0.09000000
   17.67027664  133.72999573    0.05000000    0.09000000
   17.67361069  127.25299835    0.05000000    0.09000000
   17.67666626  133.28900146    0.05000000    0.09000000
   17.68000031  121.49400330    0.05000000    0.09000000
   17.68333244  122.78500366    0.05000000    0.09000000
   17.68638802  123.36199951    0.05000000    0.09000000
   17.68972206  125.52500153    0.05000000    0.09000000
   17.69277763  135.16900635    0.05000000    0.09000000
   17.69527626  126.66500092    0.05000000    0.09000000
   17.69638824  131.09399414    0.05000000    0.09000000
   17.69972038  124.01499939    0.05000000    0.09000000
   17.70583344  124.01499939    0.05000000    0.09000000
   17.71000099  123.88999939    0.05000000    0.09000000
   17.71305656  124.27600098    0.05000000    0.09000000
   17.71638870  123.90399933    0.05000000    0.09000000
   17.71972275  134.78100586    0.05000000    0.09000000
   17.72277832  129.03500366    0.05000000    0.09000000
   17.72611237  123.22799683    0.05000000    0.09000000
   17.72861099  124.85399628    0.05000000    0.09000000
   17.72972298  118.99199677    0.05000000    0.09000000
   17.73305511  127.10399628    0.05000000    0.09000000
   17.73611069  123.72899628    0.05000000    0.09000000
   17.73944473  124.61199951    0.05000000    0.09000000
   17.74277878  125.34300232    0.05000000    0.09000000
   17.74861145  125.34300232    0.05000000    0.09000000
   17.75277710  121.02500153    0.05000000    0.09000000
   17.75611115  132.46400452    0.05000000    0.09000000
   17.75916672  132.01699829    0.05000000    0.09000000
   17.76194382  125.75599670    0.05000000    0.09000000
   17.76277733  133.37300110    0.05000000    0.09000000
   17.76611137  131.72500610    0.05000000    0.09000000
   17.76916695  134.96800232    0.05000000    0.09000000
   17.77249908  129.26400757    0.05000000    0.09000000
   17.77583313  124.70300293    0.05000000    0.09000000
   17.77888870  137.70100403    0.05000000    0.09000000
   17.78222275  128.31599426    0.05000000    0.09000000
   17.78527641  130.91999817    0.05000000    0.09000000
   17.79166603  130.91999817    0.05000000    0.09000000
   17.79555511  125.57700348    0.05000000    0.09000000
   17.79888916  127.46199799    0.05000000    0.09000000
   17.80222130  131.21299744    0.05000000    0.09000000
   17.80527687  132.42999268    0.05000000    0.09000000
   17.80861092  122.26000214    0.05000000    0.09000000
   17.81166649  126.97799683    0.05000000    0.09000000
   17.81499863  125.15200043    0.05000000    0.09000000
   17.81833458  128.18800354    0.05000000    0.09000000
   17.82139015  127.89399719    0.05000000    0.09000000
   17.82472229  126.22100067    0.05000000    0.09000000
   17.82777786  126.73799896    0.05000000    0.09000000
   17.82861137  124.97399902    0.05000000    0.09000000
   17.83444595  124.97399902    0.05000000    0.09000000
   17.83861160  125.33599854    0.05000000    0.09000000
   17.84166718  130.10099792    0.05000000    0.09000000
   17.84500122  124.45099640    0.05000000    0.09000000
   17.84805679  130.50599670    0.05000000    0.09000000
   17.85138893  117.08899689    0.05000000    0.09000000
   17.85472298  130.31199646    0.05000000    0.09000000
   17.85777855  126.15000153    0.05000000    0.09000000
   17.86111069  121.17600250    0.05000000    0.09000000
   17.86194420  122.28600311    0.05000000    0.09000000
   17.86472321  123.72299957    0.05000000    0.09000000
   17.86805534  124.36000061    0.05000000    0.09000000
   17.87111092  133.17199707    0.05000000    0.09000000
   17.87722206  133.17199707    0.05000000    0.09000000
   17.88138962  129.19500732    0.05000000    0.09000000
   17.88444519  128.05499268    0.05000000    0.09000000
   17.88777733  128.92900085    0.05000000    0.09000000
   17.89111137  126.19899750    0.05000000    0.09000000
   17.89416695  135.33500671    0.05000000    0.09000000
   17.89527702  127.26100159    0.05000000    0.09000000
   17.89777756  125.34100342    0.05000000    0.09000000
   17.90111160  126.01399994    0.05000000    0.09000000
   17.90444374  127.23899841    0.05000000    0.09000000
   17.90749931  131.41299438    0.05000000    0.09000000
   17.91083336  138.16799927    0.05000000    0.09000000
   17.91388893  132.79800415    0.05000000    0.09000000
   17.92000008  132.79800415    0.05000000    0.09000000
   17.92416573  123.69200134    0.05000000    0.09000000
   17.92749977  124.01699829    0.05000000    0.09000000
   17.92860985  122.87200165    0.05000000    0.09000000
   17.93083191  131.15299988    0.05000000    0.09000000
   17.93416595  131.30299377    0.05000000    0.09000000
   17.93722153  127.33799744    0.05000000    0.09000000
   17.94055557  129.50000000    0.05000000    0.09000000
   17.94388771  119.58499908    0.05000000    0.09000000
   17.94694328  133.88499451    0.05000000    0.09000000
   17.95027924  126.80500031    0.05000000    0.09000000
   17.95333481  128.13999939    0.05000000    0.09000000
   17.95666695  128.30400085    0.05000000    0.09000000
   17.96305656  128.30400085    0.05000000    0.09000000
   17.96694565  126.99800110    0.05000000    0.09000000
   17.97027779  119.47799683    0.05000000    0.09000000
   17.97361183  134.07299805    0.05000000    0.09000000
   17.97666740  131.47099304    0.05000000    0.09000000
   17.98000145  140.73100281    0.05000000    0.09000000
   17.98333359  125.33399963    0.05000000    0.09000000
   17.98638916  129.83500671    0.05000000    0.09000000
   17.98972321  133.55700684    0.05000000    0.09000000
   17.99277878  133.10000610    0.05000000    0.09000000
   17.99527740  140.74200439    0.05000000    0.09000000
   17.99638939  139.93299866    0.05000000    0.09000000
   17.99972153  141.38600159    0.05000000    0.09000000
   18.00583267  141.38600159    0.05000000    0.09000000
   18.01000023  129.15100098    0.05000000    0.09000000
   18.01305580  132.56799316    0.05000000    0.09000000
   18.01638794  129.20500183    0.05000000    0.09000000
   18.01944351  133.74000549    0.05000000    0.09000000
   18.02277756  126.98400116    0.05000000    0.09000000
   18.02611160  124.24199677    0.05000000    0.09000000
   18.02861023  131.30499268    0.05000000    0.09000000
   18.02944374  129.22799683    0.05000000    0.09000000
   18.03277779  124.27500153    0.05000000    0.09000000
   18.03610992  131.86300659    0.05000000    0.09000000
   18.03916550  126.87799835    0.05000000    0.09000000
   18.04249954  126.43499756    0.05000000    0.09000000
   18.04861069  126.43499756    0.05000000    0.09000000
   18.05277634  127.05300140    0.05000000    0.09000000
   18.05583191  123.51499939    0.05000000    0.09000000
   18.05916595  118.92600250    0.05000000    0.09000000
   18.06194305  126.29299927    0.05000000    0.09000000
   18.06277657  130.86199951    0.05000000    0.09000000
   18.06611061  121.55000305    0.05000000    0.09000000
   18.06944466  130.74000549    0.05000000    0.09000000
   18.07250023  128.15600586    0.05000000    0.09000000
   18.07583427  129.84399414    0.05000000    0.09000000
   18.07888985  120.34999847    0.05000000    0.09000000
   18.08222389  131.64900208    0.05000000    0.09000000
   18.08555603  121.58599854    0.05000000    0.09000000
   18.09138870  121.58599854    0.05000000    0.09000000
   18.09555626  130.10400391    0.05000000    0.09000000
   18.09889030  125.52500153    0.05000000    0.09000000
   18.10194397  124.65399933    0.05000000    0.09000000
   18.10527802  129.16400146    0.05000000    0.09000000
   18.10861206  127.74199677    0.05000000    0.09000000
   18.11166763  130.49099731    0.05000000    0.09000000
   18.11499977  121.85800171    0.05000000    0.09000000
   18.11805534  132.84300232    0.05000000    0.09000000
   18.12138939  129.04100037    0.05000000    0.09000000
   18.12472153  120.20200348    0.05000000    0.09000000
   18.12777710  128.10699463    0.05000000    0.09000000
   18.12861061  129.44799805    0.05000000    0.09000000
   18.13444519  129.44799805    0.05000000    0.09000000
   18.13833237  132.86999512    0.05000000    0.09000000
   18.14166641  121.88099670    0.05000000    0.09000000
   18.14500046  124.55000305    0.05000000    0.09000000
   18.14805603  129.63000488    0.05000000    0.09000000
   18.15138817  130.45199585    0.05000000    0.09000000
   18.15472221  126.66500092    0.05000000    0.09000000
   18.15777779  128.91999817    0.05000000    0.09000000
   18.16110992  125.45500183    0.05000000    0.09000000
   18.16194344  120.32299805    0.05000000    0.09000000
   18.16444397  117.96800232    0.05000000    0.09000000
   18.16777802  126.25900269    0.05000000    0.09000000
   18.17111015  124.54599762    0.05000000    0.09000000
   18.17722130  124.54599762    0.05000000    0.09000000
   18.18138885  123.53299713    0.05000000    0.09000000
   18.18444443  124.69100189    0.05000000    0.09000000
   18.18777657  124.12999725    0.05000000    0.09000000
   18.19083214  131.60000610    0.05000000    0.09000000
   18.19416618  126.07700348    0.05000000    0.09000000
   18.19527626  124.29900360    0.05000000    0.09000000
   18.19777679  130.06300354    0.05000000    0.09000000
   18.20111275  130.11099243    0.05000000    0.09000000
   18.20444489  120.44400024    0.05000000    0.09000000
   18.20750046  131.35099792    0.05000000    0.09000000
   18.21083450  122.63700104    0.05000000    0.09000000
   18.21389008  131.56300354    0.05000000    0.09000000
   18.22000122  131.56300354    0.05000000    0.09000000
   18.22416687  135.18299866    0.05000000    0.09000000
   18.22722244  130.58000183    0.05000000    0.09000000
   18.22861099  136.62300110    0.05000000    0.09000000
   18.23083305  126.01399994    0.05000000    0.09000000
   18.23416710  133.47799683    0.05000000    0.09000000
   18.23750114  128.55900574    0.05000000    0.09000000
   18.24055672  149.38099670    0.05000000    0.09000000
   18.24388885  136.71200562    0.05000000    0.09000000
   18.24722290  123.61100006    0.05000000    0.09000000
   18.25027847  153.08999634    0.05000000    0.09000000
   18.25361061  127.96399689    0.05000000    0.09000000
   18.25694466  129.94299316    0.05000000    0.09000000
   18.26277733  129.94299316    0.05000000    0.09000000
   18.26694489  135.89799500    0.05000000    0.09000000
   18.27027702  138.29899597    0.05000000    0.09000000
   18.27333260  130.02600098    0.05000000    0.09000000
   18.27666664  126.47599792    0.05000000    0.09000000
   18.27972221  121.82700348    0.05000000    0.09000000
   18.28305435  127.08399963    0.05000000    0.09000000
   18.28638840  126.53199768    0.05000000    0.09000000
   18.28944397  127.70700073    0.05000000    0.09000000
   18.29277802  125.95700073    0.05000000    0.09000000
   18.29527664  124.31999969    0.05000000    0.09000000
   18.29638863  124.40399933    0.05000000    0.09000000
   18.29972076  132.24000549    0.05000000    0.09000000
   18.30555534  132.24000549    0.05000000    0.09000000
   18.30972099  127.49900055    0.05000000    0.09000000
   18.31305504  131.41099548    0.05000000    0.09000000
   18.31638718  122.46499634    0.05000000    0.09000000
   18.31944466  131.72200012    0.05000000    0.09000000
   18.32277870  128.45500183    0.05000000    0.09000000
   18.32583427  124.87300110    0.05000000    0.09000000
   18.32861137  130.34899902    0.05000000    0.09000000
   18.32944489  132.52799988    0.05000000    0.09000000
   18.33277893  126.79199982    0.05000000    0.09000000
   18.33611107  135.46899414    0.05000000    0.09000000
   18.33916664  125.37999725    0.05000000    0.09000000
   18.34250069  133.13800049    0.05000000    0.09000000
   18.34861183  133.13800049    0.05000000    0.09000000
   18.35277748  127.02899933    0.05000000    0.09000000
   18.35583305  130.91400146    0.05000000    0.09000000
   18.35916710  129.19999695    0.05000000    0.09000000
   18.36194420  130.14700317    0.05000000    0.09000000
   18.36250114  133.75900269    0.05000000    0.09000000
   18.36583328  132.22399902    0.05000000    0.09000000
   18.36916733  131.92500305    0.05000000    0.09000000
   18.37222290  139.17599487    0.05000000    0.09000000
   18.37555504  141.12199402    0.05000000    0.09000000
   18.37888908  133.40699768    0.05000000    0.09000000
   18.38194466  132.97799683    0.05000000    0.09000000
   18.38527679  137.85099792    0.05000000    0.09000000
   18.39138794  137.85099792    0.05000000    0.09000000
   18.39555550  134.20500183    0.05000000    0.09000000
   18.39888954  134.08700562    0.05000000    0.09000000
   18.40194321  122.85099792    0.05000000    0.09000000
   18.40527725  129.99200439    0.05000000    0.09000000
   18.40833282  128.27699280    0.05000000    0.09000000
   18.41166687  136.86900330    0.05000000    0.09000000
   18.41499901  128.49699402    0.05000000    0.09000000
   18.41805458  131.85800171    0.05000000    0.09000000
   18.42138863  123.81800079    0.05000000    0.09000000
   18.42444420  136.33000183    0.05000000    0.09000000
   18.42777634  134.64799500    0.05000000    0.09000000
   18.42860985  130.98199463    0.05000000    0.09000000
   18.43416595  130.98199463    0.05000000    0.09000000
   18.43833160  128.87899780    0.05000000    0.09000000
   18.44166565  136.27999878    0.05000000    0.09000000
   18.44472122  133.98800659    0.05000000    0.09000000
   18.44805527  136.99400330    0.05000000    0.09000000
   18.45138931  134.40400696    0.05000000    0.09000000
   18.45444489  140.64100647    0.05000000    0.09000000
   18.45777893  139.62600708    0.05000000    0.09000000
   18.46083450  137.91299438    0.05000000    0.09000000
   18.46194458  131.99099731    0.05000000    0.09000000
   18.46472359  138.30900574    0.05000000    0.09000000
   18.46777916  129.93099976    0.05000000    0.09000000
   18.47111130  139.38400269    0.05000000    0.09000000
   18.47722244  139.38400269    0.05000000    0.09000000
   18.48111153  134.58700562    0.05000000    0.09000000
   18.48444557  142.75700378    0.05000000    0.09000000
   18.48777771  145.16799927    0.05000000    0.09000000
   18.49083328  140.26499939    0.05000000    0.09000000
   18.49416733  142.57400513    0.05000000    0.09000000
   18.49527740  136.67599487    0.05000000    0.09000000
   18.49777794  131.64799500    0.05000000    0.09000000
   18.50083351  132.71800232    0.05000000    0.09000000
   18.50416756  137.79100037    0.05000000    0.09000000
   18.50722313  136.75300598    0.05000000    0.09000000
   18.51055527  138.31500244    0.05000000    0.09000000
   18.51388931  143.66400146    0.05000000    0.09000000
   18.52000046  143.66400146    0.05000000    0.09000000
   18.52416611  140.44000244    0.05000000    0.09000000
   18.52722168  135.04299927    0.05000000    0.09000000
   18.52861023  136.77099609    0.05000000    0.09000000
   18.53111076  137.06799316    0.05000000    0.09000000
   18.53416634  135.86900330    0.05000000    0.09000000
   18.53750038  133.42100525    0.05000000    0.09000000
   18.54055595  141.58999634    0.05000000    0.09000000
   18.54388809  136.15899658    0.05000000    0.09000000
   18.54722214  135.52499390    0.05000000    0.09000000
   18.55027771  134.15199280    0.05000000    0.09000000
   18.55360985  137.41099548    0.05000000    0.09000000
   18.55666542  136.66999817    0.05000000    0.09000000
   18.57916832  137.57000732    0.05000000    0.09000000
   18.57944489  138.97500610    0.05000000    0.09000000
   18.58277893  140.74200439    0.05000000    0.09000000
   18.58611107  136.75100708    0.05000000    0.09000000
   18.58916664  136.45500183    0.05000000    0.09000000
   18.59250069  139.96200562    0.05000000    0.09000000
   18.59527779  136.99099731    0.05000000    0.09000000
   18.59611130  138.11000061    0.05000000    0.09000000
   18.59916687  136.80099487    0.05000000    0.09000000
   18.60555649  136.80099487    0.05000000    0.09000000
   18.60972214  139.71499634    0.05000000    0.09000000
   18.61305618  137.81500244    0.05000000    0.09000000
   18.61611176  126.87599945    0.05000000    0.09000000
   18.61944389  136.37500000    0.05000000    0.09000000
   18.62277794  134.60099792    0.05000000    0.09000000
   18.62583351  135.56100464    0.05000000    0.09000000
   18.62861061  141.00799561    0.05000000    0.09000000
   18.62972260  138.05099487    0.05000000    0.09000000
   18.63277817  131.47099304    0.05000000    0.09000000
   18.63611031  140.77600098    0.05000000    0.09000000
   18.63916588  128.42799377    0.05000000    0.09000000
   18.64249992  134.09700012    0.05000000    0.09000000
   18.64861107  134.09700012    0.05000000    0.09000000
   18.65250015  136.82200623    0.05000000    0.09000000
   18.65583229  136.43699646    0.05000000    0.09000000
   18.65916634  128.86099243    0.05000000    0.09000000
   18.66194344  127.18099976    0.05000000    0.09000000
   18.66277695  139.27600098    0.05000000    0.09000000
   18.66583252  137.46600342    0.05000000    0.09000000
   18.66916656  130.09399414    0.05000000    0.09000000
   18.67222214  133.07699585    0.05000000    0.09000000
   18.67555428  125.56099701    0.05000000    0.09000000
   18.67888832  135.46600342    0.05000000    0.09000000
   18.68194389  131.19799805    0.05000000    0.09000000
   18.68527603  135.27200317    0.05000000    0.09000000
   18.69138718  135.27200317    0.05000000    0.09000000
   18.69555473  130.94099426    0.05000000    0.09000000
   18.69861031  128.35400391    0.05000000    0.09000000
   18.70194435  131.40600586    0.05000000    0.09000000
   18.70499992  129.49899292    0.05000000    0.09000000
   18.70833397  131.56500244    0.05000000    0.09000000
   18.71166801  127.03700256    0.05000000    0.09000000
   18.71472359  135.22999573    0.05000000    0.09000000
   18.71805573  129.05700684    0.05000000    0.09000000
   18.72138977  123.05999756    0.05000000    0.09000000
   18.72444534  123.67700195    0.05000000    0.09000000
   18.72777748  135.52499390    0.05000000    0.09000000
   18.72861099  125.49600220    0.05000000    0.09000000
   18.73416710  125.49600220    0.05000000    0.09000000
   18.73833275  131.94900513    0.05000000    0.09000000
   18.74166679  129.21899414    0.05000000    0.09000000
   18.74472237  133.25199890    0.05000000    0.09000000
   18.74805641  129.53799438    0.05000000    0.09000000
   18.75138855  131.31500244    0.05000000    0.09000000
   18.75444412  132.56900024    0.05000000    0.09000000
   18.75777817  132.61599731    0.05000000    0.09000000
   18.76083374  133.56100464    0.05000000    0.09000000
   18.76194382  141.25199890    0.05000000    0.09000000
   18.76472282  130.80499268    0.05000000    0.09000000
   18.76777840  129.12899780    0.05000000    0.09000000
   18.77111053  134.63299561    0.05000000    0.09000000
   18.77694511  134.63299561    0.05000000    0.09000000
   18.78111076  127.20999908    0.05000000    0.09000000
   18.78444481  133.21699524    0.05000000    0.09000000
   18.78750038  134.41999817    0.05000000    0.09000000
   18.79083252  130.22399902    0.05000000    0.09000000
   18.79416656  130.77999878    0.05000000    0.09000000
   18.79527664  130.61000061    0.05000000    0.09000000
   18.79777718  129.08299255    0.05000000    0.09000000
   18.80083275  136.67199707    0.05000000    0.09000000
   18.80416679  133.14500427    0.05000000    0.09000000
   18.80722237  127.93399811    0.05000000    0.09000000
   18.81055450  132.63200378    0.05000000    0.09000000
   18.81388855  132.84899902    0.05000000    0.09000000
   18.82000160  132.84899902    0.05000000    0.09000000
   18.82389069  130.28100586    0.05000000    0.09000000
   18.82722282  127.97899628    0.05000000    0.09000000
   18.82861137  133.52099609    0.05000000    0.09000000
   18.83083344  122.77200317    0.05000000    0.09000000
   18.83388901  135.74200439    0.05000000    0.09000000
   18.83722305  130.08599854    0.05000000    0.09000000
   18.84027863  126.96199799    0.05000000    0.09000000
   18.84361267  132.70700073    0.05000000    0.09000000
   18.84694481  136.35499573    0.05000000    0.09000000
   18.85000038  131.82099915    0.05000000    0.09000000
   18.85333443  128.48500061    0.05000000    0.09000000
   18.85639000  133.19599915    0.05000000    0.09000000
   18.86277771  133.19599915    0.05000000    0.09000000
   18.86694527  130.41000366    0.05000000    0.09000000
   18.87000084  133.64300537    0.05000000    0.09000000
   18.87333298  125.86000061    0.05000000    0.09000000
   18.87666702  134.34300232    0.05000000    0.09000000
   18.87972260  136.36999512    0.05000000    0.09000000
   18.88305473  130.31199646    0.05000000    0.09000000
   18.88611031  132.16299438    0.05000000    0.09000000
   18.88944435  133.45599365    0.05000000    0.09000000
   18.89277840  124.97100067    0.05000000    0.09000000
   18.89527702  136.55999756    0.05000000    0.09000000
   18.89638901  131.05999756    0.05000000    0.09000000
   18.89944458  126.40699768    0.05000000    0.09000000
   18.90555573  126.40699768    0.05000000    0.09000000
   18.90972137  135.13999939    0.05000000    0.09000000
   18.91305542  129.08799744    0.05000000    0.09000000
   18.91611099  130.08900452    0.05000000    0.09000000
   18.91944313  132.34500122    0.05000000    0.09000000
   18.92249870  128.00999451    0.05000000    0.09000000
   18.92583275  129.78599548    0.05000000    0.09000000
   18.92860985  138.38400269    0.05000000    0.09000000
   18.92944336  131.16099548    0.05000000    0.09000000
   18.93249893  129.72300720    0.05000000    0.09000000
   18.93583298  129.58700562    0.05000000    0.09000000
   18.93916512  132.41099548    0.05000000    0.09000000
   18.94222069  129.22999573    0.05000000    0.09000000
   18.94833183  129.22999573    0.05000000    0.09000000
   18.95250130  138.88999939    0.05000000    0.09000000
   18.95583344  136.44999695    0.05000000    0.09000000
   18.95888901  126.19200134    0.05000000    0.09000000
   18.96194458  132.56500244    0.05000000    0.09000000
   18.96277809  126.20800018    0.05000000    0.09000000
   18.96583366  124.26999664    0.05000000    0.09000000
   18.96916771  126.30200195    0.05000000    0.09000000
   18.97249985  127.67700195    0.05000000    0.09000000
   18.97555542  128.79200745    0.05000000    0.09000000
   18.97888947  134.54200745    0.05000000    0.09000000
   18.98194504  128.56500244    0.05000000    0.09000000
   18.98527718  127.76399994    0.05000000    0.09000000
   18.99138832  127.76399994    0.05000000    0.09000000
   18.99527740  130.96699524    0.05000000    0.09000000
   18.99861145  130.46800232    0.05000000    0.09000000
   19.00194359  130.38299561    0.05000000    0.09000000
   19.00499916  133.50300598    0.05000000    0.09000000
   19.00833321  139.61799622    0.05000000    0.09000000
   19.01166725  135.42900085    0.05000000    0.09000000
   19.01472282  132.03799438    0.05000000    0.09000000
   19.01805496  132.16499329    0.05000000    0.09000000
   19.02111053  126.55300140    0.05000000    0.09000000
   19.02444458  135.25799561    0.05000000    0.09000000
   19.02777672  130.47700500    0.05000000    0.09000000
   19.02861023  132.03300476    0.05000000    0.09000000
   19.03416634  132.03300476    0.05000000    0.09000000
   19.03833199  132.61000061    0.05000000    0.09000000
   19.04138756  134.10499573    0.05000000    0.09000000
   19.04472160  136.41799927    0.05000000    0.09000000
   19.04805565  136.14100647    0.05000000    0.09000000
   19.05111122  131.51100159    0.05000000    0.09000000
   19.05444336  143.46200562    0.05000000    0.09000000
   19.05749893  137.16600037    0.05000000    0.09000000
   19.06083298  133.01300049    0.05000000    0.09000000
   19.06194305  133.20399475    0.05000000    0.09000000
   19.06444359  132.74200439    0.05000000    0.09000000
   19.06750107  130.69000244    0.05000000    0.09000000
   19.07083511  133.87100220    0.05000000    0.09000000
   19.07694626  133.87100220    0.05000000    0.09000000
   19.08111191  129.39700317    0.05000000    0.09000000
   19.08444595  134.80700684    0.05000000    0.09000000
   19.08750153  130.90299988    0.05000000    0.09000000
   19.09083366  135.12500000    0.05000000    0.09000000
   19.09388924  129.96099854    0.05000000    0.09000000
   19.09527779  135.35400391    0.05000000    0.09000000
   19.09777832  133.85400391    0.05000000    0.09000000
   19.10083389  138.82600403    0.05000000    0.09000000
   19.10416794  132.73899841    0.05000000    0.09000000
   19.10750008  135.46699524    0.05000000    0.09000000
   19.11055565  130.61999512    0.05000000    0.09000000
   19.11388969  148.50399780    0.05000000    0.09000000
   19.11972237  148.50399780    0.05000000    0.09000000
   19.12388992  132.02799988    0.05000000    0.09000000
   19.12722206  139.05099487    0.05000000    0.09000000
   19.12861061  124.27200317    0.05000000    0.09000000
   19.13083267  139.78199768    0.05000000    0.09000000
   19.13388824  132.50599670    0.05000000    0.09000000
   19.13722229  134.35000610    0.05000000    0.09000000
   19.14055634  139.09199524    0.05000000    0.09000000
   19.14361191  132.59599304    0.05000000    0.09000000
   19.14694405  129.96299744    0.05000000    0.09000000
   19.15027809  148.12600708    0.05000000    0.09000000
   19.15333366  139.69799805    0.05000000    0.09000000
   19.15666580  131.70300293    0.05000000    0.09000000
   19.16277695  131.70300293    0.05000000    0.09000000
   19.16666603  140.27799988    0.05000000    0.09000000
   19.17000008  137.27999878    0.05000000    0.09000000
   19.17333221  134.17799377    0.05000000    0.09000000
   19.17638779  132.18800354    0.05000000    0.09000000
   19.17972183  136.22500610    0.05000000    0.09000000
   19.18277740  135.26499939    0.05000000    0.09000000
   19.18610954  141.88099670    0.05000000    0.09000000
   19.18944359  126.01499939    0.05000000    0.09000000
   19.19249916  129.51400757    0.05000000    0.09000000
   19.19527626  129.53900146    0.05000000    0.09000000
   19.19610977  133.50000000    0.05000000    0.09000000
   19.19916534  132.20199585    0.05000000    0.09000000
   19.20555687  132.20199585    0.05000000    0.09000000
   19.20972252  125.61799622    0.05000000    0.09000000
   19.21277809  137.79699707    0.05000000    0.09000000
   19.21611214  129.98699951    0.05000000    0.09000000
   19.21944427  135.81500244    0.05000000    0.09000000
   19.22249985  136.75999451    0.05000000    0.09000000
   19.22583389  136.86300659    0.05000000    0.09000000
   19.22861099  138.71499634    0.05000000    0.09000000
   19.22944450  126.37100220    0.05000000    0.09000000
   19.23250008  128.48199463    0.05000000    0.09000000
   19.23583412  129.67999268    0.05000000    0.09000000
   19.23916626  128.77000427    0.05000000    0.09000000
   19.24222183  134.11799622    0.05000000    0.09000000
   19.24833298  134.11799622    0.05000000    0.09000000
   19.25250053  135.93099976    0.05000000    0.09000000
   19.25583267  133.28900146    0.05000000    0.09000000
   19.25888824  134.52000427    0.05000000    0.09000000
   19.26194382  129.64199829    0.05000000    0.09000000
   19.26250076  132.84300232    0.05000000    0.09000000
   19.26555634  137.48699951    0.05000000    0.09000000
   19.26888847  141.80799866    0.05000000    0.09000000
   19.27222252  140.26300049    0.05000000    0.09000000
   19.27527809  132.64799500    0.05000000    0.09000000
   19.27861023  141.54400635    0.05000000    0.09000000
   19.28194427  140.08799744    0.05000000    0.09000000
   19.28499985  142.27699280    0.05000000    0.09000000
   19.29111099  142.27699280    0.05000000    0.09000000
   19.29527664  136.00000000    0.05000000    0.09000000
   19.29861069  138.63800049    0.05000000    0.09000000
   19.30166626  134.24499512    0.05000000    0.09000000
   19.30499840  137.24400330    0.05000000    0.09000000
   19.30833244  135.47000122    0.05000000    0.09000000
   19.31138802  134.05799866    0.05000000    0.09000000
   19.31472206  129.59300232    0.05000000    0.09000000
   19.31777954  139.47200012    0.05000000    0.09000000
   19.32111168  132.65499878    0.05000000    0.09000000
   19.32444572  131.23399353    0.05000000    0.09000000
   19.32750130  133.89100647    0.05000000    0.09000000
   19.32861137  134.03500366    0.05000000    0.09000000
   19.33416748  134.03500366    0.05000000    0.09000000
   19.33833313  140.95300293    0.05000000    0.09000000
   19.34138870  147.17700195    0.05000000    0.09000000
   19.34472275  149.44799805    0.05000000    0.09000000
   19.34777832  143.95300293    0.05000000    0.09000000
   19.35111237  140.93499756    0.05000000    0.09000000
   19.35444450  133.70199585    0.05000000    0.09000000
   19.35750008  126.46399689    0.05000000    0.09000000
   19.36083412  139.69200134    0.05000000    0.09000000
   19.36194420  137.45799255    0.05000000    0.09000000
   19.36444473  137.32200623    0.05000000    0.09000000
   19.36777878  133.08200073    0.05000000    0.09000000
   19.37083435  139.88299561    0.05000000    0.09000000
   19.37694550  139.88299561    0.05000000    0.09000000
   19.38111115  137.44900513    0.05000000    0.09000000
   19.38416672  147.03300476    0.05000000    0.09000000
   19.38750076  147.01400757    0.05000000    0.09000000
   19.39083290  138.93499756    0.05000000    0.09000000
   19.39388847  142.35899353    0.05000000    0.09000000
   19.39527702  138.01899719    0.05000000    0.09000000
   19.39749908  138.19999695    0.05000000    0.09000000
   19.40083313  149.06100464    0.05000000    0.09000000
   19.40388870  134.92399597    0.05000000    0.09000000
   19.40722275  140.44099426    0.05000000    0.09000000
   19.41027832  137.22000122    0.05000000    0.09000000
   19.41361046  141.48800659    0.05000000    0.09000000
   19.41972160  141.48800659    0.05000000    0.09000000
   19.42388916  142.61900330    0.05000000    0.09000000
   19.42722130  140.35899353    0.05000000    0.09000000
   19.42860985  137.77400208    0.05000000    0.09000000
   19.43083191  135.03100586    0.05000000    0.09000000
   19.43416595  133.79800415    0.05000000    0.09000000
   19.43722153  149.69099426    0.05000000    0.09000000
   19.44055557  136.45500183    0.05000000    0.09000000
   19.44361115  142.22300720    0.05000000    0.09000000
   19.44694328  136.90499878    0.05000000    0.09000000
   19.45027924  143.59300232    0.05000000    0.09000000
   19.45333481  147.26199341    0.05000000    0.09000000
   19.45666695  137.23800659    0.05000000    0.09000000
   19.46250153  137.23800659    0.05000000    0.09000000
   19.46666718  133.65100098    0.05000000    0.09000000
   19.47000122  137.42399597    0.05000000    0.09000000
   19.47305679  146.95300293    0.05000000    0.09000000
   19.47638893  149.49200439    0.05000000    0.09000000
   19.47972298  151.16900635    0.05000000    0.09000000
   19.48277855  158.18200684    0.05000000    0.09000000
   19.48611069  149.21099854    0.05000000    0.09000000
   19.48944473  154.43499756    0.05000000    0.09000000
   19.49250031  142.38000488    0.05000000    0.09000000
   19.49527740  144.45700073    0.05000000    0.09000000
   19.49611092  140.56799316    0.05000000    0.09000000
   19.49944496  136.53700256    0.05000000    0.09000000
   19.50555611  136.53700256    0.05000000    0.09000000
   19.50972176  144.09500122    0.05000000    0.09000000
   19.51277733  147.03300476    0.05000000    0.09000000
   19.51611137  135.02799988    0.05000000    0.09000000
   19.51944351  139.76300049    0.05000000    0.09000000
   19.52249908  139.68499756    0.05000000    0.09000000
   19.52583313  137.35800171    0.05000000    0.09000000
   19.52861023  145.12399292    0.05000000    0.09000000
   19.52944374  143.34899902    0.05000000    0.09000000
   19.53277779  147.10400391    0.05000000    0.09000000
   19.53583336  149.91099548    0.05000000    0.09000000
   19.53916550  133.34899902    0.05000000    0.09000000
   19.54222107  135.08500671    0.05000000    0.09000000
   19.54833221  135.08500671    0.05000000    0.09000000
   19.55249977  139.18499756    0.05000000    0.09000000
   19.55583191  134.12300110    0.05000000    0.09000000
   19.55888748  139.67999268    0.05000000    0.09000000
   19.56194305  138.46200562    0.05000000    0.09000000
   19.56250000  137.50300598    0.05000000    0.09000000
   19.56583214  136.87699890    0.05000000    0.09000000
   19.56888962  137.76400757    0.05000000    0.09000000
   19.57222366  149.29800415    0.05000000    0.09000000
   19.57527924  140.20700073    0.05000000    0.09000000
   19.57861137  141.42599487    0.05000000    0.09000000
   19.59972191  141.42599487    0.05000000    0.09000000
   19.60388947  146.45700073    0.05000000    0.09000000
   19.60722351  140.77299500    0.05000000    0.09000000
   19.61027908  140.86399841    0.05000000    0.09000000
   19.61361122  143.90800476    0.05000000    0.09000000
   19.61694527  148.64500427    0.05000000    0.09000000
   19.62000084  147.35000610    0.05000000    0.09000000
   19.62333298  138.84500122    0.05000000    0.09000000
   19.62638855  150.60099792    0.05000000    0.09000000
   19.62972260  153.02999878    0.05000000    0.09000000
   19.63055611  142.13800049    0.05000000    0.09000000
   19.63333321  134.47399902    0.05000000    0.09000000
   19.63638878  149.40199280    0.05000000    0.09000000
   19.64249992  149.40199280    0.05000000    0.09000000
   19.64666748  138.38400269    0.05000000    0.09000000
   19.64999962  141.86999512    0.05000000    0.09000000
   19.65305519  149.29400635    0.05000000    0.09000000
   19.65638924  144.26600647    0.05000000    0.09000000
   19.65944481  140.77799988    0.05000000    0.09000000
   19.66277695  134.01400757    0.05000000    0.09000000
   19.66388893  154.32600403    0.05000000    0.09000000
   19.66638756  145.26899719    0.05000000    0.09000000
   19.66944313  149.42700195    0.05000000    0.09000000
   19.67277718  140.96600342    0.05000000    0.09000000
   19.67611122  139.00799561    0.05000000    0.09000000
   19.67916679  140.16200256    0.05000000    0.09000000
   19.68527603  140.16200256    0.05000000    0.09000000
   19.68944359  142.74200439    0.05000000    0.09000000
   19.69277763  145.98699951    0.05000000    0.09000000
   19.69610977  134.91099548    0.05000000    0.09000000
   19.69749832  144.14799500    0.05000000    0.09000000
   19.69972038  145.10200500    0.05000000    0.09000000
   19.70277786  143.42500305    0.05000000    0.09000000
   19.70611191  144.05999756    0.05000000    0.09000000
   19.70916748  143.99600220    0.05000000    0.09000000
   19.71250153  143.47999573    0.05000000    0.09000000
   19.71583366  137.54400635    0.05000000    0.09000000
   19.71888924  147.15400696    0.05000000    0.09000000
   19.72222328  147.17300415    0.05000000    0.09000000
   19.72833443  147.17300415    0.05000000    0.09000000
   19.73250008  166.83099365    0.05000000    0.09000000
   19.73555565  165.15800476    0.05000000    0.09000000
   19.73888969  184.91499329    0.05000000    0.09000000
   19.74194527  151.36099243    0.05000000    0.09000000
   19.74527740  160.48399353    0.05000000    0.09000000
   19.74861145  173.67399597    0.05000000    0.09000000
   19.75166702  318.96200562    0.05000000    0.09000000
   19.75499916   -1.00000000    0.05000000    0.09000000
   19.75833321   -1.00000000    0.05000000    0.09000000
   19.76138878   -1.00000000    0.05000000    0.09000000
   19.76499939   -1.00000000    0.05000000    0.09000000
   19.77499962   -1.00000000    0.05000000    0.09000000
   19.77833366   -1.00000000    0.05000000    0.09000000
   19.78166580   -1.00000000    0.05000000    0.09000000
   19.78472137   -1.00000000    0.05000000    0.09000000
   19.78805542   -1.00000000    0.05000000    0.09000000
   19.79111099   -1.00000000    0.05000000    0.09000000
   19.79444313   -1.00000000    0.05000000    0.09000000
   19.79777718   -1.00000000    0.05000000    0.09000000
   19.80111122   -1.00000000    0.05000000    0.09000000
   19.80416679   -1.00000000    0.05000000    0.09000000
   19.80749893   -1.00000000    0.05000000    0.09000000
   19.81805611   -1.00000000    0.05000000    0.09000000
   19.82111168   -1.00000000    0.05000000    0.09000000
   19.82444572   -1.00000000    0.05000000    0.09000000
   19.82750130   -1.00000000    0.05000000    0.09000000
   19.83111191   -1.00000000    0.05000000    0.09000000
   19.83444595   -1.00000000    0.05000000    0.09000000
   19.83777809   -1.00000000    0.05000000    0.09000000
   19.84083366  148.53999329    0.05000000    0.09000000
   19.84416771  137.52699280    0.05000000    0.09000000
   19.84722328  202.11000061    0.05000000    0.09000000
   19.85055542  159.04600525    0.05000000    0.09000000
   19.85666656  159.04600525    0.05000000    0.09000000
   19.86083412  305.25399780    0.05000000    0.09000000
   19.86416626  216.91499329    0.05000000    0.09000000
   19.86472321  234.63099670    0.05000000    0.09000000
   19.86777878  178.50500488    0.05000000    0.09000000
   19.87111092  157.09899902    0.05000000    0.09000000
   19.87416649  153.04899597    0.05000000    0.09000000
   19.87750053  155.83099365    0.05000000    0.09000000
   19.88083267  152.99800110    0.05000000    0.09000000
   19.88388824  145.85099792    0.05000000    0.09000000
   19.88722229  143.73300171    0.05000000    0.09000000
   19.89055634  156.86000061    0.05000000    0.09000000
   19.89361191  142.86900330    0.05000000    0.09000000
   19.89972115  142.86900330    0.05000000    0.09000000
   19.90388870  144.72000122    0.05000000    0.09000000
   19.90694427  148.52299500    0.05000000    0.09000000
   19.91027832  153.34199524    0.05000000    0.09000000
   19.91333389  161.41299438    0.05000000    0.09000000
   19.91666603  146.26300049    0.05000000    0.09000000
   19.92000008  162.12899780    0.05000000    0.09000000
   19.92305565  144.50599670    0.05000000    0.09000000
   19.92638779  151.03799438    0.05000000    0.09000000
   19.92972183  150.94200134    0.05000000    0.09000000
   19.93083191  151.72300720    0.05000000    0.09000000
   19.93333244  148.32099915    0.05000000    0.09000000
   19.93638802  153.17900085    0.05000000    0.09000000
   19.94249916  153.17900085    0.05000000    0.09000000
   19.94666672  147.45399475    0.05000000    0.09000000
   19.94972038  159.64199829    0.05000000    0.09000000
   19.95305634  151.62399292    0.05000000    0.09000000
   19.95639038  146.70599365    0.05000000    0.09000000
   19.95944595  148.82699585    0.05000000    0.09000000
   19.96277809  143.20399475    0.05000000    0.09000000
   19.96416664  150.20100403    0.05000000    0.09000000
   19.96638870  144.78300476    0.05000000    0.09000000
   19.96944427  154.91999817    0.05000000    0.09000000
   19.97277832  153.07699585    0.05000000    0.09000000
   19.97611237  149.95500183    0.05000000    0.09000000
   19.97916794  146.66400146    0.05000000    0.09000000
   19.98527718  146.66400146    0.05000000    0.09000000
   19.98944473  146.89199829    0.05000000    0.09000000
   19.99277878  142.59100342    0.05000000    0.09000000
   19.99583435  141.58000183    0.05000000    0.09000000
   19.99777794  147.76600647    0.05000000    0.09000000
   19.99944496  152.00199890    0.05000000    0.09000000
   20.00277710  149.67199707    0.05000000    0.09000000
   20.00611115  140.22099304    0.05000000    0.09000000
   20.00916672  147.68099976    0.05000000    0.09000000
   20.01250076  156.57899475    0.05000000    0.09000000
   20.01583290  149.65100098    0.05000000    0.09000000
   20.01888847  148.69700623    0.05000000    0.09000000
   20.02222252  149.95100403    0.05000000    0.09000000
   20.02805519  149.95100403    0.05000000    0.09000000
   20.03222275  137.96499634    0.05000000    0.09000000
   20.03555489  290.65399170    0.05000000    0.09000000
   20.03888893  146.96400452    0.05000000    0.09000000
   20.04194450  145.19400024    0.05000000    0.09000000
   20.04527664  149.15800476    0.05000000    0.09000000
   20.04833221  149.79100037    0.05000000    0.09000000
   20.05166626  160.70899963    0.05000000    0.09000000
   20.05499840  149.30499268    0.05000000    0.09000000
   20.05805397  148.32200623    0.05000000    0.09000000
   20.06138802  169.91600037    0.05000000    0.09000000
   20.06444359  162.14999390    0.05000000    0.09000000
   20.06472206  168.88400269    0.05000000    0.09000000
   20.07111168  168.88400269    0.05000000    0.09000000
   20.07500076  151.89500427    0.05000000    0.09000000
   20.07833481  144.11199951    0.05000000    0.09000000
   20.08166695  145.87100220    0.05000000    0.09000000
   20.08472252  182.01899719    0.05000000    0.09000000
   20.08805656   -1.00000000    0.05000000    0.09000000
   20.09111214   -1.00000000    0.05000000    0.09000000
   20.09444427   -1.00000000    0.05000000    0.09000000
   20.09805679   -1.00000000    0.05000000    0.09000000
   20.10138893   -1.00000000    0.05000000    0.09000000
   20.10444450   -1.00000000    0.05000000    0.09000000
   20.10777855   -1.00000000    0.05000000    0.09000000
   20.11777878   -1.00000000    0.05000000    0.09000000
   20.12111092   -1.00000000    0.05000000    0.09000000
   20.12444496   -1.00000000    0.05000000    0.09000000
   20.12750053   -1.00000000    0.05000000    0.09000000
   20.13083267   -1.00000000    0.05000000    0.09000000
   20.13444519   -1.00000000    0.05000000    0.09000000
   20.13777733   -1.00000000    0.05000000    0.09000000
   20.14083290   -1.00000000    0.05000000    0.09000000
   20.14416695   -1.00000000    0.05000000    0.09000000
   20.14722252   -1.00000000    0.05000000    0.09000000
   20.15055466   -1.00000000    0.05000000    0.09000000
   20.16083336   -1.00000000    0.05000000    0.09000000
   20.16388893   -1.00000000   -1.00000000   -1.00000000
   20.16472244   56.09379959    0.05000000    0.09000000
   20.16749954  116.51000214    0.05000000    0.09000000
   20.17083359  288.43301392    0.05000000    0.09000000
   20.17416573  330.32598877    0.05000000    0.09000000
   20.17722130  225.67500305    0.05000000    0.09000000
   20.18055534   -1.00000000   -1.00000000   -1.00000000
   20.18361092   -1.00000000    0.05000000    0.09000000
   20.18694305   -1.00000000    0.05000000    0.09000000
