    HOUR (UT)   FLARE FACTOR    SKY TESTER    SUN TESTER
   11.93472195   -1.00000000   -1.00000000   -1.00000000
   12.92472267  189.75500488    0.00000000    0.00000000
   12.92805576  182.55999756    0.00000000    0.00000000
   12.93138885  194.33399963    0.00000000    0.00000000
   12.93444443  179.27299500    0.00000000    0.00000000
   12.93777752  173.40400696    0.00000000    0.00000000
   12.94083309  185.56599426    0.00000000    0.00000000
   12.94499969  185.56599426    0.00000000    0.00000000
   12.94916630  189.43099976    0.00000000    0.00000000
   12.95249939  173.80700684    0.00000000    0.00000000
   12.95555496  168.77099609    0.00000000    0.00000000
   12.95805550  166.10800171    0.00000000    0.00000000
   12.95944405  183.17399597    0.00000000    0.00000000
   12.96249962  175.11099243    0.00000000    0.00000000
   12.96583271  170.03199768    0.00000000    0.00000000
   12.96916580  158.26400757    0.00000000    0.00000000
   12.97222137  174.60800171    0.00000000    0.00000000
   12.97555542  178.98599243    0.00000000    0.00000000
   12.97888851  163.88200378    0.00000000    0.00000000
   12.98194408  168.86799622    0.00000000    0.00000000
   12.98805618  168.86799622    0.00000000    0.00000000
   12.99194431  180.60400391    0.00000000    0.00000000
   12.99527836  164.25900269    0.00000000    0.00000000
   12.99861145  173.08700562    0.00000000    0.00000000
   13.00166702  159.81599426    0.00000000    0.00000000
   13.00500011  157.14100647    0.00000000    0.00000000
   13.00833321  155.91299438    0.00000000    0.00000000
   13.01138878  155.23899841    0.00000000    0.00000000
   13.01472187  168.61199951    0.00000000    0.00000000
   13.01805496  172.79299927    0.00000000    0.00000000
   13.02111053  159.20799255    0.00000000    0.00000000
   13.02444458  153.75199890    0.00000000    0.00000000
   13.02499962  154.41999817    0.00000000    0.00000000
   13.03083324  154.41999817    0.00000000    0.00000000
   13.03500080  146.43800354    0.00000000    0.00000000
   13.03805637  153.92399597    0.00000000    0.00000000
   13.04138947  149.30400085    0.00000000    0.00000000
   13.04472256  148.44799805    0.00000000    0.00000000
   13.04777813  155.28700256    0.00000000    0.00000000
   13.05111122  151.49699402    0.00000000    0.00000000
   13.05416679  157.32400513    0.00000000    0.00000000
   13.05749989  145.57400513    0.00000000    0.00000000
   13.05833340  146.58099365    0.00000000    0.00000000
   13.06111145  146.28999329    0.00000000    0.00000000
   13.06444454  142.34300232    0.00000000    0.00000000
   13.06777763  147.77099609    0.00000000    0.00000000
   13.07361126  147.77099609    0.00000000    0.00000000
   13.07777786  140.90299988    0.00000000    0.00000000
   13.08111095  147.80099487    0.00000000    0.00000000
   13.08416653  135.96299744    0.00000000    0.00000000
   13.08749962  144.31900024    0.00000000    0.00000000
   13.09055519  132.18899536    0.00000000    0.00000000
   13.09166622  161.82400513    0.00000000    0.00000000
   13.09416676  139.62800598    0.00000000    0.00000000
   13.09749985  140.54699707    0.00000000    0.00000000
   13.10111141  132.33000183    0.00000000    0.00000000
   13.10416698  146.78500366    0.00000000    0.00000000
   13.10750008  134.33999634    0.00000000    0.00000000
   13.11083412  132.56900024    0.00000000    0.00000000
   13.11638927  132.56900024    0.00000000    0.00000000
   13.12055588  139.09399414    0.00000000    0.00000000
   13.12388897  143.24400330    0.00000000    0.00000000
   13.12500000  131.52200317    0.00000000    0.00000000
   13.12750053  142.17700195    0.00000000    0.00000000
   13.13055611  137.59399414    0.00000000    0.00000000
   13.13388920  131.85000610    0.00000000    0.00000000
   13.13694477  135.42199707    0.00000000    0.00000000
   13.14027786  133.09399414    0.00000000    0.00000000
   13.14361095  151.42999268    0.00000000    0.00000000
   13.14666653  141.39999390    0.00000000    0.00000000
   13.14999962  136.87500000    0.00000000    0.00000000
   13.15333271  132.50599670    0.00000000    0.00000000
   13.15944386  132.50599670    0.00000000    0.00000000
   13.16333294  131.08399963    0.00000000    0.00000000
   13.16666698  127.86599731    0.00000000    0.00000000
   13.17000008  135.65800476    0.00000000    0.00000000
   13.17305565  125.00599670    0.00000000    0.00000000
   13.17638874  131.82699585    0.00000000    0.00000000
   13.17972279  127.60399628    0.00000000    0.00000000
   13.18277836  139.34199524    0.00000000    0.00000000
   13.18611145  137.44999695    0.00000000    0.00000000
   13.18916702  128.45899963    0.00000000    0.00000000
   13.19166660  135.42100525    0.00000000    0.00000000
   13.19305515  130.75300598    0.00000000    0.00000000
   13.19611073  139.71400452    0.00000000    0.00000000
   13.20222187  139.71400452    0.00000000    0.00000000
   13.20638847  127.71800232    0.00000000    0.00000000
   13.20944405  133.99499512    0.00000000    0.00000000
   13.21277714  133.89199829    0.00000000    0.00000000
   13.21611118  150.16299438    0.00000000    0.00000000
   13.21916580  128.83599854    0.00000000    0.00000000
   13.22249985  131.78399658    0.00000000    0.00000000
   13.22499943  127.23600006    0.00000000    0.00000000
   13.22611046  130.92100525    0.00000000    0.00000000
   13.22916603  129.60899353    0.00000000    0.00000000
   13.23249912  125.55200195    0.00000000    0.00000000
   13.23555565  135.28999329    0.00000000    0.00000000
   13.23888874  132.40800476    0.00000000    0.00000000
   13.24499989  132.40800476    0.00000000    0.00000000
   13.24916649  134.27900696    0.00000000    0.00000000
   13.25249958  126.19100189    0.00000000    0.00000000
   13.25555515  131.91999817    0.00000000    0.00000000
   13.25833321  120.13999939    0.00000000    0.00000000
   13.25944424  133.06799316    0.00000000    0.00000000
   13.26249981  129.10400391    0.00000000    0.00000000
   13.26583290  130.95700073    0.00000000    0.00000000
   13.26888847  127.79599762    0.00000000    0.00000000
   13.27222157  122.67600250    0.00000000    0.00000000
   13.27555561  115.14800262    0.00000000    0.00000000
   13.27861118  135.01199341    0.00000000    0.00000000
   13.28194427  122.51000214    0.00000000    0.00000000
   13.28777790  122.51000214    0.00000000    0.00000000
   13.29194450  122.81700134    0.00000000    0.00000000
   13.29527855  123.56600189    0.00000000    0.00000000
   13.29833412  108.46600342    0.00000000    0.00000000
   13.30166721  118.70500183    0.00000000    0.00000000
   13.30500031  121.75199890    0.00000000    0.00000000
   13.30805588  116.16000366    0.00000000    0.00000000
   13.31138897  117.38700104    0.00000000    0.00000000
   13.31472206  114.22499847    0.00000000    0.00000000
   13.31777763  122.27100372    0.00000000    0.00000000
   13.32111073  127.03099823    0.00000000    0.00000000
   13.32416630  123.69599915    0.00000000    0.00000000
   13.32499981  116.37200165    0.00000000    0.00000000
   13.33083344  116.37200165    0.00000000    0.00000000
   13.33472157  120.20899963    0.00000000    0.00000000
   13.33805561  116.84899902    0.00000000    0.00000000
   13.34138870  114.54199982    0.00000000    0.00000000
   13.34499931  121.45300293    0.00000000    0.00000000
   13.34805489  115.24800110    0.00000000    0.00000000
   13.35138893  114.31999969    0.00000000    0.00000000
   13.35444450  111.31800079    0.00000000    0.00000000
   13.35777855  112.85299683    0.00000000    0.00000000
   13.35833359  118.03800201    0.00000000    0.00000000
   13.36138916  117.73500061    0.00000000    0.00000000
   13.36444473  108.79199982    0.00000000    0.00000000
   13.36777782  115.54199982    0.00000000    0.00000000
   13.37361145  115.54199982    0.00000000    0.00000000
   13.37777805  114.43900299    0.00000000    0.00000000
   13.38083363  117.51499939    0.00000000    0.00000000
   13.38416672  109.22899628    0.00000000    0.00000000
   13.38722229  116.30500031    0.00000000    0.00000000
   13.39055538  115.55000305    0.00000000    0.00000000
   13.39166641  118.80500031    0.00000000    0.00000000
   13.39416695  108.81400299    0.00000000    0.00000000
   13.39722252  121.74299622    0.00000000    0.00000000
   13.40055561  115.09999847    0.00000000    0.00000000
   13.40388870  118.37100220    0.00000000    0.00000000
   13.40694427  120.57399750    0.00000000    0.00000000
   13.41027737  115.83599854    0.00000000    0.00000000
   13.41638851  115.83599854    0.00000000    0.00000000
   13.42055607  111.33699799    0.00000000    0.00000000
   13.42361164  111.00900269    0.00000000    0.00000000
   13.42500019  120.54900360    0.00000000    0.00000000
   13.42750072  118.36900330    0.00000000    0.00000000
   13.43055630  113.03800201    0.00000000    0.00000000
   13.43388939  118.99199677    0.00000000    0.00000000
   13.43722248  111.81900024    0.00000000    0.00000000
   13.44027805  112.78299713    0.00000000    0.00000000
   13.44361115  113.60800171    0.00000000    0.00000000
   13.44666672  111.58899689    0.00000000    0.00000000
   13.44999981  113.69899750    0.00000000    0.00000000
   13.45333290  105.97899628    0.00000000    0.00000000
   13.45916653  105.97899628    0.00000000    0.00000000
   13.46333313  112.41500092    0.00000000    0.00000000
   13.46666622  117.93800354    0.00000000    0.00000000
   13.46972179  117.12500000    0.00000000    0.00000000
   13.47305489  112.15599823    0.00000000    0.00000000
   13.47638798  117.19400024    0.00000000    0.00000000
   13.47944355  116.12000275    0.00000000    0.00000000
   13.48277760  110.27100372    0.00000000    0.00000000
   13.48583317  119.42600250    0.00000000    0.00000000
   13.48916721  115.49800110    0.00000000    0.00000000
   13.49166679  112.15599823    0.00000000    0.00000000
   13.49277782  113.19799805    0.00000000    0.00000000
   13.49583340  114.01799774    0.00000000    0.00000000
   13.50222206  114.01799774    0.00000000    0.00000000
   13.50611115  102.00599670    0.00000000    0.00000000
   13.50944424  110.32399750    0.00000000    0.00000000
   13.51277733  118.56700134    0.00000000    0.00000000
   13.51583290  109.82099915    0.00000000    0.00000000
   13.51916599  111.73799896    0.00000000    0.00000000
   13.52222157  105.49099731    0.00000000    0.00000000
   13.52499962  118.17900085    0.00000000    0.00000000
   13.52611065  102.89700317    0.00000000    0.00000000
   13.52916622  108.82800293    0.00000000    0.00000000
   13.53249931  110.73999786    0.00000000    0.00000000
   13.53583336  103.15899658    0.00000000    0.00000000
   13.53888893  105.33300018    0.00000000    0.00000000
   13.54500008  105.33300018    0.00000000    0.00000000
   13.54916668  107.67500305    0.00000000    0.00000000
   13.55222225  115.28700256    0.00000000    0.00000000
   13.55555534  118.19000244    0.00000000    0.00000000
   13.55833340  108.99900055    0.00000000    0.00000000
   13.55916691  108.85600281    0.00000000    0.00000000
   13.56222248  112.30899811    0.00000000    0.00000000
   13.56555557  112.53199768    0.00000000    0.00000000
   13.56888866  107.56700134    0.00000000    0.00000000
   13.57194424  117.47499847    0.00000000    0.00000000
   13.57527733  112.21499634    0.00000000    0.00000000
   13.57833290  106.81500244    0.00000000    0.00000000
   13.58166695  111.98000336    0.00000000    0.00000000
   13.58777714  111.98000336    0.00000000    0.00000000
   13.59194374  117.50000000    0.00000000    0.00000000
   13.59499931  105.18299866    0.00000000    0.00000000
   13.59833336  112.85099792    0.00000000    0.00000000
   13.60166740  109.90899658    0.00000000    0.00000000
   13.60472298  116.81800079    1.50000000    2.39000010
   13.60805607  111.90499878    1.50000000    2.39000010
   13.61138916  105.12799835    1.50000000    2.39000010
   13.61444473  229.54200745    1.50000000    2.39000010
   13.61777782  116.43199921    1.50000000    2.39000010
   13.62083340  103.92400360    1.50000000    2.39000010
   13.62416649  109.67400360    1.50000000    2.39000010
   13.62500000  113.00499725    1.50000000    2.39000010
   13.63055611  113.00499725    1.50000000    2.39000010
   13.63472176  112.52799988    1.50000000    2.39000010
   13.63805580  108.87999725    1.50000000    2.39000010
   13.64111137  110.39099884    1.50000000    2.39000010
   13.64444447  105.95899963    1.50000000    2.39000010
   13.64777756  102.84100342    1.50000000    2.39000010
   13.65083313  109.65299988    1.50000000    2.39000010
   13.65416622  100.89199829    1.50000000    2.39000010
   13.65722179  102.94300079    1.50000000    2.39000010
   13.65833282  107.91600037    1.50000000    2.39000010
   13.66111088  102.62100220    1.50000000    2.39000010
   13.66416645  115.30000305    1.50000000    2.39000010
   13.66750050  108.58999634    1.50000000    2.39000010
   13.67333412  108.58999634    1.50000000    2.39000010
   13.67750072  108.55400085    1.50000000    2.39000010
   13.68083382  106.28299713    1.50000000    2.39000010
   13.68416691  114.23699951    1.50000000    2.39000010
   13.68722248  110.40100098    1.50000000    2.39000010
   13.69055557  119.34200287    1.50000000    2.39000010
   13.69166660  107.60399628    1.50000000    2.39000010
   13.69416714  107.77400208    1.50000000    2.39000010
   13.69722271  106.92600250    1.50000000    2.39000010
   13.70055580  104.59100342    1.50000000    2.39000010
   13.70388889  105.36000061    1.50000000    2.39000010
   13.70694447  101.46900177    1.50000000    2.39000010
   13.71027756  108.77200317    1.50000000    2.39000010
   13.71638870  108.77200317    1.50000000    2.39000010
   13.72055531  107.70400238    1.50000000    2.39000010
   13.72361088  110.80000305    1.50000000    2.39000010
   13.72499943  110.39399719    1.50000000    2.39000010
   13.72722149  110.71800232    1.50000000    2.39000010
   13.73027706  108.79599762    1.50000000    2.39000010
   13.73361111  113.83200073    1.50000000    2.39000010
   13.73694515  112.97200012    1.50000000    2.39000010
   13.74000072  113.27500153    1.50000000    2.39000010
   13.74333382  114.63700104    1.50000000    2.39000010
   13.74666691  112.74600220    1.50000000    2.39000010
   13.74972248  111.98799896    1.50000000    2.39000010
   13.75305557  108.21299744    1.50000000    2.39000010
   13.75916672  108.21299744    1.50000000    2.39000010
   13.76333332  108.91999817    1.50000000    2.39000010
   13.76638889  109.82700348    1.50000000    2.39000010
   13.76972198  110.23600006    1.50000000    2.39000010
   13.77305508  118.13099670    1.50000000    2.39000010
   13.77638817  110.26999664    1.50000000    2.39000010
   13.77944374  104.98000336    1.50000000    2.39000010
   13.78277779  115.94899750    1.50000000    2.39000010
   13.78583336  109.11299896    1.50000000    2.39000010
   13.78916740  109.22399902    1.50000000    2.39000010
   13.79166698  111.13700104    1.50000000    2.39000010
   13.79277802  115.43199921    1.50000000    2.39000010
   13.79583359  112.56400299    1.50000000    2.39000010
   13.80194473  112.56400299    1.50000000    2.39000010
   13.80611134  103.08799744    1.50000000    2.39000010
   13.80944443  110.22599792    1.50000000    2.39000010
   13.81250000  106.98400116    1.50000000    2.39000010
   13.81583309  106.86499786    1.50000000    2.39000010
   13.81916618   98.93379974    1.50000000    2.39000010
   13.82222176  107.32299805    1.50000000    2.39000010
   13.82499981  110.81099701    1.50000000    2.39000010
   13.82583332  106.17600250    1.50000000    2.39000010
   13.82888889  108.98699951    1.50000000    2.39000010
   13.83222198  111.73899841    1.50000000    2.39000010
   13.83555508  108.48999786    1.50000000    2.39000010
   13.83861065  106.46900177    1.50000000    2.39000010
   13.84499931  106.46900177    1.50000000    2.39000010
   13.84888840  107.23300171    1.50000000    2.39000010
   13.85222244  106.18599701    1.50000000    2.39000010
   13.85555553  111.38300323    1.50000000    2.39000010
   13.85833359  106.07099915    1.50000000    2.39000010
   13.85916710  112.45300293    1.50000000    2.39000010
   13.86222267   95.89250183    1.50000000    2.39000010
   13.86555576  105.12599945    1.50000000    2.39000010
   13.86888885  109.83399963    1.50000000    2.39000010
   13.87194443  110.27600098    1.50000000    2.39000010
   13.87527752  108.03199768    1.50000000    2.39000010
   13.87861156  103.08599854    1.50000000    2.39000010
   13.88166714  106.99900055    1.50000000    2.39000010
   13.88777733  106.99900055    1.50000000    2.39000010
   13.89194393  103.36199951    1.50000000    2.39000010
   13.89499950  104.26200104    1.50000000    2.39000010
   13.89833355  110.58200073    1.50000000    2.39000010
   13.90138817  101.73699951    1.50000000    2.39000010
   13.90472221  106.23400116    1.50000000    2.39000010
   13.90805531  110.43699646    1.50000000    2.39000010
   13.91111088  108.98000336    1.50000000    2.39000010
   13.91444397  105.98200226    1.50000000    2.39000010
   13.91777802  106.09200287    1.50000000    2.39000010
   13.92083359  109.95200348    1.50000000    2.39000010
   13.92416668  102.45099640    1.50000000    2.39000010
   13.92500019  100.36799622    1.50000000    2.39000010
   13.94583321  100.36799622    1.50000000    2.39000010
   13.94999981  117.60600281    1.50000000    2.39000010
   13.95305538  121.68299866    1.50000000    2.39000010
   13.95638847  118.24199677    1.50000000    2.39000010
   13.95833302  125.15399933    1.50000000    2.39000010
   13.96000004  118.51000214    1.50000000    2.39000010
   13.96333313  119.90100098    1.50000000    2.39000010
   13.96638870  117.72399902    1.50000000    2.39000010
   13.96972179  115.59500122    1.50000000    2.39000010
   13.97277737  121.44100189    1.50000000    2.39000010
   13.97611046  128.05099487    1.50000000    2.39000010
   13.97944355  120.70899963    1.50000000    2.39000010
   13.98249912  125.86000061    1.50000000    2.39000010
   13.98861122  125.86000061    1.50000000    2.39000010
   13.99277782  119.09899902    1.50000000    2.39000010
   13.99583340  122.53299713    1.50000000    2.39000010
   13.99916649  124.32199860    1.50000000    2.39000010
   14.00222206  125.02400208    1.50000000    2.39000010
   14.00555515  120.10700226    1.50000000    2.39000010
   14.00888920  127.66300201    1.50000000    2.39000010
   14.01194477  116.09600067    1.50000000    2.39000010
   14.01527786  130.74800110    1.50000000    2.39000010
   14.01861095  124.45400238    1.50000000    2.39000010
   14.02166653  120.30899811    1.50000000    2.39000010
   14.02499962  128.43699646    1.50000000    2.39000010
   14.02555561  127.29199982    1.50000000    2.39000010
   14.03138828  127.29199982    1.50000000    2.39000010
   14.03555584  118.05100250    1.50000000    2.39000010
   14.03861141  120.52799988    1.50000000    2.39000010
   14.04194450  124.70600128    1.50000000    2.39000010
   14.04527855  124.55799866    1.50000000    2.39000010
   14.04833412  120.20999908    1.50000000    2.39000010
   14.05166721  127.10800171    1.50000000    2.39000010
   14.05500031  135.72900391    1.50000000    2.39000010
   14.05805588  121.72599792    1.50000000    2.39000010
   14.05888939  134.14199829    1.50000000    2.39000010
   14.06166649  119.05699921    1.50000000    2.39000010
   14.06500053  126.91999817    1.50000000    2.39000010
   14.06833363  114.72799683    1.50000000    2.39000010
   14.07416630  114.72799683    1.50000000    2.39000010
   14.07833290  117.17600250    1.50000000    2.39000010
   14.08166695  141.64399719    1.50000000    2.39000010
   14.08472157  122.85600281    1.50000000    2.39000010
   14.08805561  128.00399780    1.50000000    2.39000010
   14.09138870  125.23600006    1.50000000    2.39000010
   14.09222221  125.80300140    1.50000000    2.39000010
   14.09472179  131.67799377    1.50000000    2.39000010
   14.09805489  128.38299561    1.50000000    2.39000010
   14.10138893  123.29900360    1.50000000    2.39000010
   14.10444450  126.44599915    1.50000000    2.39000010
   14.10777855  126.38999939    1.50000000    2.39000010
   14.11111164  123.21399689    1.50000000    2.39000010
   14.11694431  123.21399689    1.50000000    2.39000010
   14.12111092  125.28099823    1.50000000    2.39000010
   14.12444496  128.67199707    1.50000000    2.39000010
   14.12555599  129.83700562    1.50000000    2.39000010
   14.12805557  134.46600342    1.50000000    2.39000010
   14.13138866  132.13800049    1.50000000    2.39000010
   14.13472176  127.96399689    1.50000000    2.39000010
   14.13777733  129.79299927    1.50000000    2.39000010
   14.14111137  129.90400696    1.50000000    2.39000010
   14.14444447  134.90400696    1.50000000    2.39000010
   14.14750004  126.22599792    1.50000000    2.39000010
   14.15083313  136.58200073    1.50000000    2.39000010
   14.15388870  135.55999756    1.50000000    2.39000010
   14.15999985  135.55999756    1.50000000    2.39000010
   14.16416645  139.17300415    1.50000000    2.39000010
   14.16722298  140.25300598    1.50000000    2.39000010
   14.17055607  128.83200073    1.50000000    2.39000010
   14.17361164  118.58599854    1.50000000    2.39000010
   14.17694473  123.61000061    1.50000000    2.39000010
   14.18027782  132.53500366    1.50000000    2.39000010
   14.18333340  128.05299377    1.50000000    2.39000010
   14.18666649  131.72200012    1.50000000    2.39000010
   14.19000053  135.24899292    1.50000000    2.39000010
   14.19222260  126.37599945    1.50000000    2.39000010
   14.19333363  131.35400391    1.50000000    2.39000010
   14.19666672  132.15600586    1.50000000    2.39000010
   14.20277786  132.15600586    1.50000000    2.39000010
   14.20694447  133.71400452    1.50000000    2.39000010
   14.21000004  136.03199768    1.50000000    2.39000010
   14.21333313  135.30200195    1.50000000    2.39000010
   14.21666622  126.24199677    1.50000000    2.39000010
   14.21972179  132.09199524    1.50000000    2.39000010
   14.22305489  133.50999451    1.50000000    2.39000010
   14.22555542  126.04299927    1.50000000    2.39000010
   14.22666645  131.41700745    1.50000000    2.39000010
   14.22999954  132.12300110    1.50000000    2.39000010
   14.23333359  142.37300110    1.50000000    2.39000010
   14.23638916  129.10400391    1.50000000    2.39000010
   14.23972225  131.35200500    1.50000000    2.39000010
   14.24555588  131.35200500    1.50000000    2.39000010
   14.24972248  123.86399841    1.50000000    2.39000010
   14.25305557  134.47599792    1.50000000    2.39000010
   14.25611115  130.27799988    1.50000000    2.39000010
   14.25888920  131.84700012    1.50000000    2.39000010
   14.26000023  145.90100098    1.50000000    2.39000010
   14.26305580  144.16499329    1.50000000    2.39000010
   14.26638889  131.94099426    1.50000000    2.39000010
   14.26944447  154.56900024    1.50000000    2.39000010
   14.27277756  150.34899902    1.50000000    2.39000010
   14.27611065  154.32899475    1.50000000    2.39000010
   14.27916622  151.70300293    1.50000000    2.39000010
   14.28249931  167.29699707    1.50000000    2.39000010
   14.28833389  167.29699707    1.50000000    2.39000010
   14.29250050  181.08900452    1.50000000    2.39000010
   14.29583359  201.81500244    1.50000000    2.39000010
   14.29916668  225.66900635    1.50000000    2.39000010
   14.30222225  221.02699280    1.50000000    2.39000010
   14.30555534  252.50999451    1.50000000    2.39000010
   14.30861092  280.47000122    1.50000000    2.39000010
   14.31194496  336.51199341    1.50000000    2.39000010
   14.31527805  355.02899170    1.50000000    2.39000010
   14.31833363  447.01098633    1.50000000    2.39000010
   14.32055569  401.66101074    1.50000000    2.39000010
   14.32166672  482.69699097    1.50000000    2.39000010
   14.32305527  346.28201294    1.50000000    2.39000010
   14.32333374  280.47000122    1.50000000    2.39000010
   14.32333374  336.51199341    1.50000000    2.39000010
   14.32333374  355.02899170    1.50000000    2.39000010
   14.32361126  447.01098633    1.50000000    2.39000010
   14.32361126  181.08900452    1.50000000    2.39000010
   14.32361126  201.81500244    1.50000000    2.39000010
   14.32388878  225.66900635    1.50000000    2.39000010
   14.32388878  221.02699280    1.50000000    2.39000010
   14.32388878  252.50999451    1.50000000    2.39000010
   14.32444477  237.26300049    1.50000000    2.39000010
   14.32777786  129.70500183    1.50000000    2.39000010
   14.33111095  103.00900269    1.50000000    2.39000010
   14.33416653   86.21559906    1.50000000    2.39000010
   14.33749962   25.56870079    1.50000000    2.39000010
   14.34388828   25.56870079    1.50000000    2.39000010
   14.34805489   -1.00000000    1.50000000    2.39000010
   14.35138893   -1.00000000    1.50000000    2.39000010
   14.35444450   -1.00000000    1.50000000    2.39000010
   14.35833359   -1.00000000    1.50000000    2.39000010
   14.36138916   -1.00000000    1.50000000    2.39000010
   14.36472225   -1.00000000    1.50000000    2.39000010
   14.36777782   -1.00000000    1.50000000    2.39000010
   14.37111092   -1.00000000    1.50000000    2.39000010
   14.37444496   -1.00000000    1.50000000    2.39000010
   14.37750053   -1.00000000    1.50000000    2.39000010
   14.38083363   -1.00000000    1.50000000    2.39000010
   14.39083290   -1.00000000    1.50000000    2.39000010
   14.39416695   -1.00000000    1.50000000    2.39000010
   14.39722252   -1.00000000    1.50000000    2.39000010
   14.40055561   -1.00000000    1.50000000    2.39000010
   14.40388870   -1.00000000    1.50000000    2.39000010
   14.40694427   -1.00000000    1.50000000    2.39000010
   14.41027737   -1.00000000    1.50000000    2.39000010
   14.41333294   -1.00000000    1.50000000    2.39000010
   14.41666698   -1.00000000    1.50000000    2.39000010
   14.42000008   -1.00000000    1.50000000    2.39000010
   14.42305565   -1.00000000    1.50000000    2.39000010
   14.43361092   -1.00000000    1.50000000    2.39000010
   14.43694496   -1.00000000    1.50000000    2.39000010
   14.44027805   -1.00000000    1.50000000    2.39000010
   14.44333363   -1.00000000    1.50000000    2.39000010
   14.44666672   -1.00000000    1.50000000    2.39000010
   14.44972229   -1.00000000    1.50000000    2.39000010
   14.45305538   -1.00000000    1.50000000    2.39000010
   14.45638847   -1.00000000    1.50000000    2.39000010
   14.46000004   -1.00000000    1.50000000    2.39000010
   14.46305561   -1.00000000    1.50000000    2.39000010
   14.46638870   -1.00000000    1.50000000    2.39000010
   14.47666645   -1.00000000    1.50000000    2.39000010
   14.47972202   -1.00000000    1.50000000    2.39000010
   14.48305511   -1.00000000    1.50000000    2.39000010
   14.48611164   -1.00000000    1.50000000    2.39000010
   14.48944473   -1.00000000    1.50000000    2.39000010
   14.49305534   -1.00000000    1.50000000    2.39000010
   14.49611092   -1.00000000    1.50000000    2.39000010
   14.49944496   -1.00000000    1.50000000    2.39000010
   14.50277805   -1.00000000    1.50000000    2.39000010
   14.50583363   -1.00000000    1.50000000    2.39000010
   14.50916672   -1.00000000    1.50000000    2.39000010
   14.51944447   -1.00000000    1.50000000    2.39000010
   14.52250004   -1.00000000    1.50000000    2.39000010
   14.98555565   -1.00000000   -1.00000000   -1.00000000
   15.15972137   -1.00000000   -1.00000000   -1.00000000
   15.29388905   -1.00000000   -1.00000000   -1.00000000
   15.50527763   -1.00000000   -1.00000000   -1.00000000
   15.74805546   -1.00000000   -1.00000000   -1.00000000
   15.80083370   78.02600098    2.36999989    2.57999992
   15.80416679  151.68200684    2.36999989    2.57999992
   15.80749989  139.47099304    2.36999989    2.57999992
   15.81083393  130.53799438    2.36999989    2.57999992
   15.81388950  143.50199890    2.36999989    2.57999992
   15.81722260  134.86900330    0.36000001    0.15000001
   15.82138920  134.86900330    0.25000000    0.31999999
   15.82555580  149.83999634    4.90999985    2.66000009
   15.82861137  143.99699402    4.90999985    2.66000009
   15.83194447  136.60099792    4.90999985    2.66000009
   15.83416653  144.23100281    4.90999985    2.66000009
   15.83555508  149.21699524    4.90999985    2.69000006
   15.83888817  136.49099731    4.90999985    2.67000008
   15.84194374  134.03399658    4.90999985    2.64000010
   15.84527779  133.64300537    4.90999985    2.66000009
   15.84861088  140.71800232    4.90999985    2.67000008
   15.85166740  123.41400146    4.90999985    2.66000009
   15.85500050  138.08200073    4.90999985    2.67000008
   15.85805607  126.53900146    4.90999985    2.66000009
   15.86416721  126.53900146    4.90999985    2.66000009
   15.86833382  132.30700684    4.90999985    2.67000008
   15.87166691  135.26100159    4.90999985    2.66000009
   15.87472248  126.52400208    4.90999985    2.67000008
   15.87805557  130.84399414    4.90999985    2.66000009
   15.88111115  132.55900574    4.90999985    2.66000009
   15.88444424  129.22700500    4.90999985    2.66000009
   15.88777733  133.46200562    4.90999985    2.66000009
   15.89083290  147.58000183    4.90999985    2.67000008
   15.89416695  136.39599609    4.90999985    2.66000009
   15.89722252  138.43499756    4.90999985    2.66000009
   15.90055561  145.36700439    4.90999985    2.66000009
   15.90111065  139.44299316    4.90999985    2.67000008
   15.90694427  139.44299316    4.90999985    2.67000008
   15.91111088  144.19900513    4.90999985    2.66000009
   15.91444397  143.53700256    4.90999985    2.67000008
   15.91750050  128.36399841    4.90999985    2.67000008
   15.92083359  131.68600464    4.90999985    2.67000008
   15.92416668  138.77200317    4.90999985    2.69000006
   15.92722225  130.04699707    4.90999985    2.66000009
   15.93055630  135.53999329    4.90999985    2.66000009
   15.93361092  141.41400146    4.90999985    2.66000009
   15.93444443  138.78100586    4.90999985    2.66000009
   15.93750000  149.09700012    4.90999985    2.66000009
   15.94055557  139.26300049    4.90999985    2.66000009
   15.94388866  125.77100372    4.90999985    2.66000009
   15.94999981  125.77100372    4.90999985    2.67000008
   15.95388889  134.79200745    4.90999985    2.67000008
   15.95722198  137.16600037    4.90999985    2.67000008
   15.96055508  125.47799683    4.90999985    2.64000010
   15.96361065  126.48200226    4.90999985    2.66000009
   15.96694374  134.85099792    4.90999985    2.67000008
   15.96777725  132.76800537    4.90999985    2.67000008
   15.97055531  117.14099884    4.90999985    2.67000008
   15.97361088  131.57099915    4.90999985    2.66000009
   15.97694397  120.98999786    4.90999985    2.66000009
   15.98027706  136.98199463    4.90999985    2.66000009
   15.98333359  137.68600464    4.90999985    2.67000008
   15.98666668  114.98999786    4.90999985    2.66000009
   15.99277782  114.98999786    4.90999985    2.66000009
   15.99694443  119.92199707    4.90999985    2.66000009
   16.00000000  117.05100250    4.90999985    2.67000008
   16.00138855  117.19400024    4.90999985    2.66000009
   16.00388908  124.06600189    4.90999985    2.66000009
   16.00722313  120.01300049    4.90999985    2.66000009
   16.01055527  131.02600098    4.90999985    2.66000009
   16.01361084  128.00999451    4.90999985    2.66000009
   16.01694489  134.70599365    4.90999985    2.66000009
   16.02000046  137.45799255    4.90999985    2.66000009
   16.02333260  124.55999756    4.90999985    2.67000008
   16.02666664  136.77699280    4.90999985    2.66000009
   16.02972221  135.02000427    4.90999985    2.66000009
   16.03555489  135.02000427    4.90999985    2.66000009
   16.03972244  128.17300415    4.90999985    2.67000008
   16.04277802  133.91700745    4.90999985    2.66000009
   16.04611015  123.65599823    4.90999985    2.69000006
   16.04944420  132.43400574    4.90999985    2.66000009
   16.05249977  129.35499573    4.90999985    2.67000008
   16.05583191  136.34800720    4.90999985    2.67000008
   16.05916595  133.86900330    4.90999985    2.66000009
   16.06222153  134.72099304    4.90999985    2.66000009
   16.06555557  134.21899414    4.90999985    2.67000008
   16.06777954  134.35899353    4.90999985    2.66000009
   16.06916809  132.91600037    4.90999985    2.66000009
   16.07222366  129.49800110    4.90999985    2.66000009
   16.07833481  129.49800110    4.90999985    2.66000009
   16.08250046  134.53500366    4.90999985    2.66000009
   16.08583450  133.87300110    4.90999985    2.66000009
   16.08889008  138.80099487    4.90999985    2.67000008
   16.09222221  133.29200745    4.90999985    2.64000010
   16.09555626  123.92299652    4.90999985    2.66000009
   16.09861183  138.88000488    4.90999985    2.66000009
   16.10111237  130.70899963    4.90999985    2.67000008
   16.10250092  134.32699585    4.90999985    2.66000009
   16.10555649  136.87199402    4.90999985    2.66000009
   16.10888863  135.14300537    4.90999985    2.66000009
   16.11222267  122.01599884    4.90999985    2.67000008
   16.11527824  126.67199707    4.90999985    2.67000008
   16.12111092  126.67199707    4.90999985    2.66000009
   16.12527847  125.72000122    4.90999985    2.67000008
   16.12861061  141.16799927    4.90999985    2.67000008
   16.13194466  138.63499451    4.90999985    2.67000008
   16.13444519  126.35199738    4.90999985    2.66000009
   16.13555527  129.92700195    4.90999985    2.64000010
   16.13861084  118.10099792    4.90999985    2.66000009
   16.14194489  123.92400360    4.90999985    2.66000009
   16.14527702  132.83900452    4.90999985    2.67000008
   16.14833260  115.33699799    4.90999985    2.67000008
   16.15166664  128.50300598    4.90999985    2.67000008
   16.15499878  138.70599365    4.90999985    2.66000009
   16.15805435  133.00500488    4.90999985    2.66000009
   16.16416550  133.00500488    4.90999985    2.67000008
   16.16833305  128.06199646    4.90999985    2.67000008
   16.17138863  121.11299896    4.90999985    2.69000006
   16.17472076  141.24000549    4.90999985    2.66000009
   16.17805481  123.47699738    4.90999985    2.66000009
   16.18111038  136.38900757    4.90999985    2.67000008
   16.18444443  123.97899628    4.90999985    2.67000008
   16.18750000  122.88300323    4.90999985    2.67000008
   16.19083214  116.21900177    4.90999985    2.67000008
   16.19416618  127.35299683    4.90999985    2.67000008
   16.19722176  141.53500366    4.90999985    2.66000009
   16.20055580  143.31199646    4.90999985    2.67000008
   16.20111275  140.13900757    4.90999985    2.67000008
   16.20694542  140.13900757    4.90999985    2.67000008
   16.21111107  126.32099915    4.90999985    2.67000008
   16.21416664  144.51800537    4.90999985    2.66000009
   16.21750069  134.75999451    4.90999985    2.66000009
   16.22083473  143.17399597    4.90999985    2.67000008
   16.22389030  136.44099426    4.90999985    2.67000008
   16.22722244  132.41799927    4.90999985    2.66000009
   16.23055649  133.84500122    4.90999985    2.67000008
   16.23361206  132.67500305    4.90999985    2.69000006
   16.23444557  142.00999451    4.90999985    2.66000009
   16.23722267  142.62600708    4.90999985    2.67000008
   16.24027824  141.21600342    4.90999985    2.66000009
   16.24361229  117.99700165    4.90999985    2.67000008
   16.24972153  117.99700165    4.90999985    2.66000009
   16.25388908  137.91000366    4.90999985    2.66000009
   16.25722313  138.19599915    4.90999985    2.66000009
   16.26027870  116.46199799    4.90999985    2.66000009
   16.26361084  137.46000671    4.90999985    2.67000008
   16.26694489  128.69299316    4.90999985    2.67000008
   16.26777840  131.31300354    4.90999985    2.69000006
   16.27055550  112.18199921    4.90999985    2.67000008
   16.27361107  129.02600098    4.90999985    2.67000008
   16.27694511  127.36699677    4.90999985    2.67000008
   16.28027725  135.21099854    4.90999985    2.67000008
   16.28333282  143.88000488    4.90999985    2.66000009
   16.28666687  130.98399353    4.90999985    2.66000009
   16.29277802  130.98399353    4.90999985    2.66000009
   16.29666710  140.09599304    4.90999985    2.66000009
   16.29999924  130.69799805    4.90999985    2.67000008
   16.30111122  136.95199585    4.90999985    2.66000009
   16.30360985  144.09700012    4.90999985    2.66000009
   16.30666542  139.36500549    4.90999985    2.67000008
   16.30999947  123.66899872    4.90999985    2.66000009
   16.31333351  124.87599945    4.90999985    2.64000010
   16.31666756  126.54399872    4.90999985    2.67000008
   16.31972313  136.20199585    4.90999985    2.67000008
   16.32305717  136.22599792    4.90999985    2.67000008
   16.32611275  127.42199707    4.90999985    2.66000009
   16.32944489  128.92700195    4.90999985    2.67000008
   16.33555603  128.92700195    4.90999985    2.67000008
   16.33972359  139.25500488    4.90999985    2.64000010
   16.34277916  132.67199707    4.90999985    2.67000008
   16.34611130  132.00700378    4.90999985    2.66000009
   16.34916687  121.45300293    4.90999985    2.67000008
   16.35250092  138.48199463    4.90999985    2.64000010
   16.35583305  112.32800293    4.90999985    2.69000006
   16.35888863  128.97500610    4.90999985    2.67000008
   16.36222267  137.43400574    4.90999985    2.67000008
   16.36555672  132.82600403    4.90999985    2.67000008
   16.36777878  136.22500610    4.90999985    2.67000008
   16.36916733  138.26699829    4.90999985    2.67000008
   16.37222290  129.33399963    4.90999985    2.64000010
   16.37833405  129.33399963    4.90999985    2.67000008
   16.38249969  137.55599976    4.90999985    2.66000009
   16.38583374  129.05099487    4.90999985    2.66000009
   16.38888931  121.42600250    4.90999985    2.66000009
   16.39222145  121.22200012    4.90999985    2.67000008
   16.39555550  121.83200073    4.90999985    2.67000008
   16.39861107  130.33599854    4.90999985    2.66000009
   16.40111160  136.52499390    4.90999985    2.67000008
   16.40222168  117.51799774    4.90999985    2.67000008
   16.40527725  127.01300049    4.90999985    2.67000008
   16.40861130  120.19100189    4.90999985    2.66000009
   16.41194344  135.81199646    4.90999985    2.66000009
   16.41499901  134.61500549    4.90999985    2.69000006
   16.42111015  134.61500549    4.90999985    2.66000009
   16.42527771  122.02600098    4.90999985    2.66000009
   16.43527603  122.02600098    0.00000000    0.00000000
   16.43583298  122.02600098    0.00000000    0.00000000
   16.43861008  122.02600098    0.00000000    0.00000000
   16.44222069  122.02600098    0.00000000    0.00000000
   16.44555473  122.02600098    0.00000000    0.00000000
   16.44916534  122.02600098    0.00000000    0.00000000
   16.45250130  122.02600098    0.00000000    0.00000000
   16.45583344  122.02600098    0.00000000    0.00000000
   16.45944595  122.02600098    0.00000000    0.00000000
   16.46416664  122.02600098    0.00000000    0.00000000
   16.46861076  122.02600098    0.00000000    0.00000000
   16.46861076  122.02600098    0.00000000    0.00000000
   16.47138977  122.02600098    4.90999985    2.66000009
   16.47444534  122.02600098    4.90999985    2.66000009
   16.47750092  122.02600098    4.90999985    2.66000009
   16.48055649  122.02600098    4.90999985    2.66000009
   16.48361206  122.02600098    4.90999985    2.66000009
   16.48666763  122.02600098    4.90999985    2.66000009
   16.48972321  122.02600098    4.90999985    2.66000009
   16.49277878  122.02600098    4.90999985    2.66000009
   16.49583435  122.02600098    4.90999985    2.66000009
   16.49888992  122.02600098    4.90999985    2.66000009
   16.50194359  122.02600098    4.90999985    2.66000009
   16.50222206  122.02600098    4.90999985    2.66000009
   16.50638962  122.02600098    4.90999985    2.66000009
   16.51027870  122.02600098    4.90999985    2.66000009
   16.51333427  122.02600098    4.90999985    2.66000009
   16.51638794  122.02600098    4.90999985    2.66000009
   16.51944351  122.02600098    4.90999985    2.66000009
   16.52249908  122.02600098    4.90999985    2.66000009
   16.52555466  122.02600098    4.90999985    2.66000009
   16.52861023  122.02600098    4.90999985    2.66000009
   16.53166580  122.02600098    4.90999985    2.66000009
   16.53472137  122.02600098    4.90999985    2.66000009
   16.53527641  122.02600098    4.90999985    2.66000009
   16.53777695  122.02600098    4.90999985    2.66000009
   16.54083252  122.02600098    4.90999985    2.66000009
   16.54388809  122.02600098    4.90999985    2.66000009
   16.54944420  122.02600098    4.90999985    2.66000009
   16.55305481  122.02600098    4.90999985    2.66000009
   16.55611038  122.02600098    4.90999985    2.66000009
   16.55916595  122.02600098    4.90999985    2.66000009
   16.56222153  122.02600098    4.90999985    2.66000009
   16.56527710  122.02600098    4.90999985    2.66000009
   16.56833458  122.02600098    4.90999985    2.66000009
   16.56861115  122.02600098    4.90999985    2.66000009
   16.57139015  122.02600098    4.90999985    2.66000009
   16.57444572  122.02600098    4.90999985    2.66000009
   16.57750130  122.02600098    4.90999985    2.66000009
   16.58055687  122.02600098    4.90999985    2.66000009
   16.58361244  122.02600098    4.90999985    2.66000009
   16.58666801  122.02600098    4.90999985    2.66000009
   16.59222221  122.02600098    4.90999985    2.66000009
   16.59583473  122.02600098    4.90999985    2.66000009
   16.59889030  122.02600098    4.90999985    2.66000009
   16.60194397  122.02600098    4.90999985    2.66000009
   16.60222244  122.02600098    4.90999985    2.66000009
   16.60527802  122.02600098    4.90999985    2.66000009
   16.60833359  122.02600098    4.90999985    2.66000009
   16.61138916  122.02600098    4.90999985    2.66000009
   16.61444473  122.02600098    4.90999985    2.66000009
   16.61750031  122.02600098    4.90999985    2.66000009
   16.62055588  122.02600098    4.90999985    2.66000009
   16.62361145  122.02600098    4.90999985    2.66000009
   16.62666702  122.02600098    4.90999985    2.66000009
   16.62972260  122.02600098    4.90999985    2.66000009
   16.63500023  122.02600098    4.90999985    2.66000009
   16.63861084  122.02600098    4.90999985    2.66000009
   16.64166641  122.02600098    4.90999985    2.66000009
   16.64472198  122.02600098    4.90999985    2.66000009
   16.64777756  122.02600098    4.90999985    2.66000009
   16.65083313  122.02600098    4.90999985    2.66000009
   16.65388870  122.02600098    4.90999985    2.66000009
   16.65694427  122.02600098    4.90999985    2.66000009
   16.65999985  122.02600098    4.90999985    2.66000009
   16.66305542  122.02600098    4.90999985    2.66000009
   16.66611099  122.02600098    4.90999985    2.66000009
   16.66916656  122.02600098    4.90999985    2.66000009
   16.66972160  122.02600098    4.90999985    2.66000009
   16.67249870  122.02600098    4.90999985    2.66000009
   16.67777634  122.02600098    4.90999985    2.66000009
   16.68166542  122.02600098    4.90999985    2.66000009
   16.68472099  122.02600098    4.90999985    2.66000009
   16.68777657  122.02600098    4.90999985    2.66000009
   16.69083214  122.02600098    4.90999985    2.66000009
   16.69388771  122.02600098    4.90999985    2.66000009
   16.69694328  122.02600098    4.90999985    2.66000009
   16.70000076  122.02600098    4.90999985    2.66000009
   16.70305634  122.02600098    4.90999985    2.66000009
   16.70305634  122.02600098    4.90999985    2.66000009
   16.70611191  122.02600098    4.90999985    2.66000009
   16.70916748  122.02600098    4.90999985    2.66000009
   16.71222305  122.02600098    4.90999985    2.66000009
   16.71527863  122.02600098    4.90999985    2.66000009
   16.72083473  122.02600098    4.90999985    2.66000009
   16.72444534  122.02600098    4.90999985    2.66000009
   16.72750092  122.02600098    4.90999985    2.66000009
   16.73055649  122.02600098    4.90999985    2.66000009
   16.73361206  122.02600098    4.90999985    2.66000009
   16.73666763  122.02600098    4.90999985    2.66000009
   16.73666763  122.02600098    4.90999985    2.66000009
   16.73972321  122.02600098    4.90999985    2.66000009
   16.74277878  122.02600098    4.90999985    2.66000009
   16.74583435  122.02600098    4.90999985    2.66000009
   16.74888992  122.02600098    4.90999985    2.66000009
   16.75194359  122.02600098    4.90999985    2.66000009
   16.75499916  122.02600098    4.90999985    2.66000009
   16.75805473  122.02600098    4.90999985    2.66000009
   16.76361084  122.02600098    4.90999985    2.66000009
   16.76722145  122.02600098    4.90999985    2.66000009
   16.77000046  122.02600098    4.90999985    2.66000009
   16.77055550  122.02600098    4.90999985    2.66000009
   16.77361107  122.02600098    4.90999985    2.66000009
   16.77666664  122.02600098    4.90999985    2.66000009
   16.77972221  122.02600098    4.90999985    2.66000009
   16.78277779  122.02600098    4.90999985    2.66000009
   16.78583336  122.02600098    4.90999985    2.66000009
   16.78888893  122.02600098    4.90999985    2.66000009
   16.79194450  122.02600098    4.90999985    2.66000009
   16.79500008  122.02600098    4.90999985    2.66000009
   16.79805565  122.02600098    4.90999985    2.66000009
   16.80111122  122.02600098    4.90999985    2.66000009
   16.82139015  122.02600098    4.90999985    2.66000009
   16.82527924  122.02600098    4.90999985    2.66000009
   16.82833481  122.02600098    4.90999985    2.66000009
   16.83139038  122.02600098    4.90999985    2.66000009
   16.83444595  122.02600098    4.90999985    2.66000009
   16.83750153  122.02600098    4.90999985    2.66000009
   16.84055710  122.02600098    4.90999985    2.66000009
   16.84361267  122.02600098    4.90999985    2.66000009
   16.84666824  122.02600098    4.90999985    2.66000009
   16.84972191  122.02600098    4.90999985    2.66000009
   16.85222244  122.02600098    4.90999985    2.66000009
   16.85277748  122.02600098    4.90999985    2.66000009
   16.85583305  122.02600098    4.90999985    2.66000009
   16.85888863  122.02600098    4.90999985    2.66000009
   16.86416626  122.02600098    4.90999985    2.66000009
   16.86805534  122.02600098    4.90999985    2.66000009
   16.87111092  122.02600098    4.90999985    2.66000009
   16.87416649  122.02600098    4.90999985    2.66000009
   16.87722206  122.02600098    4.90999985    2.66000009
   16.88027763  122.02600098    4.90999985    2.66000009
   16.88333321  122.02600098    4.90999985    2.66000009
   16.88555527  122.02600098    4.90999985    2.66000009
   16.88638878  122.02600098    4.90999985    2.66000009
   16.88944435  122.02600098    4.90999985    2.66000009
   16.89249992  122.02600098    4.90999985    2.66000009
   16.89555550  122.02600098    4.90999985    2.66000009
   16.89861107  122.02600098    4.90999985    2.66000009
   16.90166664  122.02600098    4.90999985    2.66000009
   16.90722275  122.02600098    4.90999985    2.66000009
   16.91083336  122.02600098    4.90999985    2.66000009
   16.91388893  122.02600098    4.90999985    2.66000009
   16.91694450  122.02600098    4.90999985    2.66000009
   16.91916656  122.02600098    4.90999985    2.66000009
   16.92000008  122.02600098    4.90999985    2.66000009
   16.92305565  122.02600098    4.90999985    2.66000009
   16.92611122  122.02600098    4.90999985    2.66000009
   16.92916679  122.02600098    4.90999985    2.66000009
   16.93222237  122.02600098    4.90999985    2.66000009
   16.93527603  122.02600098    4.90999985    2.66000009
   16.93833160  122.02600098    4.90999985    2.66000009
   16.94138718  122.02600098    4.90999985    2.66000009
   16.94444275  122.02600098    4.90999985    2.66000009
   16.95000076  122.02600098    4.90999985    2.66000009
   16.95361137  122.02600098    4.90999985    2.66000009
   16.95666695  122.02600098    4.90999985    2.66000009
   16.95972252  122.02600098    4.90999985    2.66000009
   16.96277809  122.02600098    4.90999985    2.66000009
   16.96583366  122.02600098    4.90999985    2.66000009
   16.96888924  122.02600098    4.90999985    2.66000009
   16.97194481  122.02600098    4.90999985    2.66000009
   16.97500038  122.02600098    4.90999985    2.66000009
   16.97805595  122.02600098    4.90999985    2.66000009
   16.98111153  122.02600098    4.90999985    2.66000009
   16.98416710  122.02600098    4.90999985    2.66000009
   16.98583412  122.02600098    4.90999985    2.66000009
   16.98750114  122.02600098    4.90999985    2.66000009
   16.99277878  122.02600098    4.90999985    2.66000009
   16.99666786  122.02600098    4.90999985    2.66000009
   16.99972153  122.02600098    4.90999985    2.66000009
   17.00277710  122.02600098    4.90999985    2.66000009
   17.00583267  122.02600098    4.90999985    2.66000009
   17.00888824  122.02600098    4.90999985    2.66000009
   17.01194382  122.02600098    4.90999985    2.66000009
   17.01499939  122.02600098    4.90999985    2.66000009
   17.01805496  122.02600098    4.90999985    2.66000009
   17.01916695  122.02600098    4.90999985    2.66000009
   17.02111053  122.02600098    4.90999985    2.66000009
   17.02416611  122.02600098    4.90999985    2.66000009
   17.02722168  122.02600098    4.90999985    2.66000009
   17.03027725  122.02600098    4.90999985    2.66000009
   17.03555489  122.02600098    4.90999985    2.66000009
   17.03944397  122.02600098    4.90999985    2.66000009
   17.04249954  122.02600098    4.90999985    2.66000009
   17.04555511  122.02600098    4.90999985    2.66000009
   17.04861069  122.02600098    4.90999985    2.66000009
   17.05166626  122.02600098    4.90999985    2.66000009
   17.05249977  122.02600098    4.90999985    2.66000009
   17.05472183  122.02600098    4.90999985    2.66000009
   17.05777740  122.02600098    4.90999985    2.66000009
   17.06083298  122.02600098    4.90999985    2.66000009
   17.06388855  122.02600098    4.90999985    2.66000009
   17.06694603  122.02600098    4.90999985    2.66000009
   17.07000160  122.02600098    4.90999985    2.66000009
   17.07305717  122.02600098    4.90999985    2.66000009
   17.07861137  122.02600098    4.90999985    2.66000009
   17.08222389  122.02600098    4.90999985    2.66000009
   17.08527756  122.02600098    4.90999985    2.66000009
   17.08583450  122.02600098    4.90999985    2.66000009
   17.08833313  122.02600098    4.90999985    2.66000009
   17.09138870  122.02600098    4.90999985    2.66000009
   17.09444427  122.02600098    4.90999985    2.66000009
   17.09749985  122.02600098    4.90999985    2.66000009
   17.10055542  122.02600098    4.90999985    2.66000009
   17.10361099  122.02600098    4.90999985    2.66000009
   17.10666656  122.02600098    4.90999985    2.66000009
   17.10972214  122.02600098    4.90999985    2.66000009
   17.11277771  122.02600098    4.90999985    2.66000009
   17.11583328  122.02600098    4.90999985    2.66000009
   17.12138939  122.02600098    4.90999985    2.66000009
   17.12500000  122.02600098    4.90999985    2.66000009
   17.12805557  122.02600098    4.90999985    2.66000009
   17.13111115  122.02600098    4.90999985    2.66000009
   17.13416672  122.02600098    4.90999985    2.66000009
   17.13722229  122.02600098    4.90999985    2.66000009
   17.14027786  122.02600098    4.90999985    2.66000009
   17.14333344  122.02600098    4.90999985    2.66000009
   17.14638901  122.02600098    4.90999985    2.66000009
   17.14944458  122.02600098    4.90999985    2.66000009
   17.15250015  122.02600098    4.90999985    2.66000009
   17.15250015  122.02600098    4.90999985    2.66000009
   17.15555573  122.02600098    4.90999985    2.66000009
   17.15861130  122.02600098    4.90999985    2.66000009
   17.16416550  122.02600098    4.90999985    2.66000009
   17.16777802  122.02600098    4.90999985    2.66000009
   17.17083359  122.02600098    4.90999985    2.66000009
   17.17388916  122.02600098    4.90999985    2.66000009
   17.17694473  122.02600098    4.90999985    2.66000009
   17.18000031  122.02600098    4.90999985    2.66000009
   17.18305397  122.02600098    4.90999985    2.66000009
   17.18583298  122.02600098    4.90999985    2.66000009
   17.18610954  122.02600098    4.90999985    2.66000009
   17.18916512  122.02600098    4.90999985    2.66000009
   17.19222069  122.02600098    4.90999985    2.66000009
   17.19527626  122.02600098    4.90999985    2.66000009
   17.19833183  122.02600098    4.90999985    2.66000009
   17.20138931  122.02600098    4.90999985    2.66000009
   17.20694542  122.02600098    4.90999985    2.66000009
   17.21083450  122.02600098    4.90999985    2.66000009
   17.21389008  122.02600098    4.90999985    2.66000009
   17.21694565  122.02600098    4.90999985    2.66000009
   17.21944427  122.02600098    4.90999985    2.66000009
   17.22000122  122.02600098    4.90999985    2.66000009
   17.22305679  122.02600098    4.90999985    2.66000009
   17.22611237  122.02600098    4.90999985    2.66000009
   17.22916794  122.02600098    4.90999985    2.66000009
   17.23222351  122.02600098    4.90999985    2.66000009
   17.23527718  122.02600098    4.90999985    2.66000009
   17.23833275  122.02600098    4.90999985    2.66000009
   17.24138832  122.02600098    4.90999985    2.66000009
   17.24444389  122.02600098    4.90999985    2.66000009
   17.25000000  122.02600098    4.90999985    2.66000009
   17.25361061  122.02600098    4.90999985    2.66000009
   17.25666618  122.02600098    4.90999985    2.66000009
   17.25972176  122.02600098    4.90999985    2.66000009
   17.26277733  122.02600098    4.90999985    2.66000009
   17.26583290  122.02600098    4.90999985    2.66000009
   17.26888847  122.02600098    4.90999985    2.66000009
   17.27194405  122.02600098    4.90999985    2.66000009
   17.27499962  122.02600098    4.90999985    2.66000009
   17.27805519  122.02600098    4.90999985    2.66000009
   17.28111076  122.02600098    4.90999985    2.66000009
   17.28416634  122.02600098    4.90999985    2.66000009
   17.28610992  122.02600098    4.90999985    2.66000009
   17.28722191  122.02600098    4.90999985    2.66000009
   17.29277802  122.02600098    4.90999985    2.66000009
   17.29638863  122.02600098    4.90999985    2.66000009
   17.29944420  122.02600098    4.90999985    2.66000009
   17.30249977  122.02600098    4.90999985    2.66000009
   17.30555534  122.02600098    4.90999985    2.66000009
   17.30861092  122.02600098    4.90999985    2.66000009
   17.31166649  122.02600098    4.90999985    2.66000009
   17.31472206  122.02600098    4.90999985    2.66000009
   17.31777954  122.02600098    4.90999985    2.66000009
   17.31944466  122.02600098    4.90999985    2.66000009
   17.32083511  122.02600098    4.90999985    2.66000009
   17.32389069  122.02600098    4.90999985    2.66000009
   17.32694626  122.02600098    4.90999985    2.66000009
   17.33000183  122.02600098    4.90999985    2.66000009
   17.33555603  122.02600098    4.90999985    2.66000009
   17.33916664  122.02600098    4.90999985    2.66000009
   17.34222221  122.02600098    4.90999985    2.66000009
   17.34527779  122.02600098    4.90999985    2.66000009
   17.34833336  122.02600098    4.90999985    2.66000009
   17.35138893  122.02600098    4.90999985    2.66000009
   17.35277748  122.02600098    4.90999985    2.66000009
   17.35444450  122.02600098    4.90999985    2.66000009
   17.35750008  122.02600098    4.90999985    2.66000009
   17.36055565  122.02600098    4.90999985    2.66000009
   17.36361122  122.02600098    4.90999985    2.66000009
   17.36666679  122.02600098    4.90999985    2.66000009
   17.36972237  122.02600098    4.90999985    2.66000009
   17.37277794  122.02600098    4.90999985    2.66000009
   17.37833405  122.02600098    4.90999985    2.66000009
   17.38222313  122.02600098    4.90999985    2.66000009
   17.38527679  122.02600098    4.90999985    2.66000009
   17.38611031  122.02600098    4.90999985    2.66000009
   17.38833237  122.02600098    4.90999985    2.66000009
   17.39138794  122.02600098    4.90999985    2.66000009
   17.39444351  122.02600098    4.90999985    2.66000009
   17.39749908  122.02600098    4.90999985    2.66000009
   17.40055466  122.02600098    4.90999985    2.66000009
   17.40361023  122.02600098    4.90999985    2.66000009
   17.40666580  122.02600098    4.90999985    2.66000009
   17.40972137  122.02600098    4.90999985    2.66000009
   17.41277695  122.02600098    4.90999985    2.66000009
   17.41583252  122.02600098    4.90999985    2.66000009
   17.42138863  122.02600098    4.90999985    2.66000009
   17.42499924  122.02600098    4.90999985    2.66000009
   17.42805481  122.02600098    4.90999985    2.66000009
   17.43111038  122.02600098    4.90999985    2.66000009
   17.43416595  122.02600098    4.90999985    2.66000009
   17.43722153  122.02600098    4.90999985    2.66000009
   17.44027710  122.02600098    4.90999985    2.66000009
   17.44333267  122.02600098    4.90999985    2.66000009
   17.44638824  122.02600098    4.90999985    2.66000009
   17.44944382  122.02600098    4.90999985    2.66000009
   17.45250130  122.02600098    4.90999985    2.66000009
   17.45277786  122.02600098    4.90999985    2.66000009
   17.45555687  122.02600098    4.90999985    2.66000009
   17.45861244  122.02600098    4.90999985    2.66000009
   17.46416664  122.02600098    4.90999985    2.66000009
   17.46777916  122.02600098    4.90999985    2.66000009
   17.47083473  122.02600098    4.90999985    2.66000009
   17.47389030  122.02600098    4.90999985    2.66000009
   17.47694588  122.02600098    4.90999985    2.66000009
   17.48000145  122.02600098    4.90999985    2.66000009
   17.48305511  122.02600098    4.90999985    2.66000009
   17.48611069  122.02600098    4.90999985    2.66000009
   17.48611069  122.02600098    4.90999985    2.66000009
   17.48916626  122.02600098    4.90999985    2.66000009
   17.49222183  122.02600098    4.90999985    2.66000009
   17.49527740  122.02600098    4.90999985    2.66000009
   17.49833298  122.02600098    4.90999985    2.66000009
   17.50138855  122.02600098    4.90999985    2.66000009
   17.50694466  122.02600098    4.90999985    2.66000009
   17.51055527  122.02600098    4.90999985    2.66000009
   17.51361084  122.02600098    4.90999985    2.66000009
   17.51666641  122.02600098    4.90999985    2.66000009
   17.51972198  122.02600098    4.90999985    2.66000009
   17.52000046  122.02600098    4.90999985    2.66000009
   17.52305603  122.02600098    4.90999985    2.66000009
   17.52611160  122.02600098    4.90999985    2.66000009
   17.52916718  122.02600098    4.90999985    2.66000009
   17.53222275  122.02600098    4.90999985    2.66000009
   17.53527641  122.02600098    4.90999985    2.66000009
   17.53833199  122.02600098    4.90999985    2.66000009
   17.54138756  122.02600098    4.90999985    2.66000009
   17.54444313  122.02600098    4.90999985    2.66000009
   17.54972076  122.02600098    4.90999985    2.66000009
   17.55360985  122.02600098    4.90999985    2.66000009
   17.55666542  122.02600098    4.90999985    2.66000009
   17.55972099  122.02600098    4.90999985    2.66000009
   17.56277657  122.02600098    4.90999985    2.66000009
   17.56583214  122.02600098    4.90999985    2.66000009
   17.56888962  122.02600098    4.90999985    2.66000009
   17.57194519  122.02600098    4.90999985    2.66000009
   17.57500076  122.02600098    4.90999985    2.66000009
   17.57805634  122.02600098    4.90999985    2.66000009
   17.58111191  122.02600098    4.90999985    2.66000009
   17.58416748  122.02600098    4.90999985    2.66000009
   17.58638954  122.02600098    4.90999985    2.66000009
   17.58722305  122.02600098    4.90999985    2.66000009
   17.59277916  122.02600098    4.90999985    2.66000009
   17.59638977  122.02600098    4.90999985    2.66000009
   17.59944534  122.02600098    4.90999985    2.66000009
   17.60250092  122.02600098    4.90999985    2.66000009
   17.60555649  122.02600098    4.90999985    2.66000009
   17.60861206  122.02600098    4.90999985    2.66000009
   17.61166763  122.02600098    4.90999985    2.66000009
   17.61472321  122.02600098    4.90999985    2.66000009
   17.61777878  122.02600098    4.90999985    2.66000009
   17.61972237  122.02600098    4.90999985    2.66000009
   17.62083435  122.02600098    4.90999985    2.66000009
   17.62388992  122.02600098    4.90999985    2.66000009
   17.62694550  122.02600098    4.90999985    2.66000009
   17.63000107  122.02600098    4.90999985    2.66000009
   17.63555527  122.02600098    4.90999985    2.66000009
   17.63916588  122.02600098    4.90999985    2.66000009
   17.64222145  122.02600098    4.90999985    2.66000009
   17.64527702  122.02600098    4.90999985    2.66000009
   17.64833260  122.02600098    4.90999985    2.66000009
   17.65138817  122.02600098    4.90999985    2.66000009
   17.65305519  122.02600098    4.90999985    2.66000009
   17.65444374  122.02600098    4.90999985    2.66000009
   17.65749931  122.02600098    4.90999985    2.66000009
   17.66055489  122.02600098    4.90999985    2.66000009
   17.66361046  122.02600098    4.90999985    2.66000009
   17.66666603  122.02600098    4.90999985    2.66000009
   17.66972160  122.02600098    4.90999985    2.66000009
   17.67277718  122.02600098    4.90999985    2.66000009
   17.67833328  122.02600098    4.90999985    2.66000009
   17.68194389  122.02600098    4.90999985    2.66000009
   17.68499947  122.02600098    4.90999985    2.66000009
   17.68638802  122.02600098    4.90999985    2.66000009
   17.68805504  122.02600098    4.90999985    2.66000009
   17.69111061  122.02600098    4.90999985    2.66000009
   17.69416618  122.02600098    4.90999985    2.66000009
   17.69722176  122.02600098    4.90999985    2.66000009
   17.70027924  122.02600098    4.90999985    2.66000009
   17.70333481  122.02600098    4.90999985    2.66000009
   17.70639038  122.02600098    4.90999985    2.66000009
   17.70944595  122.02600098    4.90999985    2.66000009
   17.71250153  122.02600098    4.90999985    2.66000009
   17.71555710  122.02600098    4.90999985    2.66000009
   17.72111130  122.02600098    4.90999985    2.66000009
   17.72500038  122.02600098    4.90999985    2.66000009
   17.72805595  122.02600098    4.90999985    2.66000009
   17.73111153  122.02600098    4.90999985    2.66000009
   17.73416710  122.02600098    4.90999985    2.66000009
   17.73722267  122.02600098    4.90999985    2.66000009
   17.74027824  122.02600098    4.90999985    2.66000009
   17.74333382  122.02600098    4.90999985    2.66000009
   17.74638939  122.02600098    4.90999985    2.66000009
   17.74944496  122.02600098    4.90999985    2.66000009
   17.75250053  122.02600098    4.90999985    2.66000009
   17.75305557  122.02600098    4.90999985    2.66000009
   17.75555611  122.02600098    4.90999985    2.66000009
   17.75861168  122.02600098    4.90999985    2.66000009
   17.76388931  122.02600098    4.90999985    2.66000009
   17.76777840  122.02600098    4.90999985    2.66000009
   17.77083397  122.02600098    4.90999985    2.66000009
   17.77388954  122.02600098    4.90999985    2.66000009
   17.77694511  122.02600098    4.90999985    2.66000009
   17.78000069  122.02600098    4.90999985    2.66000009
   17.78305435  122.02600098    4.90999985    2.66000009
   17.78610992  122.02600098    4.90999985    2.66000009
   17.78638840  122.02600098    4.90999985    2.66000009
   17.78916550  122.02600098    4.90999985    2.66000009
   17.79222107  122.02600098    4.90999985    2.66000009
   17.79527664  122.02600098    4.90999985    2.66000009
   17.79833221  122.02600098    4.90999985    2.66000009
   17.80138779  122.02600098    4.90999985    2.66000009
   17.80694389  122.02600098    4.90999985    2.66000009
   17.81055450  122.02600098    4.90999985    2.66000009
   17.81361008  122.02600098    4.90999985    2.66000009
   17.81666756  122.02600098    4.90999985    2.66000009
   17.83500099  122.02600098    4.90999985    2.66000009
   17.83611107  122.02600098    4.90999985    2.66000009
   17.83916664  122.02600098    4.90999985    2.66000009
   17.84222221  122.02600098    4.90999985    2.66000009
   17.84527779  122.02600098    4.90999985    2.66000009
   17.84972191  122.02600098    4.90999985    2.66000009
   17.85361099  122.02600098    4.90999985    2.66000009
   17.85666656  122.02600098    4.90999985    2.66000009
   17.85972214  122.02600098    4.90999985    2.66000009
   17.86277771  122.02600098    4.90999985    2.66000009
   17.86583328  122.02600098    4.90999985    2.66000009
   17.86833382  122.02600098    4.90999985    2.66000009
   17.86888885  122.02600098    4.90999985    2.66000009
   17.87194443  122.02600098    4.90999985    2.66000009
   17.87500000  122.02600098    4.90999985    2.66000009
   17.87805557  122.02600098    4.90999985    2.66000009
   17.88111115  122.02600098    4.90999985    2.66000009
   17.88416672  122.02600098    4.90999985    2.66000009
   17.88722229  122.02600098    4.90999985    2.66000009
   17.89277840  122.02600098    4.90999985    2.66000009
   17.89638901  122.02600098    4.90999985    2.66000009
   17.89944458  122.02600098    4.90999985    2.66000009
   17.90166664  122.02600098    4.90999985    2.66000009
   17.90250015  122.02600098    4.90999985    2.66000009
   17.90555573  122.02600098    4.90999985    2.66000009
   17.90861130  122.02600098    4.90999985    2.66000009
   17.91166687  122.02600098    4.90999985    2.66000009
   17.91472244  122.02600098    4.90999985    2.66000009
   17.91777802  122.02600098    4.90999985    2.66000009
   17.92083359  122.02600098    4.90999985    2.66000009
   17.92388916  122.02600098    4.90999985    2.66000009
   17.92694473  122.02600098    4.90999985    2.66000009
   17.93000031  122.02600098    4.90999985    2.66000009
   17.93555450  122.02600098    4.90999985    2.66000009
   17.93916512  122.02600098    4.90999985    2.66000009
   17.94222069  122.02600098    4.90999985    2.66000009
   17.94527626  122.02600098    4.90999985    2.66000009
   17.94833183  122.02600098    4.90999985    2.66000009
   17.95138931  122.02600098    4.90999985    2.66000009
   17.95444489  122.02600098    4.90999985    2.66000009
   17.95750046  122.02600098    4.90999985    2.66000009
   17.96055603  122.02600098    4.90999985    2.66000009
   17.96361160  122.02600098    4.90999985    2.66000009
   17.96666718  122.02600098    4.90999985    2.66000009
   17.96833420  122.02600098    4.90999985    2.66000009
   17.96972275  122.02600098    4.90999985    2.66000009
   17.97277832  122.02600098    4.90999985    2.66000009
   17.97833443  122.02600098    4.90999985    2.66000009
   17.98222351  122.02600098    4.90999985    2.66000009
   17.98527718  122.02600098    4.90999985    2.66000009
   17.98833275  122.02600098    4.90999985    2.66000009
   17.99138832  122.02600098    4.90999985    2.66000009
   17.99444389  122.02600098    4.90999985    2.66000009
   17.99749947  122.02600098    4.90999985    2.66000009
   18.00055504  122.02600098    4.90999985    2.66000009
   18.00166702  122.02600098    4.90999985    2.66000009
   18.00361061  122.02600098    4.90999985    2.66000009
   18.00666618  122.02600098    4.90999985    2.66000009
   18.00972176  122.02600098    4.90999985    2.66000009
   18.01277733  122.02600098    4.90999985    2.66000009
   18.01583290  122.02600098    4.90999985    2.66000009
   18.02111053  122.02600098    4.90999985    2.66000009
   18.02499962  122.02600098    4.90999985    2.66000009
   18.02805519  122.02600098    4.90999985    2.66000009
   18.03111076  122.02600098    4.90999985    2.66000009
   18.03416634  122.02600098    4.90999985    2.66000009
   18.03499985  122.02600098    4.90999985    2.66000009
   18.03722191  122.02600098    4.90999985    2.66000009
   18.04027748  122.02600098    4.90999985    2.66000009
   18.04333305  122.02600098    4.90999985    2.66000009
   18.04638863  122.02600098    4.90999985    2.66000009
   18.04944420  122.02600098    4.90999985    2.66000009
   18.05249977  122.02600098    4.90999985    2.66000009
   18.05555534  122.02600098    4.90999985    2.66000009
   18.05861092  122.02600098    4.90999985    2.66000009
   18.06416512  122.02600098    4.90999985    2.66000009
   18.06777954  122.02600098    4.90999985    2.66000009
   18.06833458  122.02600098    4.90999985    2.66000009
   18.07083511  122.02600098    4.90999985    2.66000009
   18.07389069  122.02600098    4.90999985    2.66000009
   18.07694626  122.02600098    4.90999985    2.66000009
   18.08000183  122.02600098    4.90999985    2.66000009
   18.08305550  122.02600098    4.90999985    2.66000009
   18.08611107  122.02600098    4.90999985    2.66000009
   18.08916664  122.02600098    4.90999985    2.66000009
   18.09222221  122.02600098    4.90999985    2.66000009
   18.09527779  122.02600098    4.90999985    2.66000009
   18.09833336  122.02600098    4.90999985    2.66000009
   18.10138893  122.02600098    4.90999985    2.66000009
   18.10166740  122.02600098    4.90999985    2.66000009
   18.10694504  122.02600098    4.90999985    2.66000009
   18.11055565  122.02600098    4.90999985    2.66000009
   18.11361122  122.02600098    4.90999985    2.66000009
   18.11666679  122.02600098    4.90999985    2.66000009
   18.11972237  122.02600098    4.90999985    2.66000009
   18.12277794  122.02600098    4.90999985    2.66000009
   18.12583351  122.02600098    4.90999985    2.66000009
   18.12888908  122.02600098    4.90999985    2.66000009
   18.13194466  122.02600098    4.90999985    2.66000009
   18.13500023  122.02600098    4.90999985    2.66000009
   18.13500023  122.02600098    4.90999985    2.66000009
   18.13805580  122.02600098    4.90999985    2.66000009
   18.14111137  122.02600098    4.90999985    2.66000009
   18.14416695  122.02600098    4.90999985    2.66000009
   18.14972115  122.02600098    4.90999985    2.66000009
   18.15333366  122.02600098    4.90999985    2.66000009
   18.15638924  122.02600098    4.90999985    2.66000009
   18.15944481  122.02600098    4.90999985    2.66000009
   18.16250038  122.02600098    4.90999985    2.66000009
   18.16555595  122.02600098    4.90999985    2.66000009
   18.16833305  122.02600098    4.90999985    2.66000009
   18.16888809  122.02600098    4.90999985    2.66000009
   18.17194366  122.02600098    4.90999985    2.66000009
   18.17499924  122.02600098    4.90999985    2.66000009
   18.17805481  122.02600098    4.90999985    2.66000009
   18.18111038  122.02600098    4.90999985    2.66000009
   18.18416595  122.02600098    4.90999985    2.66000009
   18.18722153  122.02600098    4.90999985    2.66000009
   18.19249916  122.02600098    4.90999985    2.66000009
   18.19638824  122.02600098    4.90999985    2.66000009
   18.19944382  122.02600098    4.90999985    2.66000009
   18.20166779  122.02600098    4.90999985    2.66000009
   18.20250130  122.02600098    4.90999985    2.66000009
   18.20555687  122.02600098    4.90999985    2.66000009
   18.20861244  122.02600098    4.90999985    2.66000009
   18.21166801  122.02600098    4.90999985    2.66000009
   18.21472359  122.02600098    4.90999985    2.66000009
   18.21777916  122.02600098    4.90999985    2.66000009
   18.22083473  122.02600098    4.90999985    2.66000009
   18.22389030  122.02600098    4.90999985    2.66000009
   18.22694588  122.02600098    4.90999985    2.66000009
   18.23000145  122.02600098    4.90999985    2.66000009
   18.23555565  122.02600098    4.90999985    2.66000009
   18.23916626  122.02600098    4.90999985    2.66000009
   18.24222183  122.02600098    4.90999985    2.66000009
   18.24527740  122.02600098    4.90999985    2.66000009
   18.24833298  122.02600098    4.90999985    2.66000009
   18.25138855  122.02600098    4.90999985    2.66000009
   18.25444412  122.02600098    4.90999985    2.66000009
   18.25749969  122.02600098    4.90999985    2.66000009
   18.26055527  122.02600098    4.90999985    2.66000009
   18.26361084  122.02600098    4.90999985    2.66000009
   18.26666641  122.02600098    4.90999985    2.66000009
   18.26833344  122.02600098    4.90999985    2.66000009
   18.26972198  122.02600098    4.90999985    2.66000009
   18.27277756  122.02600098    4.90999985    2.66000009
   18.27833366  122.02600098    4.90999985    2.66000009
   18.28194427  122.02600098    4.90999985    2.66000009
   18.28499985  122.02600098    4.90999985    2.66000009
   18.28805542  122.02600098    4.90999985    2.66000009
   18.29111099  122.02600098    4.90999985    2.66000009
   18.29416656  122.02600098    4.90999985    2.66000009
   18.29722214  122.02600098    4.90999985    2.66000009
   18.30027771  122.02600098    4.90999985    2.66000009
   18.30166626  122.02600098    4.90999985    2.66000009
   18.30333328  122.02600098    4.90999985    2.66000009
   18.30638885  122.02600098    4.90999985    2.66000009
   18.30944443  122.02600098    4.90999985    2.66000009
   18.31250000  122.02600098    4.90999985    2.66000009
   18.31555557  122.02600098    4.90999985    2.66000009
   18.32111168  122.02600098    4.90999985    2.66000009
   18.32472229  122.02600098    4.90999985    2.66000009
   18.32777786  122.02600098    4.90999985    2.66000009
   18.33083344  122.02600098    4.90999985    2.66000009
   18.33388901  122.02600098    4.90999985    2.66000009
   18.33500099  122.02600098    4.90999985    2.66000009
   18.33694458  122.02600098    4.90999985    2.66000009
   18.34000015  122.02600098    4.90999985    2.66000009
   18.34305573  122.02600098    4.90999985    2.66000009
   18.34611130  122.02600098    4.90999985    2.66000009
   18.34916687  122.02600098    4.90999985    2.66000009
   18.35222244  122.02600098    4.90999985    2.66000009
   18.35527802  122.02600098    4.90999985    2.66000009
   18.35833359  122.02600098    4.90999985    2.66000009
   18.36388969  122.02600098    4.90999985    2.66000009
   18.36777878  122.02600098    4.90999985    2.66000009
   18.36833382  122.02600098    4.90999985    2.66000009
   18.37083435  122.02600098    4.90999985    2.66000009
   18.37388992  122.02600098    4.90999985    2.66000009
   18.37694550  122.02600098    4.90999985    2.66000009
   18.38000107  122.02600098    4.90999985    2.66000009
   18.38305473  122.02600098    4.90999985    2.66000009
   18.38611031  122.02600098    4.90999985    2.66000009
   18.38916588  122.02600098    4.90999985    2.66000009
   18.39222145  122.02600098    4.90999985    2.66000009
   18.39527702  122.02600098    4.90999985    2.66000009
   18.39833260  122.02600098    4.90999985    2.66000009
   18.40138817  122.02600098    4.90999985    2.66000009
   18.40166664  122.02600098    4.90999985    2.66000009
   18.40694427  122.02600098    4.90999985    2.66000009
   18.41055489  122.02600098    4.90999985    2.66000009
   18.41361046  122.02600098    4.90999985    2.66000009
   18.41666603  122.02600098    4.90999985    2.66000009
   18.41972160  122.02600098    4.90999985    2.66000009
   18.42277718  122.02600098    4.90999985    2.66000009
   18.42583275  122.02600098    4.90999985    2.66000009
   18.42888832  122.02600098    4.90999985    2.66000009
   18.43194389  122.02600098    4.90999985    2.66000009
   18.43499947  122.02600098    4.90999985    2.66000009
   18.43499947  122.02600098    4.90999985    2.66000009
   18.43805504  122.02600098    4.90999985    2.66000009
   18.44111061  122.02600098    4.90999985    2.66000009
   18.44416618  122.02600098    4.90999985    2.66000009
   18.44972038  122.02600098    4.90999985    2.66000009
   18.45333481  122.02600098    4.90999985    2.66000009
   18.45639038  122.02600098    4.90999985    2.66000009
   18.45944595  122.02600098    4.90999985    2.66000009
   18.46250153  122.02600098    4.90999985    2.66000009
   18.46555710  122.02600098    4.90999985    2.66000009
   18.46833420  122.02600098    4.90999985    2.66000009
   18.46861076  122.02600098    4.90999985    2.66000009
   18.47166634  122.02600098    4.90999985    2.66000009
   18.47472191  122.02600098    4.90999985    2.66000009
   18.47777748  122.02600098    4.90999985    2.66000009
   18.48083305  122.02600098    4.90999985    2.66000009
   18.48388863  122.02600098    4.90999985    2.66000009
   18.48694420  122.02600098    4.90999985    2.66000009
   18.49250031  122.02600098    4.90999985    2.66000009
   18.49611092  122.02600098    4.90999985    2.66000009
   18.49916649  122.02600098    4.90999985    2.66000009
   18.50166702  122.02600098    4.90999985    2.66000009
   18.50250053  122.02600098    4.90999985    2.66000009
   18.50555611  122.02600098    4.90999985    2.66000009
   18.50861168  122.02600098    4.90999985    2.66000009
   18.51166725  122.02600098    4.90999985    2.66000009
   18.51472282  122.02600098    4.90999985    2.66000009
   18.51777840  122.02600098    4.90999985    2.66000009
   18.52083397  122.02600098    4.90999985    2.66000009
   18.52388954  122.02600098    4.90999985    2.66000009
   18.52694511  122.02600098    4.90999985    2.66000009
   18.53000069  122.02600098    4.90999985    2.66000009
   18.53527641  122.02600098    4.90999985    2.66000009
   18.53916550  122.02600098    4.90999985    2.66000009
   18.54222107  122.02600098    4.90999985    2.66000009
   18.54527664  122.02600098    4.90999985    2.66000009
   18.54833221  122.02600098    4.90999985    2.66000009
   18.55138779  122.02600098    4.90999985    2.66000009
   18.55444336  122.02600098    4.90999985    2.66000009
   18.55749893  122.02600098    4.90999985    2.66000009
   18.56055450  122.02600098    4.90999985    2.66000009
   18.56361008  122.02600098    4.90999985    2.66000009
   18.56666756  122.02600098    4.90999985    2.66000009
   18.56833458  122.02600098    4.90999985    2.66000009
   18.56972313  122.02600098    4.90999985    2.66000009
   18.57277870  122.02600098    4.90999985    2.66000009
   18.57805634  122.02600098    4.90999985    2.66000009
   18.58194542  122.02600098    4.90999985    2.66000009
   18.58500099  122.02600098    4.90999985    2.66000009
   18.58805656  122.02600098    4.90999985    2.66000009
   18.59111214  122.02600098    4.90999985    2.66000009
   18.59416771  122.02600098    4.90999985    2.66000009
   18.59722328  122.02600098    4.90999985    2.66000009
   18.60027885  122.02600098    4.90999985    2.66000009
   18.60166740  122.02600098    4.90999985    2.66000009
   18.60333443  122.02600098    4.90999985    2.66000009
   18.60639000  122.02600098    4.90999985    2.66000009
   18.60944557  122.02600098    4.90999985    2.66000009
   18.61250114  122.02600098    4.90999985    2.66000009
   18.61555672  122.02600098    4.90999985    2.66000009
   18.62111092  122.02600098    4.90999985    2.66000009
   18.62472153  122.02600098    4.90999985    2.66000009
   18.62777710  122.02600098    4.90999985    2.66000009
   18.63083267  122.02600098    4.90999985    2.66000009
   18.63388824  122.02600098    4.90999985    2.66000009
   18.63500023  122.02600098    4.90999985    2.66000009
   18.63694382  122.02600098    4.90999985    2.66000009
   18.63999939  122.02600098    4.90999985    2.66000009
   18.64305496  122.02600098    4.90999985    2.66000009
   18.64611053  122.02600098    4.90999985    2.66000009
   18.64916611  122.02600098    4.90999985    2.66000009
   18.65222168  122.02600098    4.90999985    2.66000009
   18.65527725  122.02600098    4.90999985    2.66000009
   18.65833282  122.02600098    4.90999985    2.66000009
   18.66388893  122.02600098    4.90999985    2.66000009
   18.66749954  122.02600098    4.90999985    2.66000009
   18.66833305  122.02600098    4.90999985    2.66000009
   18.67055511  122.02600098    4.90999985    2.66000009
   18.67361069  122.02600098    4.90999985    2.66000009
   18.67666626  122.02600098    4.90999985    2.66000009
   18.67972183  122.02600098    4.90999985    2.66000009
   18.68277740  122.02600098    4.90999985    2.66000009
   18.68583298  122.02600098    4.90999985    2.66000009
   18.68888855  122.02600098    4.90999985    2.66000009
   18.69194412  122.02600098    4.90999985    2.66000009
   18.69499969  122.02600098    4.90999985    2.66000009
   18.69805527  122.02600098    4.90999985    2.66000009
   18.70111275  122.02600098    4.90999985    2.66000009
   18.70166779  122.02600098    4.90999985    2.66000009
   18.70666695  122.02600098    4.90999985    2.66000009
   18.71055603  122.02600098    4.90999985    2.66000009
   18.71361160  122.02600098    4.90999985    2.66000009
   18.71666718  122.02600098    4.90999985    2.66000009
   18.71972275  122.02600098    4.90999985    2.66000009
   18.72277832  122.02600098    4.90999985    2.66000009
   18.72583389  122.02600098    4.90999985    2.66000009
   18.72888947  122.02600098    4.90999985    2.66000009
   18.73194504  122.02600098    4.90999985    2.66000009
   18.73500061  122.02600098    4.90999985    2.66000009
   18.73500061  122.02600098    4.90999985    2.66000009
   18.73805618  122.02600098    4.90999985    2.66000009
   18.74111176  122.02600098    4.90999985    2.66000009
   18.74416733  122.02600098    4.90999985    2.66000009
   18.74944496  122.02600098    4.90999985    2.66000009
   18.75333405  122.02600098    4.90999985    2.66000009
   18.75638962  122.02600098    4.90999985    2.66000009
   18.75944519  122.02600098    4.90999985    2.66000009
   18.76250076  122.02600098    4.90999985    2.66000009
   18.76555634  122.02600098    4.90999985    2.66000009
   18.76833344  122.02600098    4.90999985    2.66000009
   18.76861000  122.02600098    4.90999985    2.66000009
   18.77166557  122.02600098    4.90999985    2.66000009
   18.77472115  122.02600098    4.90999985    2.66000009
   18.77777672  122.02600098    4.90999985    2.66000009
   18.78083229  122.02600098    4.90999985    2.66000009
   18.78388786  122.02600098    4.90999985    2.66000009
   18.78694344  122.02600098    4.90999985    2.66000009
   18.79249954  122.02600098    4.90999985    2.66000009
   18.79611015  122.02600098    4.90999985    2.66000009
   18.79916573  122.02600098    4.90999985    2.66000009
   18.80166626  122.02600098    4.90999985    2.66000009
   18.80222130  122.02600098    4.90999985    2.66000009
   18.80527687  122.02600098    4.90999985    2.66000009
   18.80833244  122.02600098    4.90999985    2.66000009
   18.81138802  122.02600098    4.90999985    2.66000009
   18.81444359  122.02600098    4.90999985    2.66000009
   18.81750107  122.02600098    4.90999985    2.66000009
   18.82055664  122.02600098    4.90999985    2.66000009
   18.82361221  122.02600098    4.90999985    2.66000009
   18.82666779  122.02600098    4.90999985    2.66000009
   18.82972336  122.02600098    4.90999985    2.66000009
   18.83527756  122.02600098    4.90999985    2.66000009
   18.85305595  122.02600098    4.90999985    2.66000009
   18.85611153  122.02600098    4.90999985    2.66000009
   18.85916710  122.02600098    4.90999985    2.66000009
   18.86222267  122.02600098    4.90999985    2.66000009
   18.86527824  122.02600098    4.90999985    2.66000009
   18.86833382  122.02600098    4.90999985    2.66000009
   18.86833382  122.02600098    4.90999985    2.66000009
   18.87138939  122.02600098    4.90999985    2.66000009
   18.87833405  122.02600098    4.90999985    2.66000009
   18.88194466  122.02600098    4.90999985    2.66000009
   18.88500023  122.02600098    4.90999985    2.66000009
   18.88805580  122.02600098    4.90999985    2.66000009
   18.89111137  122.02600098    4.90999985    2.66000009
   18.89416695  122.02600098    4.90999985    2.66000009
   18.89722252  122.02600098    4.90999985    2.66000009
   18.90027809  122.02600098    4.90999985    2.66000009
   18.90166664  122.02600098    4.90999985    2.66000009
   18.90333366  122.02600098    4.90999985    2.66000009
   18.90638924  122.02600098    4.90999985    2.66000009
   18.90944481  122.02600098    4.90999985    2.66000009
   18.91250038  122.02600098    4.90999985    2.66000009
   18.91555595  122.02600098    4.90999985    2.66000009
   18.92111015  122.02600098    4.90999985    2.66000009
   18.92472076  122.02600098    4.90999985    2.66000009
   18.92777634  122.02600098    4.90999985    2.66000009
   18.93083191  122.02600098    4.90999985    2.66000009
   18.93388748  122.02600098    4.90999985    2.66000009
   18.93499947  122.02600098    4.90999985    2.66000009
   18.93722153  122.02600098    4.90999985    2.66000009
   18.94027710  122.02600098    4.90999985    2.66000009
   18.94333267  122.02600098    4.90999985    2.66000009
   18.94638824  122.02600098    4.90999985    2.66000009
   18.94944382  122.02600098    4.90999985    2.66000009
   18.95250130  122.02600098    4.90999985    2.66000009
   18.95555687  122.02600098    4.90999985    2.66000009
   18.95861244  122.02600098    4.90999985    2.66000009
   18.96389008  122.02600098    4.90999985    2.66000009
   18.96777916  122.02600098    4.90999985    2.66000009
   18.96833420  122.02600098    4.90999985    2.66000009
   18.97083473  122.02600098    4.90999985    2.66000009
   18.97389030  122.02600098    4.90999985    2.66000009
   18.97694588  122.02600098    4.90999985    2.66000009
   18.98000145  122.02600098    4.90999985    2.66000009
   18.98305511  122.02600098    4.90999985    2.66000009
   18.98611069  122.02600098    4.90999985    2.66000009
   18.98916626  122.02600098    4.90999985    2.66000009
   18.99222183  122.02600098    4.90999985    2.66000009
   18.99527740  122.02600098    4.90999985    2.66000009
   18.99833298  122.02600098    4.90999985    2.66000009
   19.00138855  122.02600098    4.90999985    2.66000009
   19.00166702  122.02600098    4.90999985    2.66000009
   19.00666618  122.02600098    4.90999985    2.66000009
   19.01055527  122.02600098    4.90999985    2.66000009
   19.01361084  122.02600098    4.90999985    2.66000009
   19.01666641  122.02600098    4.90999985    2.66000009
   19.01972198  122.02600098    4.90999985    2.66000009
   19.02277756  122.02600098    4.90999985    2.66000009
   19.02583313  122.02600098    4.90999985    2.66000009
   19.02888870  122.02600098    4.90999985    2.66000009
   19.03194427  122.02600098    4.90999985    2.66000009
   19.03499985  122.02600098    4.90999985    2.66000009
   19.03499985  122.02600098    4.90999985    2.66000009
   19.03805542  122.02600098    4.90999985    2.66000009
   19.04111099  122.02600098    4.90999985    2.66000009
   19.04416656  122.02600098    4.90999985    2.66000009
   19.04972076  122.02600098    4.90999985    2.66000009
   19.05333328  122.02600098    4.90999985    2.66000009
   19.05638885  122.02600098    4.90999985    2.66000009
   19.05944443  122.02600098    4.90999985    2.66000009
   19.06250000  122.02600098    4.90999985    2.66000009
   19.06555557  122.02600098    4.90999985    2.66000009
   19.06833458  122.02600098    4.90999985    2.66000009
   19.06861115  122.02600098    4.90999985    2.66000009
   19.07194519  122.02600098    4.90999985    2.66000009
   19.07500076  122.02600098    4.90999985    2.66000009
   19.07805634  122.02600098    4.90999985    2.66000009
   19.08111191  122.02600098    4.90999985    2.66000009
   19.08416748  122.02600098    4.90999985    2.66000009
   19.08722305  122.02600098    4.90999985    2.66000009
   19.09250069  122.02600098    4.90999985    2.66000009
   19.09611130  122.02600098    4.90999985    2.66000009
   19.09916687  122.02600098    4.90999985    2.66000009
   19.10166740  122.02600098    4.90999985    2.66000009
   19.10250092  122.02600098    4.90999985    2.66000009
   19.10555649  122.02600098    4.90999985    2.66000009
   19.10861206  122.02600098    4.90999985    2.66000009
   19.11166763  122.02600098    4.90999985    2.66000009
   19.11472321  122.02600098    4.90999985    2.66000009
   19.11777878  122.02600098    4.90999985    2.66000009
   19.12083435  122.02600098    4.90999985    2.66000009
   19.12388992  122.02600098    4.90999985    2.66000009
   19.12694550  122.02600098    4.90999985    2.66000009
   19.13000107  122.02600098    4.90999985    2.66000009
   19.13527679  122.02600098    4.90999985    2.66000009
   19.13888931  122.02600098    4.90999985    2.66000009
   19.14194489  122.02600098    4.90999985    2.66000009
   19.14500046  122.02600098    4.90999985    2.66000009
   19.14805603  122.02600098    4.90999985    2.66000009
   19.15111160  122.02600098    4.90999985    2.66000009
   19.15416718  122.02600098    4.90999985    2.66000009
   19.15722275  122.02600098    4.90999985    2.66000009
   19.16027832  122.02600098    4.90999985    2.66000009
   19.16333389  122.02600098    4.90999985    2.66000009
   19.16638756  122.02600098    4.90999985    2.66000009
   19.16833305  122.02600098    4.90999985    2.66000009
   19.16972160  122.02600098    4.90999985    2.66000009
   19.17277718  122.02600098    4.90999985    2.66000009
   19.17805481  122.02600098    4.90999985    2.66000009
   19.18194389  122.02600098    4.90999985    2.66000009
   19.18499947  122.02600098    4.90999985    2.66000009
   19.18805504  122.02600098    4.90999985    2.66000009
   19.19111061  122.02600098    4.90999985    2.66000009
   19.19416618  122.02600098    4.90999985    2.66000009
   19.19722176  122.02600098    4.90999985    2.66000009
   19.20027924  122.02600098    4.90999985    2.66000009
   19.20166779  122.02600098    4.90999985    2.66000009
   19.20333481  122.02600098    4.90999985    2.66000009
   19.20639038  122.02600098    4.90999985    2.66000009
   19.20944595  122.02600098    4.90999985    2.66000009
   19.21250153  122.02600098    4.90999985    2.66000009
   19.21555710  122.02600098    4.90999985    2.66000009
   19.22111130  122.02600098    4.90999985    2.66000009
   19.22472191  122.02600098    4.90999985    2.66000009
   19.22777748  122.02600098    4.90999985    2.66000009
   19.23083305  122.02600098    4.90999985    2.66000009
   19.23388863  122.02600098    4.90999985    2.66000009
   19.23527718  122.02600098    4.90999985    2.66000009
   19.23694420  122.02600098    4.90999985    2.66000009
   19.23999977  122.02600098    4.90999985    2.66000009
   19.24305534  122.02600098    4.90999985    2.66000009
   19.24611092  122.02600098    4.90999985    2.66000009
   19.24916649  122.02600098    4.90999985    2.66000009
   19.25222206  122.02600098    4.90999985    2.66000009
   19.25527763  122.02600098    4.90999985    2.66000009
   19.25833321  122.02600098    4.90999985    2.66000009
   19.26388931  122.02600098    4.90999985    2.66000009
   19.26749992  122.02600098    4.90999985    2.66000009
   19.26861000  122.02600098    4.90999985    2.66000009
   19.27083397  122.02600098    4.90999985    2.66000009
   19.27388954  122.02600098    4.90999985    2.66000009
   19.27694511  122.02600098    4.90999985    2.66000009
   19.28000069  122.02600098    4.90999985    2.66000009
   19.28305435  122.02600098    4.90999985    2.66000009
   19.28610992  122.02600098    4.90999985    2.66000009
   19.28916550  122.02600098    4.90999985    2.66000009
   19.29222107  122.02600098    4.90999985    2.66000009
   19.29527664  122.02600098    4.90999985    2.66000009
   19.29833221  122.02600098    4.90999985    2.66000009
   19.30138779  122.02600098    4.90999985    2.66000009
   19.30194283  122.02600098    4.90999985    2.66000009
   19.30666542  122.02600098    4.90999985    2.66000009
   19.31027794  122.02600098    4.90999985    2.66000009
   19.31333351  122.02600098    4.90999985    2.66000009
   19.31638718  122.02600098    4.90999985    2.66000009
   19.31944466  122.02600098    4.90999985    2.66000009
   19.32250023  122.02600098    4.90999985    2.66000009
   19.32555580  122.02600098    4.90999985    2.66000009
   19.32861137  122.02600098    4.90999985    2.66000009
   19.33166695  122.02600098    4.90999985    2.66000009
   19.33472252  122.02600098    4.90999985    2.66000009
   19.33527756  122.02600098    4.90999985    2.66000009
   19.33805656  122.02600098    4.90999985    2.66000009
   19.34111214  122.02600098    4.90999985    2.66000009
   19.34416771  122.02600098    4.90999985    2.66000009
   19.34944534  122.02600098    4.90999985    2.66000009
   19.35333443  122.02600098    4.90999985    2.66000009
   19.35639000  122.02600098    4.90999985    2.66000009
   19.35944557  122.02600098    4.90999985    2.66000009
   19.36250114  122.02600098    4.90999985    2.66000009
   19.36555672  122.02600098    4.90999985    2.66000009
   19.36861038  122.02600098    4.90999985    2.66000009
   19.36861038  122.02600098    4.90999985    2.66000009
   19.37166595  122.02600098    4.90999985    2.66000009
   19.37472153  122.02600098    4.90999985    2.66000009
   19.37777710  122.02600098    4.90999985    2.66000009
   19.38083267  122.02600098    4.90999985    2.66000009
   19.38388824  122.02600098    4.90999985    2.66000009
   19.38694382  122.02600098    4.90999985    2.66000009
   19.39249992  122.02600098    4.90999985    2.66000009
   19.39611053  122.02600098    4.90999985    2.66000009
   19.39916611  122.02600098    4.90999985    2.66000009
   19.40194321  122.02600098    4.90999985    2.66000009
   19.40222168  122.02600098    4.90999985    2.66000009
   19.40527725  122.02600098    4.90999985    2.66000009
   19.40833282  122.02600098    4.90999985    2.66000009
   19.41138840  122.02600098    4.90999985    2.66000009
   19.41444397  122.02600098    4.90999985    2.66000009
   19.41749954  122.02600098    4.90999985    2.66000009
   19.42055511  122.02600098    4.90999985    2.66000009
   19.42361069  122.02600098    4.90999985    2.66000009
   19.42666626  122.02600098    4.90999985    2.66000009
   19.42972183  122.02600098    4.90999985    2.66000009
   19.43527603  122.02600098    4.90999985    2.66000009
   19.43888855  122.02600098    4.90999985    2.66000009
   19.44194412  122.02600098    4.90999985    2.66000009
   19.44499969  122.02600098    4.90999985    2.66000009
   19.44805527  122.02600098    4.90999985    2.66000009
   19.45111275  122.02600098    4.90999985    2.66000009
   19.45416832  122.02600098    4.90999985    2.66000009
   19.45722389  122.02600098    4.90999985    2.66000009
   19.46027946  122.02600098    4.90999985    2.66000009
   19.46333504  122.02600098    4.90999985    2.66000009
   19.46638870  122.02600098    4.90999985    2.66000009
   19.46861076  122.02600098    4.90999985    2.66000009
   19.46944427  122.02600098    4.90999985    2.66000009
   19.47249985  122.02600098    4.90999985    2.66000009
   19.47805595  122.02600098    4.90999985    2.66000009
   19.48166656  122.02600098    4.90999985    2.66000009
   19.48472214  122.02600098    4.90999985    2.66000009
   19.48777771  122.02600098    4.90999985    2.66000009
   19.49083328  122.02600098    4.90999985    2.66000009
   19.49388885  122.02600098    4.90999985    2.66000009
   19.49694443  122.02600098    4.90999985    2.66000009
   19.50000000  122.02600098    4.90999985    2.66000009
   19.50194359  122.02600098    4.90999985    2.66000009
   19.50333405  122.02600098    4.90999985    2.66000009
   19.50638962  122.02600098    4.90999985    2.66000009
   19.50944519  122.02600098    4.90999985    2.66000009
   19.51250076  122.02600098    4.90999985    2.66000009
   19.51555634  122.02600098    4.90999985    2.66000009
   19.52083397  122.02600098    4.90999985    2.66000009
   19.52472115  122.02600098    4.90999985    2.66000009
   19.52777672  122.02600098    4.90999985    2.66000009
   19.53083229  122.02600098    4.90999985    2.66000009
   19.53388786  122.02600098    4.90999985    2.66000009
   19.53527641  122.02600098    4.90999985    2.66000009
   19.53694344  122.02600098    4.90999985    2.66000009
   19.53999901  122.02600098    4.90999985    2.66000009
   19.54305458  122.02600098    4.90999985    2.66000009
   19.54611015  122.02600098    4.90999985    2.66000009
   19.54916573  122.02600098    4.90999985    2.66000009
   19.55222130  122.02600098    4.90999985    2.66000009
   19.55527687  122.02600098    4.90999985    2.66000009
   19.55833244  122.02600098    4.90999985    2.66000009
   19.56388855  122.02600098    4.90999985    2.66000009
   19.56750107  122.02600098    4.90999985    2.66000009
   19.56861115  122.02600098    4.90999985    2.66000009
   19.57055664  122.02600098    4.90999985    2.66000009
   19.57361221  122.02600098    4.90999985    2.66000009
   19.57666779  122.02600098    4.90999985    2.66000009
   19.57972336  122.02600098    4.90999985    2.66000009
   19.58277893  122.02600098    4.90999985    2.66000009
   19.58583450  122.02600098    4.90999985    2.66000009
   19.58889008  122.02600098    4.90999985    2.66000009
   19.59194565  122.02600098    4.90999985    2.66000009
   19.59500122  122.02600098    4.90999985    2.66000009
   19.59805679  122.02600098    4.90999985    2.66000009
   19.60111237  122.02600098    4.90999985    2.66000009
   19.60194397  122.02600098    4.90999985    2.66000009
   19.60666656  122.02600098    4.90999985    2.66000009
   19.61027908  122.02600098    4.90999985    2.66000009
   19.61333466  122.02600098    4.90999985    2.66000009
   19.61638832  122.02600098    4.90999985    2.66000009
   19.61944389  122.02600098    4.90999985    2.66000009
   19.62249947  122.02600098    4.90999985    2.66000009
   19.62555504  122.02600098    4.90999985    2.66000009
   19.62861061  122.02600098    4.90999985    2.66000009
   19.63166618  122.02600098    4.90999985    2.66000009
   19.63472176  122.02600098    4.90999985    2.66000009
   19.63527679  122.02600098    4.90999985    2.66000009
   19.63777733  122.02600098    4.90999985    2.66000009
   19.64083290  122.02600098    4.90999985    2.66000009
   19.64388847  122.02600098    4.90999985    2.66000009
   19.64944458  122.02600098    4.90999985    2.66000009
   19.65305519  122.02600098    4.90999985    2.66000009
   19.65611076  122.02600098    4.90999985    2.66000009
   19.65916634  122.02600098    4.90999985    2.66000009
   19.66222191  122.02600098    4.90999985    2.66000009
   19.66527748  122.02600098    4.90999985    2.66000009
   19.66860962  122.02600098    4.90999985    2.66000009
   19.66860962  122.02600098    4.90999985    2.66000009
   19.67166519  122.02600098    4.90999985    2.66000009
   19.67472076  122.02600098    4.90999985    2.66000009
   19.67777634  122.02600098    4.90999985    2.66000009
   19.68083191  122.02600098    4.90999985    2.66000009
   19.68388748  122.02600098    4.90999985    2.66000009
   19.68694305  122.02600098    4.90999985    2.66000009
   19.69222069  122.02600098    4.90999985    2.66000009
   19.69610977  122.02600098    4.90999985    2.66000009
   19.69916534  122.02600098    4.90999985    2.66000009
   19.70194435  122.02600098    4.90999985    2.66000009
   19.70222282  122.02600098    4.90999985    2.66000009
   19.70527840  122.02600098    4.90999985    2.66000009
   19.70833397  122.02600098    4.90999985    2.66000009
   19.71138954  122.02600098    4.90999985    2.66000009
   19.71444511  122.02600098    4.90999985    2.66000009
   19.71750069  122.02600098    4.90999985    2.66000009
   19.72055626  122.02600098    4.90999985    2.66000009
   19.72361183  122.02600098    4.90999985    2.66000009
   19.72666740  122.02600098    4.90999985    2.66000009
   19.72972298  122.02600098    4.90999985    2.66000009
   19.73500061  122.02600098    4.90999985    2.66000009
   19.73888969  122.02600098    4.90999985    2.66000009
   19.74194527  122.02600098    4.90999985    2.66000009
   19.74500084  122.02600098    4.90999985    2.66000009
   19.74805641  122.02600098    4.90999985    2.66000009
   19.75111198  122.02600098    4.90999985    2.66000009
   19.75416756  122.02600098    4.90999985    2.66000009
   19.75722313  122.02600098    4.90999985    2.66000009
   19.76027870  122.02600098    4.90999985    2.66000009
   19.76333427  122.02600098    4.90999985    2.66000009
   19.76638794  122.02600098    4.90999985    2.66000009
   19.76944351  122.02600098    4.90999985    2.66000009
   19.76972198  122.02600098    4.90999985    2.66000009
   19.77249908  122.02600098    4.90999985    2.66000009
   19.77805519  122.02600098    4.90999985    2.66000009
   19.78166580  122.02600098    4.90999985    2.66000009
   19.78472137  122.02600098    4.90999985    2.66000009
   19.78777695  122.02600098    4.90999985    2.66000009
   19.79083252  122.02600098    4.90999985    2.66000009
   19.79388809  122.02600098    4.90999985    2.66000009
   19.79694366  122.02600098    4.90999985    2.66000009
   19.79999924  122.02600098    4.90999985    2.66000009
   19.80305481  122.02600098    4.90999985    2.66000009
   19.80305481  122.02600098    4.90999985    2.66000009
   19.80611038  122.02600098    4.90999985    2.66000009
   19.80916595  122.02600098    4.90999985    2.66000009
   19.81222153  122.02600098    4.90999985    2.66000009
   19.81527710  122.02600098    4.90999985    2.66000009
   19.82083511  122.02600098    4.90999985    2.66000009
   19.82444572  122.02600098    4.90999985    2.66000009
   19.82750130  122.02600098    4.90999985    2.66000009
   19.83055687  122.02600098    4.90999985    2.66000009
   19.83361244  122.02600098    4.90999985    2.66000009
   19.83666801  122.02600098    4.90999985    2.66000009
   19.83666801  122.02600098    4.90999985    2.66000009
   19.83972359  122.02600098    4.90999985    2.66000009
   19.84277916  122.02600098    4.90999985    2.66000009
   19.84583473  122.02600098    4.90999985    2.66000009
   19.84889030  122.02600098    4.90999985    2.66000009
   19.85194397  122.02600098    4.90999985    2.66000009
   19.87361145  122.02600098    4.90999985    2.66000009
   19.87722206  122.02600098    4.90999985    2.66000009
   19.88027763  122.02600098    4.90999985    2.66000009
   19.88333321  122.02600098    4.90999985    2.66000009
   19.88638878  122.02600098    4.90999985    2.66000009
   19.88944435  122.02600098    4.90999985    2.66000009
   19.89249992  122.02600098    4.90999985    2.66000009
   19.89555550  122.02600098    4.90999985    2.66000009
   19.89861107  122.02600098    4.90999985    2.66000009
   19.90166664  122.02600098    4.90999985    2.66000009
   19.90444374  122.02600098    4.90999985    2.66000009
   19.90472221  122.02600098    4.90999985    2.66000009
   19.90777779  122.02600098    4.90999985    2.66000009
   19.91083336  122.02600098    4.90999985    2.66000009
   19.91638756  122.02600098    4.90999985    2.66000009
   19.92027664  122.02600098    4.90999985    2.66000009
   19.92333221  122.02600098    4.90999985    2.66000009
   19.92638779  122.02600098    4.90999985    2.66000009
   19.92944336  122.02600098    4.90999985    2.66000009
   19.93249893  122.02600098    4.90999985    2.66000009
   19.93555450  122.02600098    4.90999985    2.66000009
   19.93777657  122.02600098    4.90999985    2.66000009
   19.93861008  122.02600098    4.90999985    2.66000009
   19.94166565  122.02600098    4.90999985    2.66000009
   19.94472122  122.02600098    4.90999985    2.66000009
   19.94777679  122.02600098    4.90999985    2.66000009
   19.95083427  122.02600098    4.90999985    2.66000009
   19.95388985  122.02600098    4.90999985    2.66000009
   19.95916748  122.02600098    4.90999985    2.66000009
   19.96305656  122.02600098    4.90999985    2.66000009
   19.96611214  122.02600098    4.90999985    2.66000009
   19.96916771  122.02600098    4.90999985    2.66000009
   19.97138977  122.02600098    4.90999985    2.66000009
   19.97222328  122.02600098    4.90999985    2.66000009
   19.97527885  122.02600098    4.90999985    2.66000009
   19.97833443  122.02600098    4.90999985    2.66000009
   19.98139000  122.02600098    4.90999985    2.66000009
   19.98444557  122.02600098    4.90999985    2.66000009
   19.98750114  122.02600098    4.90999985    2.66000009
   19.99055672  122.02600098    4.90999985    2.66000009
   19.99361229  122.02600098    4.90999985    2.66000009
   19.99666786  122.02600098    4.90999985    2.66000009
   20.00222206  122.02600098    4.90999985    2.66000009
   20.00583267  122.02600098    4.90999985    2.66000009
   20.00888824  122.02600098    4.90999985    2.66000009
   20.01194382  122.02600098    4.90999985    2.66000009
   20.01499939  122.02600098    4.90999985    2.66000009
   20.01805496  122.02600098    4.90999985    2.66000009
   20.02111053  122.02600098    4.90999985    2.66000009
   20.02416611  122.02600098    4.90999985    2.66000009
   20.02722168  122.02600098    4.90999985    2.66000009
   20.03027725  122.02600098    4.90999985    2.66000009
   20.03333282  122.02600098    4.90999985    2.66000009
   20.03638840  122.02600098    4.90999985    2.66000009
   20.03805542  122.02600098    4.90999985    2.66000009
   20.03944397  122.02600098    4.90999985    2.66000009
   20.04500008  122.02600098    4.90999985    2.66000009
   20.04861069  122.02600098    4.90999985    2.66000009
   20.05166626  122.02600098    4.90999985    2.66000009
   20.05472183  122.02600098    4.90999985    2.66000009
   20.05777740  122.02600098    4.90999985    2.66000009
   20.06083298  122.02600098    4.90999985    2.66000009
   20.06388855  122.02600098    4.90999985    2.66000009
   20.06694603  122.02600098    4.90999985    2.66000009
   20.07000160  122.02600098    4.90999985    2.66000009
   20.07139015  122.02600098    4.90999985    2.66000009
   20.07305717  122.02600098    4.90999985    2.66000009
   20.07611275  122.02600098    4.90999985    2.66000009
   20.07916832  122.02600098    4.90999985    2.66000009
   20.08222389  122.02600098    4.90999985    2.66000009
   20.08777809  122.02600098    4.90999985    2.66000009
   20.09138870  122.02600098    4.90999985    2.66000009
   20.09444427  122.02600098    4.90999985    2.66000009
   20.09749985  122.02600098    4.90999985    2.66000009
   20.10055542  122.02600098    4.90999985    2.66000009
   20.10361099  122.02600098    4.90999985    2.66000009
   20.10472298  122.02600098    4.90999985    2.66000009
   20.10666656  122.02600098    4.90999985    2.66000009
   20.10972214  122.02600098    4.90999985    2.66000009
   20.11277771  122.02600098    4.90999985    2.66000009
   20.11583328  122.02600098    4.90999985    2.66000009
   20.11888885  122.02600098    4.90999985    2.66000009
   20.12194443  122.02600098    4.90999985    2.66000009
   20.12500000  122.02600098    4.90999985    2.66000009
   20.13055611  122.02600098    4.90999985    2.66000009
   20.13444519  122.02600098    4.90999985    2.66000009
   20.13750076  122.02600098    4.90999985    2.66000009
   20.13805580  122.02600098    4.90999985    2.66000009
   20.14055634  122.02600098    4.90999985    2.66000009
   20.14361191  122.02600098    4.90999985    2.66000009
   20.14666748  122.02600098    4.90999985    2.66000009
   20.14972115  122.02600098    4.90999985    2.66000009
   20.15277672  122.02600098    4.90999985    2.66000009
   20.15583229  122.02600098    4.90999985    2.66000009
   20.15888786  122.02600098    4.90999985    2.66000009
   20.16194344  122.02600098    4.90999985    2.66000009
   20.16499901  122.02600098    4.90999985    2.66000009
   20.16805458  122.02600098    4.90999985    2.66000009
   20.17361069  122.02600098    4.90999985    2.66000009
   20.17722130  122.02600098    4.90999985    2.66000009
   20.18027687  122.02600098    4.90999985    2.66000009
   20.18333244  122.02600098    4.90999985    2.66000009
