    HOUR (UT)   FLARE FACTOR    SKY TESTER    SUN TESTER
   11.02555561   -1.00000000   -1.00000000   -1.00000000
   11.07888889  293.30200195    2.36999989    2.13000011
   11.08194447  268.46200562    2.34999990    2.13000011
   11.08527756  290.96499634    2.32999992    2.13000011
   11.08861065  291.14999390    2.32999992    2.13000011
   11.11083412  271.67999268    2.28999996    2.15000010
   11.11277771  256.35198975    2.28999996    2.15000010
   11.11444473  269.93701172    2.26999998    2.15000010
   11.11777782  266.39498901    2.28999996    2.17000008
   11.12083340  277.94601440    2.30999994    2.17000008
   11.12416649  269.90798950    2.32999992    2.17000008
   11.12833309  269.90798950    2.32999992    2.17000008
   11.13249969  265.01400757    2.32999992    2.17000008
   11.13555527  266.80300903    2.32999992    2.19000006
   11.13888836  257.78100586    2.36999989    2.17000008
   11.14194393  275.64300537    2.39000010    2.19000006
   11.14527798  280.37298584    2.34999990    2.19000006
   11.14611053  280.12799072    2.34999990    2.19000006
   11.14888859  297.50399780    2.39000010    2.19000006
   11.15222168  272.50201416    2.39000010    2.19000006
   11.15527725  277.18499756    2.40000010    2.19000006
   11.15861034  298.97500610    2.40000010    2.19000006
   11.16194439  265.61401367    2.36999989    2.19000006
   11.16499996  273.61999512    2.40000010    2.21000004
   11.17111111  273.61999512    2.40000010    2.19000006
   11.17527771  254.71499634    2.40000010    2.21000004
   11.17833328  278.61499023    2.40000010    2.21000004
   11.17944431  264.69500732    2.40000010    2.21000004
   11.18222237  259.27301025    2.39000010    2.21000004
   11.18555546  273.19400024    2.39000010    2.21000004
   11.18861103  267.02398682    2.36999989    2.21000004
   11.19194412  286.93200684    2.36999989    2.23000002
   11.19499969  257.42001343    2.34999990    2.23000002
   11.19833374  271.95098877    2.32999992    2.23000002
   11.20166683  260.81100464    2.32999992    2.23000002
   11.20472240  262.36099243    2.32999992    2.23000002
   11.20805550  247.66600037    2.34999990    2.23000002
   11.21388912  247.66600037    2.32999992    2.25000000
   11.21805477  255.43400574    2.30999994    2.23000002
   11.22138882  258.91699219    2.32999992    2.23000002
   11.22444439  242.07499695    2.34999990    2.23000002
   11.22777748  250.75100708    2.34999990    2.23000002
   11.23111057  246.63499451    2.36999989    2.25000000
   11.23416710  254.35499573    2.34999990    2.25000000
   11.23750019  267.71899414    2.32999992    2.25000000
   11.24055576  255.05299377    2.34999990    2.25000000
   11.24388885  262.84298706    2.36999989    2.25000000
   11.24611092  252.68600464    2.34999990    2.25000000
   11.24750042  242.10200500    2.39000010    2.25000000
   11.25083351  247.86999512    2.32999992    2.25000000
   11.25666714  247.86999512    2.26999998    2.26999998
   11.26083374  261.80801392    2.28999996    2.26999998
   11.26416683  258.09799194    2.28999996    2.26999998
   11.26749992  240.22700500    2.26999998    2.26999998
   11.27055550  250.75500488    2.23000002    2.26999998
   11.27388859  258.72198486    2.23000002    2.28999996
   11.27694416  234.15699768    2.23000002    2.28999996
   11.27944374  238.16700745    2.23000002    2.28999996
   11.28083324  244.62300110    2.23000002    2.28999996
   11.28416729  246.02000427    2.23000002    2.28999996
   11.28722286  247.39599609    2.25000000    2.28999996
   11.29055595  254.68899536    2.25000000    2.28999996
   11.29361153  236.36799622    2.25000000    2.28999996
   11.29972267  236.36799622    2.25000000    2.28999996
   11.30388927  245.37500000    2.25000000    2.30999994
   11.30694485  245.77600098    2.26999998    2.30999994
   11.31027794  246.86900330    2.28999996    2.30999994
   11.31277752  260.09298706    2.26999998    2.30999994
   11.31388950  270.13400269    2.26999998    2.30999994
   11.31722260  246.88200378    2.26999998    2.30999994
   11.32027817  265.34799194    2.32999992    2.30999994
   11.32361126  267.45199585    2.30999994    2.30999994
   11.32666683  255.77600098    2.32999992    2.30999994
   11.32999992  244.00500488    2.36999989    2.30999994
   11.33333302  243.28100586    2.34999990    2.30999994
   11.33638859  258.98699951    2.34999990    2.30999994
   11.34249973  258.98699951    2.34999990    2.32999992
   11.34666634  255.46099854    2.34999990    2.32999992
   11.34972191  264.26000977    2.34999990    2.32999992
   11.35305595  244.51300049    2.32999992    2.32999992
   11.35638905  244.58799744    2.30999994    2.32999992
   11.35944462  249.25700378    2.32999992    2.32999992
   11.36277771  263.28500366    2.28999996    2.32999992
   11.36611176  265.58401489    2.28999996    2.32999992
   11.36916637  256.68701172    2.30999994    2.32999992
   11.37250042  239.95199585    2.34999990    2.32999992
   11.37555599  242.32400513    2.32999992    2.32999992
   11.37888908  248.68499756    2.34999990    2.32999992
   11.37944412  232.99400330    2.32999992    2.34999990
   11.38527775  232.99400330    2.32999992    2.34999990
   11.38944435  253.23899841    2.34999990    2.32999992
   11.39277744  242.65800476    2.32999992    2.34999990
   11.39583302  253.42399597    2.34999990    2.34999990
   11.39916611  246.88299561    2.34999990    2.34999990
   11.40249920  244.92999268    2.36999989    2.34999990
   11.40555477  253.00399780    2.36999989    2.34999990
   11.40888882  246.61300659    2.39000010    2.36999989
   11.41194439  255.35299683    2.40000010    2.34999990
   11.41277695  252.93699646    2.39000010    2.36999989
   11.41555500  241.34800720    2.40000010    2.36999989
   11.41888905  260.16101074    2.40000010    2.36999989
   11.42194462  237.50300598    2.40000010    2.34999990
   11.42805576  237.50300598    2.40000010    2.34999990
   11.43222237  246.17799377    2.36999989    2.34999990
   11.43555546  257.78399658    2.36999989    2.36999989
   11.43888855  256.67300415    2.39000010    2.36999989
   11.44194412  255.05999756    2.39000010    2.36999989
   11.44527817  244.00599670    2.39000010    2.36999989
   11.44611073  230.12899780    2.36999989    2.36999989
   11.44888878  238.36199951    2.40000010    2.36999989
   11.45222187  250.67799377    2.40000010    2.36999989
   11.45527744  245.42700195    2.40000010    2.36999989
   11.45861053  260.25399780    2.36999989    2.36999989
   11.46194458  231.80799866    2.32999992    2.36999989
   11.46500015  219.75999451    2.32999992    2.39000010
   11.47111034  219.75999451    2.28999996    2.39000010
   11.47527695  236.62300110    2.30999994    2.39000010
   11.47833252  228.54899597    2.32999992    2.39000010
   11.47944355  251.62500000    2.34999990    2.39000010
   11.48194408  229.64999390    2.32999992    2.39000010
   11.48527813  233.38299561    2.36999989    2.40000010
   11.48833370  225.92999268    2.39000010    2.40000010
   11.49166679  234.49299622    2.42000008    2.39000010
   11.49499989  234.66600037    2.39000010    2.39000010
   11.49805546  228.52400208    2.40000010    2.39000010
   11.50138855  244.86300659    2.44000006    2.39000010
   11.50444412  242.21200562    2.44000006    2.39000010
   11.50777817  239.04299927    2.46000004    2.40000010
   11.51388931  239.04299927    2.50000000    2.40000010
   11.51805496  240.65199280    2.51999998    2.39000010
   11.52111053  232.07899475    2.51999998    2.40000010
   11.52444458  225.06399536    2.51999998    2.40000010
   11.52777767  225.30700684    2.46000004    2.40000010
   11.53083324  224.20899963    2.46000004    2.40000010
   11.53416729  220.23899841    2.48000002    2.40000010
   11.53750038  242.56500244    2.44000006    2.40000010
   11.54055595  230.13800049    2.44000006    2.40000010
   11.54388905  221.67399597    2.42000008    2.40000010
   11.54611111  228.61000061    2.44000006    2.40000010
   11.54750061  243.49299622    2.44000006    2.42000008
   11.55083370  220.11500549    2.40000010    2.40000010
   11.55666733  220.11500549    2.46000004    2.42000008
   11.56083393  224.59100342    2.44000006    2.42000008
   11.56416702  242.31399536    2.46000004    2.42000008
   11.56722260  234.98800659    2.46000004    2.42000008
   11.57055569  238.41000366    2.46000004    2.42000008
   11.57388878  226.72399902    2.50000000    2.42000008
   11.57694435  233.47099304    2.48000002    2.42000008
   11.57944393  228.68299866    2.46000004    2.42000008
   11.58055592  244.32600403    2.44000006    2.42000008
   11.58388901  231.91400146    2.48000002    2.42000008
   11.58694458  225.84300232    2.50000000    2.44000006
   11.59027767  228.56100464    2.50000000    2.44000006
   11.59333324  220.75700378    2.55999994    2.42000008
   11.59944439  220.75700378    2.55999994    2.42000008
   11.60361195  217.83500671    2.57999992    2.44000006
   11.60694504  220.07899475    2.57999992    2.42000008
   11.61000061  226.82899475    2.61999989    2.44000006
   11.61277771  224.61799622    2.59999990    2.42000008
   11.61361122  230.73100281    2.59999990    2.44000006
   11.61694431  234.53399658    2.66000009    2.44000006
   11.61999989  224.86799622    2.59999990    2.42000008
   11.62333393  227.36999512    2.61999989    2.44000006
   11.62666702  229.52600098    2.59999990    2.44000006
   11.62972260  209.94099426    2.59999990    2.44000006
   11.63305569  210.75999451    2.59999990    2.44000006
   11.63611126  227.30400085    2.53999996    2.46000004
   11.64249992  227.30400085    2.59999990    2.44000006
   11.64666653  224.71899414    2.59999990    2.46000004
   11.64972210  245.86300659    2.61999989    2.46000004
   11.65305519  236.00199890    2.61999989    2.46000004
   11.65611076  228.11000061    2.67000008    2.46000004
   11.65944386  219.39599609    2.69000006    2.46000004
   11.66277695  235.66200256    2.69000006    2.46000004
   11.66583252  214.17300415    2.66000009    2.46000004
   11.66916656  226.43099976    2.67000008    2.46000004
   11.67250061  231.51100159    2.73000002    2.46000004
   11.67555618  225.76400757    2.75000000    2.46000004
   11.67888927  216.13400269    2.80999994    2.46000004
   11.67944431  223.70500183    2.76999998    2.46000004
   11.68527794  223.70500183    2.84999990    2.46000004
   11.68944454  200.24699402    2.82999992    2.46000004
   11.69250011  214.57499695    2.78999996    2.48000002
   11.69583321  208.44299316    2.75000000    2.48000002
   11.69916630  202.40800476    2.75000000    2.46000004
   11.70222187  211.07800293    2.75000000    2.48000002
   11.70555496  219.74600220    2.78999996    2.48000002
   11.70888901  208.56599426    2.75000000    2.48000002
   11.71194458  213.94999695    2.73000002    2.48000002
   11.71277714  213.62699890    2.71000004    2.46000004
   11.71555519  214.97300720    2.73000002    2.48000002
   11.71888828  213.53399658    2.71000004    2.48000002
   11.72194386  201.86900330    2.73000002    2.48000002
   11.72805500  201.86900330    2.75000000    2.48000002
   11.73222160  210.00199890    2.78999996    2.48000002
   11.73555565  208.58799744    2.78999996    2.48000002
   11.73861122  209.27900696    2.84999990    2.48000002
   11.74194431  202.85000610    2.84999990    2.48000002
   11.74527836  216.36199951    2.80999994    2.48000002
   11.74638939  212.88499451    2.84999990    2.48000002
   11.74861145  216.11300659    2.91000009    2.48000002
   11.75194454  200.29800415    2.93000007    2.48000002
   11.75527763  216.39700317    2.93000007    2.48000002
   11.75833321  214.86000061    2.93000007    2.48000002
   11.76166630  198.85299683    2.96000004    2.50000000
   11.76500034  214.33099365    3.01999998    2.48000002
   11.77083302  214.33099365    3.03999996    2.48000002
   11.77499962  198.63600159    3.00000000    2.48000002
   11.77833271  218.18600464    3.09999990    2.50000000
   11.77972221  193.74099731    3.07999992    2.50000000
   11.78194427  206.64300537    3.00000000    2.48000002
   11.78527832  200.80400085    3.07999992    2.50000000
   11.78833389  204.77999878    3.09999990    2.50000000
   11.79166698  196.47099304    3.09999990    2.50000000
   11.79500008  201.38299561    3.09999990    2.48000002
   11.79805565  199.75700378    3.07999992    2.48000002
   11.80138874  196.10299683    3.09999990    2.50000000
   11.80472279  197.34500122    3.05999994    2.50000000
   11.80777836  192.40499878    3.03999996    2.50000000
   11.81388950  192.40499878    3.03999996    2.50000000
   11.81805515  194.59599304    3.07999992    2.50000000
   11.82111073  206.20399475    3.03999996    2.50000000
   11.82444477  196.72799683    3.00000000    2.50000000
   11.82750034  205.11199951    2.94000006    2.50000000
   11.83083344  208.57800293    3.03999996    2.51999998
   11.83416653  194.29100037    3.03999996    2.51999998
   11.83722210  218.75199890    3.07999992    2.50000000
   11.84055519  203.66600037    3.03999996    2.50000000
   11.84388828  200.42399597    3.03999996    2.50000000
   11.84638882  199.71800232    3.07999992    2.51999998
   11.84722233  206.58299255    3.11999989    2.50000000
   11.85055637  202.53300476    3.16000009    2.50000000
   11.85666752  202.53300476    3.25000000    2.51999998
   11.86083412  200.51199341    3.30999994    2.51999998
   11.86388969  203.13200378    3.30999994    2.51999998
   11.86722279  198.71400452    3.28999996    2.51999998
   11.87055588  216.66099548    3.28999996    2.51999998
   11.87361145  218.68099976    3.26999998    2.51999998
   11.87694454  194.32800293    3.32999992    2.51999998
   11.87972260  190.95700073    3.23000002    2.51999998
   11.88055611  196.89500427    3.26999998    2.51999998
   11.88388920  197.16000366    3.25000000    2.51999998
   11.88694477  183.08799744    3.28999996    2.51999998
   11.89027786  192.68800354    3.23000002    2.51999998
   11.89361095  193.05499268    3.21000004    2.51999998
   11.89944458  193.05499268    3.30999994    2.51999998
   11.90361118  208.53199768    3.32999992    2.51999998
   11.90694427  197.26400757    3.32999992    2.51999998
   11.90999985  194.56199646    3.32999992    2.51999998
   11.91305542  189.11199951    3.28999996    2.51999998
   11.91361046  206.15299988    3.28999996    2.51999998
   11.91694450  197.22900391    3.30999994    2.51999998
   11.92055607  184.76400757    3.30999994    2.51999998
   11.92361164  188.10400391    3.36999989    2.51999998
   11.92694473  208.14599609    3.32999992    2.51999998
   11.93027782  187.67399597    3.30999994    2.51999998
   11.93333340  188.68299866    3.30999994    2.51999998
   11.93666649  190.84700012    3.43000007    2.53999996
   11.94277763  190.84700012    3.41000009    2.53999996
   11.94666672  189.87199402    3.45000005    2.53999996
   11.94999981  199.56100464    3.43000007    2.53999996
   11.95333290  177.78300476    3.39000010    2.53999996
   11.95638847  196.99600220    3.45000005    2.53999996
   11.95972157  203.62500000    3.51999998    2.53999996
   11.96305561  200.05200195    3.55999994    2.53999996
   11.96611118  188.96600342    3.46000004    2.55999994
   11.96944427  182.91999817    3.51999998    2.53999996
   11.97249985  185.62399292    3.48000002    2.53999996
   11.97583294  195.22000122    3.51999998    2.51999998
   11.97916603  191.09399414    3.51999998    2.53999996
   11.97972202  183.53999329    3.51999998    2.53999996
   11.98527813  183.53999329    3.50000000    2.53999996
   11.98944473  184.63999939    3.50000000    2.53999996
   11.99250031  188.49899292    3.55999994    2.53999996
   11.99583340  185.97399902    3.51999998    2.53999996
   11.99888897  197.43400574    3.57999992    2.55999994
   12.00222206  183.73100281    3.53999996    2.53999996
   12.00555515  186.03300476    3.50000000    2.53999996
   12.00861073  195.74499512    3.53999996    2.55999994
   12.01194477  183.81700134    3.50000000    2.53999996
   12.01305580  187.85099792    3.55999994    2.53999996
   12.01555538  186.52600098    3.55999994    2.53999996
   12.01888847  193.85400391    3.57999992    2.53999996
   12.02222157  203.25999451    3.64000010    2.55999994
   12.02805519  203.25999451    3.73000002    2.53999996
   12.03222179  179.35000610    3.75000000    2.53999996
   12.03527832  182.72300720    3.80999994    2.53999996
   12.03861141  190.00700378    3.82999992    2.53999996
   12.04194450  197.64799500    3.89000010    2.53999996
   12.04500008  182.13900757    3.84999990    2.53999996
   12.04638958  189.29600525    3.93000007    2.55999994
   12.04861164  182.59700012    3.89000010    2.53999996
   12.05194473  188.84500122    3.99000001    2.53999996
   12.05527782  186.21000671    3.93000007    2.55999994
   12.05833340  185.23899841    3.91000009    2.53999996
   12.06166649  184.24499512    3.95000005    2.53999996
   12.06472206  189.28300476    3.95000005    2.53999996
   12.07083321  189.28300476    3.86999989    2.53999996
   12.07499981  186.24099731    3.82999992    2.55999994
   12.07833290  186.96400452    3.95000005    2.55999994
   12.07972240  197.10499573    3.95000005    2.55999994
   12.08166695  188.91799927    3.84999990    2.55999994
   12.08500004  182.75399780    3.89000010    2.55999994
   12.08833313  187.33799744    3.84999990    2.53999996
   12.09138870  192.52299500    3.84999990    2.55999994
   12.09472179  189.53700256    3.78999996    2.55999994
   12.09777737  187.56900024    3.82999992    2.55999994
   12.10111141  182.85200500    3.84999990    2.55999994
   12.10444450  180.21299744    4.00000000    2.55999994
   12.10750008  180.44900513    3.93000007    2.55999994
   12.12888908  180.44900513    4.15999985    2.55999994
   12.13305569  181.74600220    4.21999979    2.55999994
   12.13611126  169.81399536    4.30999994    2.57999992
   12.13944435  184.14300537    4.21999979    2.57999992
   12.14249992  175.28700256    4.17999983    2.55999994
   12.14583302  180.08999634    4.13999987    2.55999994
   12.14916611  183.61999512    4.13999987    2.57999992
   12.15222168  178.77200317    4.15999985    2.57999992
   12.15555477  185.45300293    4.03999996    2.55999994
   12.15888882  182.77099609    4.11999989    2.55999994
   12.15972137  184.62500000    4.15999985    2.55999994
   12.16222191  185.97300720    4.11999989    2.55999994
   12.16555500  177.96299744    4.05999994    2.57999992
   12.17166710  177.96299744    4.17999983    2.57999992
   12.17555618  185.45500183    4.11999989    2.57999992
   12.17888927  180.16900635    4.13999987    2.57999992
   12.18222237  221.24600220    4.26000023    2.55999994
   12.18527794  205.60400391    4.21999979    2.57999992
   12.18861103  228.00999451    4.26999998    2.57999992
   12.19194412  254.29200745    4.26000023    2.57999992
   12.19305515  234.71800232    4.36999989    2.55999994
   12.19527817  213.49800110    4.30999994    2.57999992
   12.19861126  244.86700439    4.38999987    2.57999992
   12.20166683  193.31199646    4.36999989    2.57999992
   12.20499992  273.83401489    4.42999983    2.57999992
   12.20833302  222.66900635    4.40999985    2.55999994
   12.21444416  222.66900635    4.55999994    2.57999992
   12.21861076  182.86999512    4.59999990    2.57999992
   12.22166634  246.10499573    4.63999987    2.57999992
   12.22499943  241.91700745    4.53999996    2.57999992
   12.22638798  227.86999512    4.44999981    2.57999992
   12.22861099  226.59300232    4.57999992    2.55999994
   12.23194408  211.58999634    4.59999990    2.57999992
   12.23500061  241.90699768    4.48999977    2.57999992
   12.23833370  209.55999756    4.59999990    2.57999992
   12.24166679  238.55700684    4.55999994    2.57999992
   12.24472237  227.60699463    4.53000021    2.55999994
   12.24805546  224.42199707    4.61999989    2.57999992
   12.25111103  237.76100159    4.61999989    2.57999992
   12.25722218  237.76100159    4.61999989    2.57999992
   12.26138878  245.69200134    4.67999983    2.55999994
   12.26472187  253.92399597    4.48999977    2.57999992
   12.26777744  251.68600464    4.65999985    2.55999994
   12.27111053  247.40199280    4.69999981    2.57999992
   12.27416611  242.70100403    4.65999985    2.59999990
   12.27750015  247.88400269    4.76000023    2.55999994
   12.28083324  231.87600708    4.69999981    2.57999992
   12.28388977  229.25700378    4.69999981    2.57999992
   12.28722286  254.18899536    4.67999983    2.59999990
   12.29055595  238.14300537    4.73999977    2.57999992
   12.29305553  242.30799866    4.80999994    2.57999992
   12.29416752  237.61999512    4.80000019    2.57999992
   12.30000019  237.61999512    4.84999990    2.57999992
   12.30416679  254.41900635    4.80999994    2.57999992
   12.30749989  231.02999878    4.82999992    2.57999992
   12.31055546  237.21200562    4.88999987    2.57999992
   12.31388950  256.28298950    4.80999994    2.57999992
   12.31722260  239.46800232    4.90999985    2.57999992
   12.32027817  211.91900635    4.84999990    2.59999990
   12.32361126  231.56399536    4.90999985    2.59999990
   12.32638836  207.02699280    4.90999985    2.59999990
   12.32722187  241.96200562    4.90999985    2.57999992
   12.33055592  249.07800293    4.90999985    2.59999990
   12.33361053  230.10800171    4.82999992    2.59999990
   12.33694458  217.47900391    4.90999985    2.57999992
   12.34305477  217.47900391    4.88999987    2.59999990
   12.34694386  212.23100281    4.90999985    2.59999990
   12.35027790  217.87600708    4.88999987    2.59999990
   12.35361195  238.90299988    4.90999985    2.59999990
   12.35666752  223.07000732    4.90999985    2.59999990
   12.35972214  222.24499512    4.90999985    2.57999992
   12.36055565  216.97599792    4.90999985    2.57999992
   12.36388969  217.25199890    4.90999985    2.59999990
   12.36722279  218.67900085    4.90999985    2.57999992
   12.37055588  225.69000244    4.90999985    2.57999992
   12.37388897  209.62399292    4.90999985    2.59999990
   12.37694454  224.57000732    4.90999985    2.57999992
   12.38027763  241.12699890    4.90999985    2.57999992
   12.38583279  241.12699890    4.90999985    2.59999990
   12.39000034  239.87399292    4.90999985    2.57999992
   12.39305496  217.74000549    4.90999985    2.59999990
   12.39361095  215.28700256    4.90999985    2.57999992
   12.39694405  224.65299988    4.90999985    2.59999990
   12.39999962  210.49200439    4.90999985    2.57999992
   12.40333271  223.08399963    4.90999985    2.59999990
   12.40666676  206.58500671    4.90999985    2.59999990
   12.40972137  208.67599487    4.90999985    2.57999992
   12.41305542  210.31399536    4.90999985    2.57999992
   12.41611099  225.70700073    4.90999985    2.59999990
   12.41944504  209.27900696    4.90999985    2.59999990
   12.42277813  210.21800232    4.90999985    2.59999990
   12.42861176  210.21800232    4.90999985    2.59999990
   12.43277836  210.11999512    4.90999985    2.59999990
   12.43611145  203.94999695    4.90999985    2.59999990
   12.43916702  193.70100403    4.90999985    2.61999989
   12.44250011  214.27400208    4.90999985    2.59999990
   12.44583321  208.94700623    4.90999985    2.59999990
   12.44888878  219.30999756    4.90999985    2.59999990
   12.45222187  200.23399353    4.90999985    2.61999989
   12.45555496  204.99299622    4.90999985    2.61999989
   12.45861053  195.31599426    4.90999985    2.59999990
   12.45972157  198.10699463    4.90999985    2.59999990
   12.46222210  198.07899475    4.90999985    2.59999990
   12.46555519  198.23100281    4.90999985    2.59999990
   12.47138882  198.23100281    4.90999985    2.59999990
   12.47555542  203.69299316    4.90999985    2.59999990
   12.47888851  189.81300354    4.90999985    2.61999989
   12.48194408  203.64700317    4.90999985    2.59999990
   12.48527813  191.41200256    4.90999985    2.59999990
   12.48861122  188.65400696    4.90999985    2.59999990
   12.49166679  193.23699951    4.90999985    2.59999990
   12.49305534  201.39199829    4.90999985    2.59999990
   12.49527836  198.95300293    4.90999985    2.61999989
   12.49861145  194.56300354    4.90999985    2.59999990
   12.50166702  199.95599365    4.90999985    2.61999989
   12.50500011  190.45799255    4.90999985    2.59999990
   12.50833321  192.34899902    4.90999985    2.59999990
   12.51444435  192.34899902    4.90999985    2.59999990
   12.51833344  191.88800049    4.90999985    2.59999990
   12.52166653  184.35600281    4.90999985    2.57999992
   12.52499962  182.53599548    4.90999985    2.59999990
   12.52666664  181.19400024    4.90999985    2.59999990
   12.52861118  181.64199829    4.90999985    2.61999989
   12.53194427  183.97599792    4.90999985    2.59999990
   12.53500080  172.38699341    4.90999985    2.59999990
   12.53833389  183.52799988    4.90999985    2.59999990
   12.54138947  190.94999695    4.90999985    2.59999990
   12.54472256  192.34399414    4.90999985    2.59999990
   12.54805565  187.33700562    4.90999985    2.57999992
   12.55111122  177.09300232    4.90999985    2.59999990
   12.55722237  177.09300232    4.90999985    2.57999992
   12.56138897  186.57800293    4.90999985    2.59999990
   12.56444454  175.82899475    4.90999985    2.61999989
   12.56777763  180.00700378    4.90999985    2.59999990
   12.57111073  180.20899963    4.90999985    2.59999990
   12.57416630  181.07299805    4.90999985    2.59999990
   12.57750034  179.73500061    4.90999985    2.59999990
   12.58055592  181.08000183    4.90999985    2.59999990
   12.58388901  186.20100403    4.90999985    2.59999990
   12.58722210  170.80900574    4.90999985    2.59999990
   12.59027767  180.12500000    4.90999985    2.59999990
   12.59333324  175.02999878    4.90999985    2.61999989
   12.59388828  181.37699890    4.90999985    2.61999989
   12.60000038  181.37699890    4.90999985    2.59999990
   12.60416698  178.87500000    4.90999985    2.59999990
   12.60750008  174.57299805    4.90999985    2.61999989
   12.61055565  173.20799255    4.90999985    2.61999989
   12.61388969  174.42500305    4.90999985    2.61999989
   12.61694431  189.95899963    4.90999985    2.61999989
   12.62027836  178.89100647    4.90999985    2.61999989
   12.62361145  174.76699829    4.90999985    2.59999990
   12.62666702  181.11999512    4.90999985    2.61999989
   12.62722206  176.91700745    4.90999985    2.61999989
   12.63055611  175.19599915    4.90999985    2.61999989
   12.63361073  180.69299316    4.90999985    2.61999989
   12.63694477  174.53599548    4.90999985    2.61999989
   12.64277744  174.53599548    4.90999985    2.61999989
   12.64694405  176.36999512    4.90999985    2.61999989
   12.65027714  182.36500549    4.90999985    2.61999989
   12.65333271  177.23300171    4.90999985    2.61999989
   12.65666676  178.40199280    4.90999985    2.61999989
   12.65999985  178.33099365    4.90999985    2.61999989
   12.66055489  182.37500000    4.90999985    2.61999989
   12.66361046  181.28900146    4.90999985    2.61999989
   12.66694450  189.33900452    4.90999985    2.61999989
   12.67000008  183.34399414    4.90999985    2.61999989
   12.67333412  170.86300659    4.90999985    2.61999989
   12.67666721  175.44099426    4.90999985    2.61999989
   12.67972279  179.80000305    4.90999985    2.59999990
   12.68555546  179.80000305    4.90999985    2.61999989
   12.68972206  176.83900452    4.90999985    2.61999989
   12.69305515  180.70799255    4.90999985    2.61999989
   12.69388866  185.32600403    4.90999985    2.59999990
   12.69666672  182.16299438    4.90999985    2.61999989
   12.69999981  181.01600647    4.90999985    2.61999989
   12.70333290  177.78900146    4.90999985    2.61999989
   12.70638847  180.38099670    4.90999985    2.64000010
   12.70972157  176.53500366    4.90999985    2.64000010
   12.71277714  177.59300232    4.90999985    2.61999989
   12.71611118  176.85800171    4.90999985    2.61999989
   12.71944427  186.75399780    4.90999985    2.61999989
   12.72249985  183.91299438    4.90999985    2.61999989
   12.72861099  183.91299438    4.90999985    2.64000010
   12.73277760  179.97799683    4.90999985    2.64000010
   12.73583317  172.14900208    4.90999985    2.64000010
   12.73916721  184.26300049    4.90999985    2.61999989
   12.74222279  182.97900391    4.90999985    2.64000010
   12.74555588  185.18299866    4.90999985    2.64000010
   12.74888897  185.67199707    4.90999985    2.64000010
   12.75194454  175.10899353    4.90999985    2.64000010
   12.75527763  173.46800232    4.90999985    2.64000010
   12.75861073  177.73399353    4.90999985    2.64000010
   12.76055527  180.44099426    4.90999985    2.64000010
   12.76222229  173.72999573    4.90999985    2.64000010
   12.76555538  171.96800232    4.90999985    2.64000010
   12.77138901  171.96800232    4.90999985    2.64000010
   12.77555561  170.69900513    4.90999985    2.66000009
   12.77888870  165.87800598    4.90999985    2.64000010
   12.78194427  170.00500488    4.90999985    2.66000009
   12.78527832  163.73199463    4.90999985    2.66000009
   12.78861141  171.94000244    4.90999985    2.66000009
   12.79166698  175.19500732    4.90999985    2.64000010
   12.79388905  175.54299927    4.90999985    2.66000009
   12.79527855  171.24899292    4.90999985    2.66000009
   12.79861164  172.62899780    4.90999985    2.66000009
   12.80194473  174.36099243    4.90999985    2.66000009
   12.80500031  166.30499268    4.90999985    2.66000009
   12.80833340  169.17500305    4.90999985    2.67000008
   12.81416702  169.17500305    4.90999985    2.66000009
   12.81833363  167.48699951    4.90999985    2.66000009
   12.82166672  163.47999573    4.90999985    2.66000009
   12.82472229  160.77299500    4.90999985    2.66000009
   12.82722187  162.82000732    4.90999985    2.66000009
   12.82833290  173.95399475    4.90999985    2.66000009
   12.83166695  169.69900513    4.90999985    2.66000009
   12.83611107  167.46299744    4.90999985    2.66000009
   12.83916664  168.55999756    4.90999985    2.67000008
   12.84249973  169.49000549    4.90999985    2.66000009
   12.84583282  176.16400146    4.90999985    2.66000009
   12.84888840  170.30000305    4.90999985    2.67000008
   12.85222244  171.34199524    4.90999985    2.66000009
   12.85722256  171.34199524    4.90999985    2.67000008
   12.86138916  172.24400330    4.90999985    2.67000008
   12.86444473  181.59899902    4.90999985    2.67000008
   12.86777782  175.74200439    4.90999985    2.67000008
   12.87083340  171.55799866    4.90999985    2.67000008
   12.87416649  186.19799805    4.90999985    2.67000008
   12.87750053  178.72500610    4.90999985    2.66000009
   12.88055611  181.00199890    4.90999985    2.67000008
   12.88388920  183.63200378    4.90999985    2.67000008
   12.88722229  187.71400452    4.90999985    2.67000008
   12.89027786  177.18800354    4.90999985    2.66000009
   12.89361095  167.43200684    4.90999985    2.67000008
   12.89416695  177.02200317    4.90999985    2.67000008
   12.89999962  177.02200317    4.90999985    2.67000008
   12.90416622  168.16099548    4.90999985    2.67000008
   12.90722179  157.82200623    4.90999985    2.67000008
   12.91055489  172.17700195    4.90999985    2.69000006
   12.91388893  161.07499695    4.90999985    2.67000008
   12.91694450  177.90299988    4.90999985    2.67000008
   12.92027855  155.75700378    4.90999985    2.67000008
   12.92333412  168.98599243    4.90999985    2.67000008
   12.92666721  166.59199524    4.90999985    2.67000008
   12.92750072  183.33599854    4.90999985    2.67000008
   12.93027782  179.59399414    4.90999985    2.67000008
   12.93361092  169.54200745    4.90999985    2.67000008
   12.93694496  173.55999756    4.90999985    2.69000006
   12.94277763  173.55999756    4.90999985    2.67000008
   12.94694424  167.06199646    4.90999985    2.67000008
   12.94999981  167.98300171    4.90999985    2.69000006
   12.95333290  154.30999756    4.90999985    2.67000008
   12.95666695  171.27600098    4.90999985    2.69000006
   12.95972157  159.75399780    4.90999985    2.67000008
   12.96083355  161.60299683    4.90999985    2.67000008
   12.96333313  165.51199341    4.90999985    2.69000006
   12.96666622  164.21200562    4.90999985    2.69000006
   12.96999931  152.52000427    4.90999985    2.69000006
   12.97305489  162.39399719    4.90999985    2.69000006
   12.97638798  154.17700195    4.90999985    2.69000006
   12.97944355  165.61199951    4.90999985    2.69000006
   12.98555565  165.61199951    4.90999985    2.69000006
   12.98972225  159.48899841    4.90999985    2.67000008
   12.99305534  169.22599792    4.90999985    2.69000006
   12.99416733  164.86900330    4.90999985    2.69000006
   12.99638939  157.60200500    4.90999985    2.67000008
   12.99972248  160.33399963    4.90999985    2.69000006
   13.00305557  167.43400574    4.90999985    2.69000006
   13.00611115  177.04400635    4.90999985    2.67000008
   13.00944424  168.02999878    4.90999985    2.69000006
   13.01249981  163.45799255    4.90999985    2.71000004
   13.01583290  159.96099854    4.90999985    2.69000006
   13.01916599  154.30799866    4.90999985    2.69000006
   13.02222157  164.77499390    4.90999985    2.69000006
   13.02861118  164.77499390    4.90999985    2.69000006
   13.03249931  160.15699768    4.90999985    2.69000006
   13.03583336  157.54699707    4.90999985    2.71000004
   13.03916740  161.29299927    4.90999985    2.69000006
   13.04222298  164.89199829    4.90999985    2.69000006
   13.04555607  164.98199463    4.90999985    2.71000004
   13.04861164  167.86199951    4.90999985    2.71000004
   13.05194473  155.95599365    4.90999985    2.71000004
   13.05527782  160.73899841    4.90999985    2.69000006
   13.05833340  165.16799927    4.90999985    2.71000004
   13.06083393  160.94599915    4.90999985    2.69000006
   13.06194496  154.83799744    4.90999985    2.71000004
   13.06527805  158.89799500    4.90999985    2.71000004
   13.07138920  158.89799500    4.90999985    2.71000004
   13.07555580  157.61500549    4.90999985    2.71000004
   13.07861137  163.36700439    4.90999985    2.71000004
   13.08194447  158.86599731    4.90999985    2.71000004
   13.08500004  165.16999817    4.90999985    2.71000004
   13.08833313  168.46499634    4.90999985    2.71000004
   13.09166622  159.94400024    4.90999985    2.71000004
   13.09416676  157.68200684    4.90999985    2.71000004
   13.09499931  156.44500732    4.90999985    2.71000004
   13.09833336  165.60200500    4.90999985    2.71000004
   13.10166740  154.62899780    4.90999985    2.71000004
   13.10472298  154.96000671    4.90999985    2.71000004
   13.10805607  160.32099915    4.90999985    2.78999996
   13.11416721  160.32099915    4.90999985    2.78999996
   13.11833382  149.05299377    4.90999985    2.78999996
   13.12166691  166.81100464    4.90999985    2.78999996
   13.12472248  158.25300598    4.90999985    2.80999994
   13.14249992  156.30999756    4.90999985    2.78999996
   13.14472198  156.90299988    4.90999985    2.78999996
   13.14805508  150.68499756    4.90999985    2.78999996
   13.15138817  158.52099609    4.90999985    2.80999994
   13.15722179  158.52099609    4.90999985    2.80999994
   13.16138840  153.03500366    4.90999985    2.80999994
   13.16444397  157.80499268    4.90999985    2.76999998
   13.16777802  155.70799255    4.90999985    2.80999994
   13.17111111  161.97099304    4.90999985    2.78999996
   13.17416668  169.94200134    4.90999985    2.78999996
   13.17555618  193.53900146    4.90999985    2.78999996
   13.17777824  155.83200073    4.90999985    2.78999996
   13.18111134  154.78399658    4.90999985    2.80999994
   13.18416691  155.91900635    4.90999985    2.80999994
   13.18750000  148.23300171    4.90999985    2.80999994
   13.19055557  153.95500183    4.90999985    2.80999994
   13.19388866  153.78799438    4.90999985    2.80999994
   13.19999981  153.78799438    4.90999985    2.78999996
   13.20416641  149.15400696    4.90999985    2.80999994
   13.20749950  159.92700195    4.90999985    2.78999996
   13.20888901  159.58599854    4.90999985    2.80999994
   13.21111107  161.50100708    4.90999985    2.80999994
   13.21444416  151.30799866    4.90999985    2.80999994
   13.21749973  152.19400024    4.90999985    2.80999994
   13.22083282  153.14100647    4.90999985    2.82999992
   13.22388840  151.14900208    4.90999985    2.80999994
   13.22722149  163.20799255    4.90999985    2.80999994
   13.23055553  153.24099731    4.90999985    2.80999994
   13.23361111  159.40199280    4.90999985    2.78999996
   13.23694515  161.47999573    4.90999985    2.80999994
   13.24277782  161.47999573    4.90999985    2.80999994
   13.24694443  155.56399536    4.90999985    2.80999994
   13.25027752  150.19999695    4.90999985    2.82999992
   13.25361156  152.66400146    4.90999985    2.82999992
   13.25666714  153.08200073    4.90999985    2.80999994
   13.26000023  154.21299744    4.90999985    2.82999992
   13.26305580  155.39100647    4.90999985    2.82999992
   13.26638889  159.41799927    4.90999985    2.78999996
   13.26972198  151.91700745    4.90999985    2.80999994
   13.27277756  155.00799561    4.90999985    2.80999994
   13.27555561  152.03100586    4.90999985    2.82999992
   13.27638817  150.09700012    4.90999985    2.82999992
   13.27972221  149.60699463    4.90999985    2.80999994
   13.28583336  149.60699463    4.90999985    2.80999994
   13.29000092  150.61000061    4.90999985    2.82999992
   13.29305553  151.03199768    4.90999985    2.80999994
   13.29638958  155.04200745    4.90999985    2.82999992
   13.29972267  165.99600220    4.90999985    2.80999994
   13.30277824  153.29899597    4.90999985    2.80999994
   13.30611134  149.88000488    4.90999985    2.80999994
   13.30888939  155.49800110    4.90999985    2.80999994
   13.30972195  157.80099487    4.90999985    2.80999994
   13.31305599  151.00900269    4.90999985    2.82999992
   13.31611156  152.95700073    4.90999985    2.82999992
   13.31944466  162.53300476    4.90999985    2.82999992
   13.32277775  156.10299683    4.90999985    2.82999992
   13.32861137  156.10299683    4.90999985    2.82999992
   13.33277798  166.76100159    4.90999985    2.80999994
   13.33583260  155.30000305    4.90999985    2.80999994
   13.33916664  155.63000488    4.90999985    2.82999992
   13.34222221  157.58299255    4.90999985    2.80999994
   13.34277725  152.14700317    4.90999985    2.82999992
   13.34611034  158.47599792    4.90999985    2.80999994
   13.34916592  154.22799683    4.90999985    2.82999992
   13.35249996  155.90400696    4.90999985    2.82999992
   13.35555553  149.49400330    4.90999985    2.82999992
   13.35888958  152.08399963    4.90999985    2.80999994
   13.36222267  151.59599304    4.90999985    2.82999992
   13.36527824  155.52299500    4.90999985    2.82999992
   13.37138939  155.52299500    4.90999985    2.82999992
   13.37555599  159.90400696    4.90999985    2.82999992
   13.37611103  148.30900574    4.90999985    2.82999992
   13.37916660  160.82200623    4.90999985    2.82999992
   13.38249969  156.85200500    4.90999985    2.82999992
   13.38583279  150.15899658    4.90999985    2.82999992
   13.38888836  154.84899902    4.90999985    2.82999992
   13.39222240  152.41299438    4.90999985    2.82999992
   13.39555550  157.50799561    4.90999985    2.84999990
   13.39861107  151.94799805    4.90999985    2.84999990
   13.40194416  156.94000244    4.90999985    2.82999992
   13.40527725  154.06599426    4.90999985    2.84999990
   13.40833282  154.01699829    4.90999985    2.82999992
   13.40888882  153.94900513    4.90999985    2.82999992
   13.41416645  153.94900513    4.90999985    2.84999990
   13.41833401  162.23699951    4.90999985    2.82999992
   13.42166710  156.83999634    4.90999985    2.84999990
   13.42472267  158.04100037    4.90999985    2.82999992
   13.42805576  153.05299377    4.90999985    2.84999990
   13.43138885  156.41999817    4.90999985    2.84999990
   13.43444443  157.94299316    4.90999985    2.84999990
   13.43777752  152.38800049    4.90999985    2.84999990
   13.44111156  151.66700745    4.90999985    2.84999990
   13.44222260  151.43200684    4.90999985    2.84999990
   13.44472218  148.29499817    4.90999985    2.82999992
   13.44777775  153.36099243    4.90999985    2.84999990
   13.45111084  153.32200623    4.90999985    2.84999990
   13.45722198  153.32200623    4.90999985    2.84999990
   13.46111107  150.50000000    4.90999985    2.84999990
   13.46444416  152.07699585    4.90999985    2.84999990
   13.46777725  156.67799377    4.90999985    2.84999990
   13.47083282  158.15299988    4.90999985    2.84999990
   13.47416592  148.88699341    4.90999985    2.86999989
   13.47555542  148.04200745    4.90999985    2.86999989
   13.47777748  154.68400574    4.90999985    2.86999989
   13.48083305  150.14999390    4.90999985    2.84999990
   13.48416710  156.10899353    4.90999985    2.84999990
   13.48750019  153.14500427    4.90999985    2.84999990
   13.49055576  156.85899353    4.90999985    2.86999989
   13.49388885  152.53199768    4.90999985    2.86999989
   13.50000000  152.53199768    4.90999985    2.86999989
   13.50416660  154.60699463    4.90999985    2.84999990
   13.50722218  156.03900146    4.90999985    2.86999989
   13.50888920  159.07600403    4.90999985    2.84999990
   13.51083374  155.11399841    4.90999985    2.84999990
   13.51388931  152.06700134    4.90999985    2.86999989
   13.51722240  159.90400696    4.90999985    2.86999989
   13.52055550  154.74000549    4.90999985    2.86999989
   13.52361107  154.99200439    4.90999985    2.84999990
   13.52694416  157.49899292    4.90999985    2.86999989
   13.53027725  154.98500061    4.90999985    2.84999990
   13.53333378  123.62799835    4.90999985    2.86999989
   13.53666687  164.36199951    4.90999985    2.86999989
   13.54277802  164.36199951    4.90999985    2.86999989
   13.54694462  158.65400696    4.90999985    2.86999989
   13.55000019  155.60099792    4.90999985    2.86999989
   13.55333328  156.92300415    4.90999985    2.86999989
   13.55666733  152.27499390    4.90999985    2.86999989
   13.55972195  153.83299255    4.90999985    2.86999989
   13.56305599  157.40899658    4.90999985    2.89000010
   13.56638908  151.69799805    4.90999985    2.86999989
   13.56944466  160.35699463    4.90999985    2.86999989
   13.57277775  152.73699951    4.90999985    2.89000010
   13.57555580  151.87300110    4.90999985    2.86999989
   13.57638836  151.74800110    4.90999985    2.89000010
   13.57944393  157.50799561    4.90999985    2.89000010
   13.58555508  157.50799561    4.90999985    2.89000010
   13.58972168  152.17799377    4.90999985    2.89000010
   13.59305477  153.61500549    4.90999985    2.91000009
   13.59611034  151.02999878    4.90999985    2.86999989
   13.59944439  156.82400513    4.90999985    2.89000010
   13.60277843  153.03599548    4.90999985    2.89000010
   13.60583401  154.94799805    4.90999985    2.91000009
   13.60888958  153.70399475    4.90999985    2.91000009
   13.60944462  148.95899963    4.90999985    2.89000010
   13.61250019  150.25700378    4.90999985    2.89000010
   13.61583328  154.92599487    4.90999985    2.89000010
   13.61916637  151.97200012    4.90999985    2.89000010
   13.62222195  153.07600403    4.90999985    2.89000010
   13.62861156  153.07600403    4.90999985    2.89000010
   13.63249969  146.47900391    4.90999985    2.91000009
   13.63583279  148.80000305    4.90999985    2.89000010
   13.63916683  151.92700195    4.90999985    2.91000009
   13.64222240  148.73899841    4.90999985    2.89000010
   13.64277744  146.55000305    4.90999985    2.89000010
   13.64583302  150.47200012    4.90999985    2.89000010
   13.64916611  148.27799988    4.90999985    2.89000010
   13.65249920  148.47500610    4.90999985    2.89000010
   13.65555477  150.49899292    4.90999985    2.91000009
   13.65888882  148.72300720    4.90999985    2.91000009
   13.66222191  150.70399475    4.90999985    2.89000010
   13.66527748  155.33599854    4.90999985    2.89000010
   13.67138958  155.33599854    4.90999985    2.91000009
   13.67555618  153.88200378    4.90999985    2.89000010
   13.67611122  148.17999268    4.90999985    2.89000010
   13.67916679  154.69099426    4.90999985    2.89000010
   13.68249989  152.34300232    4.90999985    2.91000009
   13.68555546  156.68800354    4.90999985    2.89000010
   13.68888855  150.20100403    4.90999985    2.89000010
   13.69222260  154.53300476    4.90999985    2.89000010
   13.69527817  151.09500122    4.90999985    2.89000010
   13.69861126  154.86000061    4.90999985    2.91000009
   13.70194435  152.63200378    4.90999985    2.91000009
   13.70499992  146.24899292    4.90999985    2.89000010
   13.70833302  153.42900085    4.90999985    2.91000009
   13.70944405  150.82600403    4.90999985    2.91000009
   13.71416664  150.82600403    4.90999985    2.91000009
   13.71833324  157.42900085    4.90999985    2.89000010
   13.72166634  148.38099670    4.90999985    2.89000010
   13.72472191  148.55000305    4.90999985    2.91000009
   13.72805500  148.25199890    4.90999985    2.89000010
   13.73138809  150.32600403    4.90999985    2.89000010
   13.73444462  152.58599854    4.90999985    2.89000010
   13.73777771  149.51699829    4.90999985    2.91000009
   13.74111176  149.31199646    4.90999985    2.91000009
   13.74277782  152.10800171    4.90999985    2.89000010
   13.74444485  151.55900574    4.90999985    2.91000009
   13.74777794  156.07800293    4.90999985    2.89000010
   13.75111103  150.89700317    4.90999985    2.91000009
   13.75694466  150.89700317    4.90999985    2.89000010
   13.76111126  154.83799744    4.90999985    2.89000010
   13.76444435  150.53500366    4.90999985    2.89000010
   13.76749992  150.62300110    4.90999985    2.91000009
   13.77083302  147.36599731    4.90999985    2.91000009
   13.77416611  151.12399292    4.90999985    2.91000009
   13.77611065  151.85200500    4.90999985    2.91000009
   13.77777767  154.01100159    4.90999985    2.91000009
   13.78111076  159.24499512    4.90999985    2.91000009
   13.78444481  156.55200195    4.90999985    2.91000009
   13.78750038  151.96099854    4.90999985    2.91000009
   13.79083347  154.95199585    4.90999985    2.91000009
   13.79388905  158.94299316    4.90999985    2.89000010
   13.80000019  158.94299316    4.90999985    2.91000009
   13.80388927  154.17799377    4.90999985    2.91000009
   13.80722237  154.86199951    4.90999985    2.91000009
   13.80944443  156.47399902    4.90999985    2.91000009
   13.81083393  154.08200073    4.90999985    2.91000009
   13.81416702  154.30200195    4.90999985    2.91000009
   13.81750011  161.09500122    4.90999985    2.91000009
   13.82055569  154.53799438    4.90999985    2.91000009
   13.82388878  152.33799744    4.90999985    2.91000009
   13.82694435  156.61700439    4.90999985    2.91000009
   13.83027744  144.30799866    4.90999985    2.91000009
   13.83361053  155.73699951    4.90999985    2.91000009
   13.83666611  149.46000671    4.90999985    2.91000009
   13.84277725  149.46000671    4.90999985    2.91000009
   13.84694386  153.46800232    4.90999985    2.93000007
   13.85000038  148.54699707    4.90999985    2.91000009
   13.85333347  150.50700378    4.90999985    2.91000009
   13.85666752  157.09300232    4.90999985    2.91000009
   13.85972214  151.56199646    4.90999985    2.91000009
   13.86305618  151.14199829    4.90999985    2.93000007
   13.86611176  148.43600464    4.90999985    2.93000007
   13.86944485  152.66499329    4.90999985    2.91000009
   13.87277794  149.77400208    4.90999985    2.91000009
   13.87583351  149.82200623    4.90999985    2.91000009
   13.87638855  150.68600464    4.90999985    2.91000009
   13.87972260  152.24499512    4.90999985    2.91000009
   13.88555527  152.24499512    4.90999985    2.91000009
   13.88972187  151.87100220    4.90999985    2.91000009
   13.89305496  152.19900513    4.90999985    2.91000009
   13.89611053  150.53700256    4.90999985    2.91000009
   13.89944458  149.94200134    4.90999985    2.91000009
   13.90249920  151.65100098    4.90999985    2.91000009
   13.90583324  153.61000061    4.90999985    2.93000007
   13.90916634  154.85000610    4.90999985    2.91000009
   13.90972137  154.94900513    4.90999985    2.91000009
   13.91277695  156.00500488    4.90999985    2.93000007
   13.91611099  157.24899292    4.90999985    2.91000009
   13.91916656  160.35400391    4.90999985    2.93000007
   13.92250061  150.48199463    4.90999985    2.91000009
   13.92833328  150.48199463    4.90999985    2.91000009
   13.93249989  149.96899414    4.90999985    2.93000007
   13.93583298  155.21200562    4.90999985    2.91000009
   13.93888855  151.47700500    4.90999985    2.91000009
   13.94222260  151.34199524    4.90999985    2.91000009
   13.94305515  152.65100098    4.90999985    2.91000009
   13.94583321  154.21600342    4.90999985    2.93000007
   13.94916630  153.97900391    4.90999985    2.93000007
   13.95222187  155.03100586    4.90999985    2.93000007
   13.95555496  154.61399841    4.90999985    2.91000009
   13.95861053  153.86700439    4.90999985    2.93000007
   13.96194458  150.57200623    4.90999985    2.91000009
   13.96527767  155.83799744    4.90999985    2.91000009
   13.97138882  155.83799744    4.90999985    2.91000009
   13.97527695  154.92999268    4.90999985    2.91000009
   13.97638798  152.08399963    4.90999985    2.93000007
   13.97916603  156.00300598    4.90999985    2.91000009
   13.98249912  155.28300476    4.90999985    2.93000007
   13.98555565  149.96299744    4.90999985    2.91000009
   13.98888874  150.46499634    4.90999985    2.93000007
   13.99194431  151.67500305    4.90999985    2.93000007
   13.99527836  151.35200500    4.90999985    2.93000007
   13.99861145  151.58500671    4.90999985    2.93000007
   14.00166702  149.69999695    4.90999985    2.93000007
   14.00500011  149.30400085    4.90999985    2.93000007
   14.00833321  152.72200012    4.90999985    2.93000007
   14.00972176  155.30200195    4.90999985    2.91000009
   14.01416683  155.30200195    4.90999985    2.91000009
   14.01833344  155.74899292    4.90999985    2.93000007
   14.02138901  159.16900635    4.90999985    2.93000007
   14.02472210  147.23899841    4.90999985    2.93000007
   14.02805519  151.72500610    4.90999985    2.93000007
   14.03111076  146.30099487    4.90999985    2.93000007
   14.03444481  149.87800598    4.90999985    2.93000007
   14.03750038  146.85600281    4.90999985    2.93000007
   14.04083347  145.80200195    4.90999985    2.93000007
   14.04305553  148.25999451    4.90999985    2.91000009
   14.04444504  147.83900452    4.90999985    2.91000009
   14.04777813  152.77200317    4.90999985    2.91000009
   14.05083370  161.32299805    4.90999985    2.93000007
   14.05694485  161.32299805    4.90999985    2.93000007
   14.06111145  155.25300598    4.90999985    2.93000007
   14.06444454  151.32000732    4.90999985    2.93000007
   14.06750011  153.41400146    4.90999985    2.93000007
   14.07083321  150.71800232    4.90999985    2.93000007
   14.07416630  153.87199402    4.90999985    2.93000007
   14.07638836  149.43600464    4.90999985    2.93000007
   14.07777786  151.27499390    4.90999985    2.93000007
   14.08111095  150.01699829    4.90999985    2.93000007
   14.08416653  149.03300476    4.90999985    2.93000007
   14.08749962  153.58200073    4.90999985    2.93000007
   14.09055519  151.50900269    4.90999985    2.93000007
   14.09388828  150.42100525    4.90999985    2.93000007
   14.09972191  150.42100525    4.90999985    2.93000007
   14.10388947  148.60000610    4.90999985    2.93000007
   14.10722256  148.42599487    4.90999985    2.93000007
   14.10972214  146.61999512    4.90999985    2.93000007
   14.11083412  142.34899902    4.90999985    2.93000007
   14.11416721  149.63999939    4.90999985    2.93000007
   14.11722279  145.27600098    4.90999985    2.93000007
   14.12055588  148.25000000    4.90999985    2.94000006
   14.12361145  148.09899902    4.90999985    2.93000007
   14.12694454  155.59599304    4.90999985    2.93000007
   14.13027763  149.88999939    4.90999985    2.93000007
   14.13333321  157.39399719    4.90999985    2.93000007
   14.13666630  149.81300354    4.90999985    2.93000007
   14.14277744  149.81300354    4.90999985    2.93000007
   14.16111088  147.11000061    4.90999985    2.93000007
   14.16416645  148.17999268    4.90999985    2.93000007
   14.16750050  154.16099548    4.90999985    2.93000007
   14.17083359  149.92900085    4.90999985    2.93000007
   14.17388916  148.93499756    4.90999985    2.93000007
   14.17722225  151.55900574    4.90999985    2.93000007
   14.18027782  151.70799255    4.90999985    2.93000007
   14.18583298  151.70799255    4.90999985    2.93000007
   14.19000053  151.30000305    4.90999985    2.93000007
   14.19305515  151.39700317    4.90999985    2.93000007
   14.19416714  149.30999756    4.90999985    2.94000006
   14.19666672  147.66400146    4.90999985    2.93000007
   14.19999981  154.40299988    4.90999985    2.93000007
   14.20333290  148.82099915    4.90999985    2.94000006
   14.20638847  149.57299805    4.90999985    2.93000007
   14.20972157  153.05599976    4.90999985    2.93000007
   14.21277714  151.97799683    4.90999985    2.93000007
   14.21611118  149.23199463    4.90999985    2.93000007
   14.21944427  149.88499451    4.90999985    2.93000007
   14.22249985  155.70399475    4.90999985    2.93000007
   14.22861099  155.70399475    4.90999985    2.94000006
   14.23277760  157.60499573    4.90999985    2.93000007
   14.23583317  149.78300476    4.90999985    2.94000006
   14.23916721  151.46000671    4.90999985    2.94000006
   14.24250031  153.39100647    4.90999985    2.93000007
   14.24583340  152.13000488    4.90999985    2.93000007
   14.24888897  149.44900513    4.90999985    2.93000007
   14.25222206  153.18699646    4.90999985    2.93000007
   14.25527763  150.80400085    4.90999985    2.93000007
   14.25861073  152.17700195    4.90999985    2.93000007
   14.26083374  154.11300659    4.90999985    2.94000006
   14.26222229  153.28999329    4.90999985    2.94000006
   14.26555538  156.19400024    4.90999985    2.94000006
   14.27138901  156.19400024    4.90999985    2.93000007
   14.27555561  154.21800232    4.90999985    2.93000007
   14.27888870  147.97599792    4.90999985    2.94000006
   14.28194427  151.74299622    4.90999985    2.93000007
   14.28527832  148.71400452    4.90999985    2.93000007
   14.28861141  147.28900146    4.90999985    2.93000007
   14.29166698  145.38299561    4.90999985    2.93000007
   14.29416752  158.27999878    4.90999985    2.93000007
   14.29527855  145.69799805    4.90999985    2.94000006
   14.29861164  144.16000366    4.90999985    2.94000006
   14.30194473  148.15199280    4.90999985    2.94000006
   14.30500031  148.32600403    4.90999985    2.93000007
   14.30833340  146.95300293    4.90999985    2.93000007
   14.31416702  146.95300293    4.90999985    2.93000007
   14.31833363  150.05999756    4.90999985    2.94000006
   14.32166672  155.40299988    4.90999985    2.93000007
   14.32499981  152.69299316    4.90999985    2.94000006
   14.32750034  150.32800293    4.90999985    2.93000007
   14.32861137  152.60000610    4.90999985    2.93000007
   14.33166695  153.31599426    4.90999985    2.93000007
   14.33500004  152.09700012    4.90999985    2.94000006
   14.33805561  151.57000732    4.90999985    2.93000007
   14.34138870  153.33799744    4.90999985    2.94000006
   14.34472179  161.21699524    4.90999985    2.93000007
   14.34777737  150.23699951    4.90999985    2.93000007
   14.35111141  151.45899963    4.90999985    2.93000007
   14.35722256  151.45899963    4.90999985    2.93000007
   14.36138916  154.91499329    4.90999985    2.94000006
   14.36444473  152.38400269    4.90999985    2.94000006
   14.36777782  153.24600220    4.90999985    2.94000006
   14.37083340  149.24600220    4.90999985    2.94000006
   14.37416649  144.27900696    4.90999985    2.94000006
   14.37750053  147.73500061    4.90999985    2.93000007
   14.38055611  152.46099854    4.90999985    2.93000007
   14.38388920  143.97500610    4.90999985    2.93000007
   14.38722229  152.32899475    4.90999985    2.93000007
   14.39027786  153.02699280    4.90999985    2.93000007
   14.39361095  145.02099609    4.90999985    2.93000007
   14.39416695  145.09399414    4.90999985    2.93000007
   14.39999962  145.09399414    4.90999985    2.94000006
   14.40416622  148.08399963    4.90999985    2.94000006
   14.40722179  147.88299561    4.90999985    2.94000006
   14.41055489  144.86799622    4.90999985    2.93000007
   14.41388893  153.04299927    4.90999985    2.93000007
   14.41694450  148.36799622    4.90999985    2.93000007
   14.42027855  150.57299805    4.90999985    2.94000006
   14.42361164  148.61700439    4.90999985    2.93000007
   14.42666721  143.61900330    4.90999985    2.93000007
   14.42750072  151.58599854    4.90999985    2.93000007
   14.43027782  149.92199707    4.90999985    2.94000006
   14.43361092  142.88699341    4.90999985    2.94000006
   14.43694496  145.99600220    4.90999985    2.94000006
   14.44277763  145.99600220    4.90999985    2.94000006
   14.44694424  149.23599243    4.90999985    2.94000006
   14.45027733  146.14399719    4.90999985    2.94000006
   14.45333290  146.63699341    4.90999985    2.94000006
   14.45666695  146.49000549    4.90999985    2.94000006
   14.45972157  148.57000732    4.90999985    2.93000007
   14.46083355  144.94999695    4.90999985    2.94000006
   14.46333313  147.05700684    4.90999985    2.94000006
   14.46666622  145.77799988    4.90999985    2.93000007
   14.46999931  148.08700562    4.90999985    2.94000006
   14.47305489  147.47599792    4.90999985    2.94000006
   14.47638798  151.35899353    4.90999985    2.94000006
   14.47972202  144.67999268    4.90999985    2.94000006
   14.48555565  144.67999268    4.90999985    2.94000006
   14.48972225  146.34399414    4.90999985    2.94000006
   14.49305534  151.26100159    4.90999985    2.93000007
   14.49416733  148.05999756    4.90999985    2.94000006
   14.49694443  147.55700684    4.90999985    2.94000006
   14.50000000  147.40499878    4.90999985    2.94000006
   14.50333309  146.53999329    4.90999985    2.94000006
   14.50638866  149.76800537    4.90999985    2.94000006
   14.50972176  148.59300232    4.90999985    2.94000006
   14.51305580  145.77799988    4.90999985    2.94000006
   14.51611137  146.68499756    4.90999985    2.94000006
   14.51944447  153.79299927    4.90999985    2.94000006
   14.52277756  145.77699280    4.90999985    2.94000006
   14.52861118  145.77699280    4.90999985    2.94000006
   14.53249931  141.89199829    4.90999985    2.94000006
   14.53583336  142.40600586    4.90999985    2.94000006
   14.53916740  149.87899780    4.90999985    2.94000006
   14.54222298  142.56399536    4.90999985    2.94000006
   14.54555607  151.33599854    4.90999985    2.94000006
   14.54888916  146.06399536    4.90999985    2.94000006
   14.55194473  151.41700745    4.90999985    2.94000006
   14.55527782  144.50500488    4.90999985    2.94000006
   14.55833340  147.06199646    4.90999985    2.94000006
   14.56083393  151.15499878    4.90999985    2.94000006
   14.56222248  148.68600464    4.90999985    2.94000006
   14.56527805  146.78599548    4.90999985    2.94000006
   14.57138920  146.78599548    4.90999985    2.94000006
   14.57555580  147.26300049    4.90999985    2.94000006
   14.57861137  145.88999939    4.90999985    2.94000006
   14.58194447  144.59399414    4.90999985    2.94000006
   14.58527756  146.16900635    4.90999985    2.94000006
   14.58833313  143.30299377    4.90999985    2.94000006
   14.59166622  145.68200684    4.90999985    2.94000006
   14.59416676  145.52699280    4.90999985    2.94000006
   14.59527779  141.36199951    4.90999985    2.94000006
   14.59833336  146.02200317    4.90999985    2.96000004
   14.60166740  143.38099670    4.90999985    2.94000006
   14.60472298  153.91799927    4.90999985    2.94000006
   14.60805607  153.13099670    4.90999985    2.94000006
   14.61416721  153.13099670    4.90999985    2.94000006
   14.61833382  146.66299438    4.90999985    2.94000006
   14.62166691  144.81399536    4.90999985    2.94000006
   14.62472248  143.86799622    4.90999985    2.94000006
   14.62750053  145.07600403    4.90999985    2.94000006
   14.62861156  145.38099670    4.90999985    2.94000006
   14.63166714  145.07499695    4.90999985    2.94000006
   14.63500023  143.43600464    4.90999985    2.94000006
   14.63805580  141.60499573    4.90999985    2.94000006
   14.64138889  147.02499390    4.90999985    2.94000006
   14.64472198  156.60899353    4.90999985    2.94000006
   14.64777756  147.92700195    4.90999985    2.94000006
   14.65111065  149.73300171    4.90999985    2.94000006
   14.65694427  149.73300171    4.90999985    2.94000006
   14.66111088  143.89900208    4.90999985    2.94000006
   14.66444397  149.14700317    4.90999985    2.94000006
   14.66777802  146.61199951    4.90999985    2.96000004
   14.67083359  145.98300171    4.90999985    2.96000004
   14.67416668  146.34300232    4.90999985    2.94000006
   14.67722225  144.33399963    4.90999985    2.94000006
   14.68055630  146.47099304    4.90999985    2.96000004
   14.68388939  146.54499817    4.90999985    2.96000004
   14.68694496  151.37600708    4.90999985    2.94000006
   14.69027805  146.40199280    4.90999985    2.94000006
   14.69333363  155.71099854    4.90999985    2.94000006
   14.69416714  146.55700684    4.90999985    2.94000006
   14.69972229  146.55700684    4.90999985    2.94000006
   14.70388889  147.09100342    4.90999985    2.94000006
   14.70722198  145.74899292    4.90999985    2.94000006
   14.71055508  146.79699707    4.90999985    2.94000006
   14.71361065  146.88900757    4.90999985    2.94000006
   14.71694374  149.97999573    4.90999985    2.96000004
   14.71999931  150.00700378    4.90999985    2.96000004
   14.72333336  146.69200134    4.90999985    2.94000006
   14.72666645  147.31799316    4.90999985    2.94000006
   14.72749996  150.38699341    4.90999985    2.96000004
   14.72999954  146.46400452    4.90999985    2.94000006
   14.73333359  148.90299988    4.90999985    2.96000004
   14.73666668  146.99200439    4.90999985    2.96000004
   14.74277782  146.99200439    4.90999985    2.94000006
   14.74694443  149.34100342    4.90999985    2.96000004
   14.75000000  144.35299683    4.90999985    2.94000006
   14.75333309  141.55000305    4.90999985    2.94000006
   14.75638866  160.48599243    4.90999985    2.94000006
   14.75972176  197.52799988    4.90999985    2.94000006
   14.76083374  214.83799744    4.90999985    2.94000006
   14.76333332  249.56700134    4.90999985    2.96000004
   14.76666641  222.01100159    4.90999985    2.94000006
   14.76999950  193.73899841    4.90999985    2.94000006
   14.77305508  203.01300049    4.90999985    2.94000006
   14.77638817  228.90499878    4.90999985    2.96000004
   14.77972221  233.58799744    4.90999985    2.94000006
   14.78555584  233.58799744    4.90999985    2.96000004
   14.78972244  211.24400330    4.90999985    2.96000004
   14.79305553  202.89500427    4.90999985    2.96000004
   14.79416752  205.90100098    4.90999985    2.96000004
   14.79666710  217.88900757    4.90999985    2.96000004
   14.79972267  208.67500305    4.90999985    2.96000004
   14.80305576  205.57000732    4.90999985    2.96000004
   14.80638885  211.71499634    4.90999985    2.96000004
   14.80944443  253.03799438    4.90999985    2.94000006
   14.81277752  271.80801392    4.90999985    2.96000004
   14.81583309  228.68200684    4.90999985    2.96000004
   14.81916618  203.81500244    4.90999985    2.94000006
   14.82250023  194.68800354    4.90999985    2.96000004
   14.82833290  194.68800354    4.90999985    2.94000006
   14.83249950  166.29699707    4.90999985    2.96000004
   14.83583260  163.71099854    4.90999985    2.96000004
   14.83888817  157.02699280    4.90999985    2.96000004
   14.84222221  156.80499268    4.90999985    2.94000006
   14.84555531  152.29600525    4.90999985    2.94000006
   14.84861088  139.59899902    4.90999985    2.94000006
   14.85194492  139.76400757    4.90999985    2.94000006
   14.85527802  141.33599854    4.90999985    2.96000004
   14.85833359  146.02600098    4.90999985    2.96000004
   14.86083412  140.46600342    4.90999985    2.94000006
   14.86222267  145.07899475    4.90999985    2.94000006
   14.86527824  148.02200317    4.90999985    2.96000004
   14.87138939  148.02200317    4.90999985    2.96000004
   14.87527752  142.68499756    4.90999985    2.94000006
   14.87861156  150.03199768    4.90999985    2.96000004
   14.88194466  145.87600708    4.90999985    2.96000004
   14.88500023  143.21699524    4.90999985    2.96000004
   14.88833332  146.59700012    4.90999985    2.94000006
   14.89166641  147.36799622    4.90999985    2.96000004
   14.89416695  148.75799561    4.90999985    2.96000004
   14.89527798  149.46800232    4.90999985    2.96000004
   14.89833355  147.29100037    4.90999985    2.96000004
   14.90166664  146.89799500    4.90999985    2.94000006
   14.90499973  149.20599365    4.90999985    2.96000004
   14.90805531  146.17100525    4.90999985    2.96000004
   14.91416645  146.17100525    4.90999985    2.96000004
   14.91833401  167.55599976    4.90999985    2.96000004
   14.92138958  199.38200378    4.90999985    2.96000004
   14.92472267  188.43600464    4.90999985    2.96000004
   14.92750072  207.11700439    4.90999985    2.96000004
   14.92833328  174.38900757    4.90999985    2.96000004
   14.93138885  200.94999695    4.90999985    2.96000004
   14.93472195  206.87500000    4.90999985    2.96000004
   14.93805599  206.38499451    4.90999985    2.94000006
   14.94111156  175.11700439    4.90999985    2.94000006
   14.94444466  192.58399963    4.90999985    2.96000004
   14.94750023  183.09800720    4.90999985    2.96000004
   14.95083332  163.58799744    4.90999985    2.96000004
   14.95694447  163.58799744    4.90999985    2.96000004
   14.96111107  157.19799805    4.90999985    2.96000004
   14.96416664  158.49299622    4.90999985    2.96000004
   14.96749973  158.70199585    4.90999985    2.96000004
   14.97083282  149.55200195    4.90999985    2.96000004
   14.97388840  147.21000671    4.90999985    2.96000004
   14.97722149  141.36399841    4.90999985    2.96000004
   14.98055553  146.02299500    4.90999985    2.96000004
   14.98361111  142.00399780    4.90999985    2.96000004
   14.98694515  155.99299622    4.90999985    2.96000004
   14.99000072  142.93400574    4.90999985    2.96000004
   14.99333382  141.90800476    4.90999985    2.96000004
   14.99416733  145.74699402    4.90999985    2.96000004
   14.99972248  145.74699402    4.90999985    2.96000004
   15.00388908  145.63900757    4.90999985    2.94000006
   15.00722218  143.78399658    4.90999985    2.96000004
   15.01027775  143.85299683    4.90999985    2.96000004
   15.01361084  141.58399963    4.90999985    2.94000006
   15.01694393  144.39199829    4.90999985    2.96000004
   15.02027798  144.11799622    4.90999985    2.96000004
   15.02333355  142.28199768    4.90999985    2.96000004
   15.02666664  144.91299438    4.90999985    2.96000004
   15.02750015  143.95199585    4.90999985    2.96000004
   15.03027725  139.53599548    4.90999985    2.96000004
   15.03333378  145.46000671    4.90999985    2.96000004
   15.03666687  151.54699707    4.90999985    2.96000004
   15.04277802  151.54699707    4.90999985    2.96000004
   15.04666710  144.27299500    4.90999985    2.96000004
   15.05000019  146.32400513    4.90999985    2.96000004
   15.05333328  143.30999756    4.90999985    2.96000004
   15.05638885  146.29400635    4.90999985    2.96000004
   15.05972195  140.23699951    4.90999985    2.96000004
   15.06083393  140.64599609    4.90999985    2.96000004
   15.06333351  141.83500671    4.90999985    2.96000004
   15.06638908  142.12800598    4.90999985    2.96000004
   15.06972218  137.26400757    4.90999985    2.96000004
   15.07305527  145.42700195    4.90999985    2.96000004
   15.07611084  140.29699707    4.90999985    2.96000004
   15.07944393  140.32200623    4.90999985    2.96000004
   15.08555508  140.32200623    4.90999985    2.96000004
   15.08972168  144.07699585    4.90999985    2.96000004
   15.09277725  147.59899902    4.90999985    2.96000004
   15.09416676  141.90299988    4.90999985    2.96000004
   15.09666634  141.37699890    4.90999985    2.96000004
   15.09972191  146.14399719    4.90999985    2.98000002
   15.10305595  140.37399292    4.90999985    2.96000004
   15.10638905  142.79699707    4.90999985    2.96000004
   15.10944462  148.41400146    4.90999985    2.96000004
   15.11277771  143.58500671    4.90999985    2.96000004
   15.11611176  145.15400696    4.90999985    2.96000004
   15.11916637  146.16600037    4.90999985    2.96000004
   15.12250042  143.72700500    4.90999985    2.96000004
   15.12833309  143.72700500    4.90999985    2.96000004
   15.13249969  140.91700745    4.90999985    2.96000004
   15.13555527  142.30499268    4.90999985    2.96000004
   15.13888836  143.08099365    4.90999985    2.96000004
   15.14222240  146.57200623    4.90999985    2.96000004
   15.14527798  146.92700195    4.90999985    2.96000004
   15.14861107  142.24499512    4.90999985    2.96000004
   15.15194416  143.08999634    4.90999985    2.96000004
   15.15499973  140.11500549    4.90999985    2.96000004
   15.15833282  141.84199524    4.90999985    2.96000004
   15.16083336  139.69700623    4.90999985    2.96000004
   15.18138885  139.69700623    4.90999985    2.96000004
   15.18555546  141.90600586    4.90999985    2.96000004
   15.18888855  142.69799805    4.90999985    2.96000004
   15.19194412  141.60000610    4.90999985    2.96000004
   15.19416714  139.47900391    4.90999985    2.96000004
   15.19583321  137.71800232    4.90999985    2.96000004
   15.19916630  142.37899780    4.90999985    2.96000004
   15.20222187  142.87300110    4.90999985    2.96000004
   15.20555496  138.28199768    4.90999985    2.96000004
   15.20888901  140.68600464    4.90999985    2.96000004
   15.21194458  139.37899780    4.90999985    2.96000004
   15.21527767  142.93099976    4.90999985    2.96000004
   15.21833324  143.71400452    4.90999985    2.96000004
   15.22416592  143.71400452    4.90999985    2.96000004
   15.22833252  139.98599243    4.90999985    2.96000004
   15.23166656  136.24899292    4.90999985    2.94000006
   15.23472214  143.35099792    4.90999985    2.96000004
   15.23805618  138.87600708    4.90999985    2.96000004
   15.24138927  144.75399780    4.90999985    2.96000004
   15.24444485  145.76499939    4.90999985    2.96000004
   15.24777794  137.32099915    4.90999985    2.96000004
   15.25083351  141.92900085    4.90999985    2.96000004
   15.25416660  139.61300659    4.90999985    2.96000004
   15.25749969  139.58799744    4.90999985    2.96000004
   15.26055527  137.33399963    4.90999985    2.96000004
   15.26111126  143.50000000    4.90999985    2.96000004
   15.26722240  143.50000000    4.90999985    2.96000004
   15.27111053  139.86700439    4.90999985    2.96000004
   15.27444458  145.20899963    4.90999985    2.96000004
   15.27777767  142.13099670    4.90999985    2.96000004
   15.28083324  142.85000610    4.90999985    2.96000004
   15.28416729  144.21600342    4.90999985    2.96000004
   15.38249969   -1.00000000   -1.00000000   -1.00000000
   15.49611092   -1.00000000   -1.00000000   -1.00000000
   15.60027790   -1.00000000   -1.00000000   -1.00000000
   15.63944435  102.43000031    4.90999985    2.94000006
   15.64277744  162.40199280    4.90999985    2.94000006
   15.64611053  153.27200317    4.90999985    2.94000006
   15.64916611  160.61399841    4.90999985    2.94000006
   15.65249920  147.10699463    4.90999985    2.94000006
   15.65583324  148.55700684    4.90999985    2.94000006
   15.65999985  148.55700684    4.90999985    2.94000006
   15.66388893  153.99699402    4.90999985    2.96000004
   15.66722298  159.00700378    4.90999985    2.94000006
   15.67055607  155.82800293    4.90999985    2.94000006
   15.67277813  150.22099304    4.90999985    2.94000006
   15.67416668  146.11599731    4.90999985    2.94000006
   15.67750072  149.79400635    4.90999985    2.96000004
   15.68055630  149.77499390    4.90999985    2.96000004
   15.68388939  147.21000671    4.90999985    2.94000006
   15.68694496  149.18600464    4.90999985    2.94000006
   15.69027805  155.11900330    4.90999985    2.94000006
   15.69388866  142.39300537    4.90999985    2.94000006
   15.69722271  150.44599915    4.90999985    2.94000006
   15.70333290  150.44599915    4.90999985    2.94000006
   15.70722198  145.31599426    4.90999985    2.94000006
   15.71055508  146.21200562    4.90999985    2.94000006
   15.71388912  150.24899292    4.90999985    2.94000006
   15.71694374  144.21099854    4.90999985    2.94000006
   15.72027779  143.84500122    4.90999985    2.94000006
   15.72361088  145.76400757    4.90999985    2.94000006
   15.72666645  148.10899353    4.90999985    2.94000006
   15.72999954  147.73100281    4.90999985    2.94000006
   15.73305511  144.47500610    4.90999985    2.94000006
   15.73638916  143.27000427    4.90999985    2.94000006
   15.73972225  146.50100708    4.90999985    2.94000006
   15.74027824  146.22500610    4.90999985    2.94000006
   15.74611092  146.22500610    4.90999985    2.94000006
   15.75027752  149.59599304    4.90999985    2.94000006
   15.75333309  142.47999573    4.90999985    2.94000006
   15.75666714  147.63400269    4.90999985    2.94000006
   15.76000023  145.37699890    4.90999985    2.94000006
   15.76305580  143.36300659    4.90999985    2.94000006
   15.76638889  147.83500671    4.90999985    2.94000006
   15.76944447  144.89900208    4.90999985    2.94000006
   15.77277756  145.64399719    4.90999985    2.94000006
   15.77361107  145.53199768    4.90999985    2.94000006
   15.77638817  147.91200256    4.90999985    2.94000006
   15.77944374  149.37699890    4.90999985    2.94000006
   15.78277779  149.30799866    4.90999985    2.94000006
   15.78861141  149.30799866    4.90999985    2.93000007
   15.79277802  145.83999634    4.90999985    2.94000006
   15.79611111  152.22700500    4.90999985    2.94000006
   15.79916668  147.68499756    4.90999985    2.94000006
   15.80249977  150.83299255    4.90999985    2.94000006
   15.80583382  144.85699463    4.90999985    2.94000006
   15.80666733  144.93200684    4.90999985    2.94000006
   15.80944443  144.67500305    4.90999985    2.94000006
   15.81250000  150.18099976    4.90999985    2.93000007
   15.81583309  159.39500427    4.90999985    2.94000006
   15.81888866  141.16700745    4.90999985    2.94000006
   15.82222176  142.63600159    4.90999985    2.94000006
   15.82555580  148.15100098    4.90999985    2.94000006
   15.83166695  148.15100098    4.90999985    2.94000006
   15.83555508  142.27400208    4.90999985    2.94000006
   15.83888817  149.92399597    4.90999985    2.94000006
   15.84000015  147.82400513    4.90999985    2.94000006
   15.84277725  147.55999756    4.90999985    2.94000006
   15.84583282  146.47099304    4.90999985    2.93000007
   15.84916592  147.26100159    4.90999985    2.94000006
   15.85222244  141.99800110    4.90999985    2.94000006
   15.85555553  149.30599976    4.90999985    2.94000006
   15.85888958  143.00000000    4.90999985    2.94000006
   15.86194515  145.57299805    4.90999985    2.94000006
   15.86527824  145.33000183    4.90999985    2.94000006
   15.86861134  148.23100281    4.90999985    2.94000006
   15.87444496  148.23100281    4.90999985    2.94000006
   15.87861156  140.24800110    4.90999985    2.94000006
   15.88166714  141.91600037    4.90999985    2.94000006
   15.88500023  140.64500427    4.90999985    2.94000006
   15.88833332  141.88099670    4.90999985    2.94000006
   15.89138889  138.98399353    4.90999985    2.94000006
   15.89472198  143.75300598    4.90999985    2.94000006
   15.89805508  143.08999634    4.90999985    2.94000006
   15.90111065  146.83999634    4.90999985    2.94000006
   15.90444374  143.44799805    4.90999985    2.94000006
   15.90666676  145.45899963    4.90999985    2.94000006
   15.90805531  141.41000366    4.90999985    2.94000006
   15.91111088  143.03700256    4.90999985    2.94000006
   15.91722298  143.03700256    4.90999985    2.94000006
   15.92138958  148.55099487    4.90999985    2.94000006
   15.92472267  149.60499573    4.90999985    2.94000006
   15.92777824  143.13999939    4.90999985    2.94000006
   15.93111134  144.95199585    4.90999985    2.94000006
   15.93416691  142.53599548    4.90999985    2.94000006
   15.93750000  144.50999451    4.90999985    2.94000006
   15.94000053  151.45300293    4.90999985    2.94000006
   15.94138908  146.84300232    4.90999985    2.94000006
   15.94444466  147.64500427    4.90999985    2.93000007
   15.94777775  149.43899536    4.90999985    2.93000007
   15.95083332  147.47300720    4.90999985    2.94000006
   15.95416641  147.44299316    4.90999985    2.94000006
   15.96000004  147.44299316    4.90999985    2.94000006
   15.96416664  147.72799683    4.90999985    2.94000006
   15.96749973  142.40800476    4.90999985    2.94000006
   15.97055531  147.12199402    4.90999985    2.93000007
   15.97333336  142.79400635    4.90999985    2.94000006
   15.97444439  140.96499634    4.90999985    2.94000006
   15.97749996  143.38200378    4.90999985    2.94000006
   15.98083305  146.60299683    4.90999985    2.94000006
   15.98388958  151.71899414    4.90999985    2.94000006
   15.98722267  141.68800354    4.90999985    2.94000006
   15.99055576  141.51100159    4.90999985    2.93000007
   15.99361134  144.82699585    4.90999985    2.94000006
   15.99694443  150.87500000    4.90999985    2.94000006
   16.00305557  150.87500000    4.90999985    2.94000006
   16.00694466  146.71499634    4.90999985    2.94000006
   16.01027870  144.84500122    4.90999985    2.94000006
   16.01361084  142.33599854    4.90999985    2.94000006
   16.01666641  147.55700684    4.90999985    2.94000006
   16.02000046  145.10299683    4.90999985    2.93000007
   16.02333260  149.30599976    4.90999985    2.94000006
   16.02638817  142.77400208    4.90999985    2.93000007
   16.02972221  142.44500732    4.90999985    2.94000006
   16.03277779  143.27499390    4.90999985    2.94000006
   16.03610992  147.38600159    4.90999985    2.94000006
   16.03944397  159.73500061    4.90999985    2.94000006
   16.03999901  152.53199768    4.90999985    2.94000006
   16.04583359  152.53199768    4.90999985    2.93000007
   16.04999924  141.40299988    4.90999985    2.94000006
   16.05305481  144.91999817    4.90999985    2.93000007
   16.05638885  140.92599487    4.90999985    2.94000006
   16.05972099  141.16799927    4.90999985    2.94000006
   16.06277657  143.94400024    4.90999985    2.94000006
   16.06611061  144.65100098    4.90999985    2.94000006
   16.06944466  143.95799255    4.90999985    2.94000006
   16.07250023  142.52600098    4.90999985    2.94000006
   16.07333374  141.90400696    4.90999985    2.94000006
   16.07638931  140.82200623    4.90999985    2.94000006
   16.07944489  144.90600586    4.90999985    2.94000006
   16.08277893  144.53999329    4.90999985    2.93000007
   16.08861160  144.53999329    4.90999985    2.93000007
   16.09277916  141.89599609    4.90999985    2.94000006
   16.09611130  141.57200623    4.90999985    2.93000007
   16.09916687  143.97900391    4.90999985    2.94000006
   16.10250092  141.93800354    4.90999985    2.93000007
   16.10555649  145.53500366    4.90999985    2.94000006
   16.10666656  143.60699463    4.90999985    2.94000006
   16.10944557  144.09800720    4.90999985    2.94000006
   16.11250114  145.03399658    4.90999985    2.94000006
   16.11583328  144.84500122    4.90999985    2.94000006
   16.11916733  147.25900269    4.90999985    2.94000006
   16.12222290  142.00500488    4.90999985    2.94000006
   16.12555504  139.76400757    4.90999985    2.94000006
   16.13138962  139.76400757    4.90999985    2.94000006
   16.13555527  146.20599365    4.90999985    2.94000006
   16.13888931  142.97200012    4.90999985    2.94000006
   16.13999939  140.28500366    4.90999985    2.94000006
   16.14249992  141.09500122    4.90999985    2.94000006
   16.14555550  140.06599426    4.90999985    2.94000006
   16.14888954  144.44000244    4.90999985    2.94000006
   16.15222168  146.99200439    4.90999985    2.94000006
   16.15527725  138.03900146    4.90999985    2.94000006
   16.15861130  145.49899292    4.90999985    2.94000006
   16.16166687  137.75700378    4.90999985    2.94000006
   16.16499901  144.31599426    4.90999985    2.94000006
   16.16833305  149.51499939    4.90999985    2.94000006
   16.17416573  149.51499939    4.90999985    2.94000006
   16.17833328  142.38900757    4.90999985    2.94000006
   16.18166542  146.52699280    4.90999985    2.94000006
   16.18499947  147.36300659    4.90999985    2.94000006
   16.18805504  139.05099487    4.90999985    2.94000006
   16.19138718  143.67999268    4.90999985    2.94000006
   16.19472122  145.74600220    4.90999985    2.94000006
   16.19777679  148.92399597    4.90999985    2.94000006
   16.20111275  146.55499268    4.90999985    2.94000006
   16.20416832  144.49400330    4.90999985    2.94000006
   16.20666695  145.05599976    4.90999985    2.94000006
   16.20805550  147.30099487    4.90999985    2.94000006
   16.21111107  140.21200562    4.90999985    2.94000006
   16.21722221  140.21200562    4.90999985    2.94000006
   16.22111130  144.40899658    4.90999985    2.94000006
   16.22444534  140.79899597    4.90999985    2.94000006
   16.22777748  142.26800537    4.90999985    2.94000006
   16.23083305  145.88000488    4.90999985    2.94000006
   16.23416710  144.14799500    4.90999985    2.94000006
   16.23750114  144.84399414    4.90999985    2.94000006
   16.23999977  144.95500183    4.90999985    2.94000006
   16.24111176  143.85600281    4.90999985    2.94000006
   16.24416733  143.02200317    4.90999985    2.94000006
   16.24749947  145.91700745    4.90999985    2.94000006
   16.25055504  137.56399536    4.90999985    2.94000006
   16.25388908  150.17100525    4.90999985    2.93000007
   16.26000023  150.17100525    4.90999985    2.94000006
   16.26416588  142.48300171    4.90999985    2.94000006
   16.26722145  143.76499939    4.90999985    2.94000006
   16.27055550  141.07699585    4.90999985    2.94000006
   16.27333260  141.24800110    4.90999985    2.94000006
   16.27416611  146.94799805    4.90999985    2.94000006
   16.27722168  144.68299866    4.90999985    2.93000007
   16.28055573  147.68299866    4.90999985    2.94000006
   16.28361130  150.43400574    4.90999985    2.94000006
   16.28694344  146.83799744    4.90999985    2.94000006
   16.29027748  146.65299988    4.90999985    2.94000006
   16.29333305  142.20199585    4.90999985    2.94000006
   16.29666710  146.76600647    4.90999985    2.94000006
   16.30277634  146.76600647    4.90999985    2.94000006
   16.30694389  142.75599670    4.90999985    2.93000007
   16.31027794  146.85600281    4.90999985    2.94000006
   16.31333351  140.08999634    4.90999985    2.94000006
   16.31666756  147.07000732    4.90999985    2.94000006
   16.31972313  145.65400696    4.90999985    2.94000006
   16.32305717  140.36700439    4.90999985    2.94000006
   16.32638931  144.36199951    4.90999985    2.94000006
   16.32944489  142.73599243    4.90999985    2.94000006
   16.33277893  145.08000183    4.90999985    2.94000006
   16.33611107  149.29800415    4.90999985    2.94000006
   16.33916664  148.29299927    4.90999985    2.94000006
   16.34000015  143.97200012    4.90999985    2.94000006
   16.34555626  143.97200012    4.90999985    2.94000006
   16.34972191  145.95500183    4.90999985    2.94000006
   16.35305595  140.11700439    4.90999985    2.94000006
   16.35611153  147.00500488    4.90999985    2.94000006
   16.35944557  157.09599304    4.90999985    2.89000010
   16.36277771  152.94299316    4.90999985    2.73000002
   16.36583328  145.24200439    4.90999985    2.86999989
   16.36916733  142.33500671    4.90999985    2.89000010
   16.37249947  163.02000427    4.90999985    2.89000010
   16.37333298  153.57800293    4.90999985    2.86999989
   16.37611198  146.48899841    4.90999985    2.78999996
   16.37916756  156.54400635    4.90999985    2.78999996
   16.38249969  151.22599792    4.90999985    2.82999992
   16.38861084  151.22599792    4.90999985    2.84999990
   16.39249992  154.28100586    4.90999985    2.86999989
   16.39583397  211.62800598    4.90999985    2.86999989
   16.39916611  154.03799438    4.90999985    2.55999994
   16.40222168  164.07899475    4.90999985    2.86999989
   16.40555573  206.48100281    4.90999985    2.46000004
   16.40666580  133.53300476    4.90999985    2.57999992
   16.40916634  198.84500122    4.90999985    2.61999989
   16.41222191  148.09899902    4.90999985    2.39000010
   16.41555595  145.61500549    4.90999985    2.82999992
   16.41888809  145.41999817    4.90999985    2.86999989
   16.42194366  144.55099487    4.90999985    2.91000009
   16.42527771  143.62399292    4.90999985    2.91000009
   16.43138885  143.62399292    4.90999985    2.75000000
   16.43555450  295.03799438    4.90999985    2.61999989
   16.43861008   -1.00000000    4.90999985    2.15000010
   16.44222069   -1.00000000    4.90999985    1.73000002
   16.44555473   -1.00000000    4.90999985    1.86000001
   16.44888878   -1.00000000    4.90999985    1.64999998
   16.45194435   -1.00000000    4.90999985    1.44000006
   16.45527840   -1.00000000    4.90999985    0.55000001
   16.45833397   -1.00000000    4.90999985    0.88000000
   16.46166801   -1.00000000    4.90999985    0.50000000
   16.46500015  171.66900635    4.90999985    1.13000000
   16.46805573  175.17300415    4.90999985    2.86999989
   16.47416687  175.17300415    4.90999985    2.73000002
   16.47833443  149.26600647    4.90999985    2.86999989
   16.48166656  160.63000488    4.90999985    2.91000009
   16.48472214  153.24600220    4.90999985    2.91000009
   16.48805618  160.27099609    4.90999985    2.91000009
   16.49111176  157.96600342    4.90999985    2.86999989
   16.49444389  141.00700378    4.90999985    2.89000010
   16.49777794  143.33299255    4.90999985    2.91000009
   16.50083351  146.03199768    4.90999985    2.91000009
   16.50416756  139.95199585    4.90999985    2.86999989
   16.50666618  144.37600708    4.90999985    2.93000007
   16.50777817  141.77699280    4.90999985    2.93000007
   16.51083374  148.60400391    4.90999985    2.93000007
   16.51694489  148.60400391    4.90999985    2.94000006
   16.52111053  146.08500671    4.90999985    2.82999992
   16.52444458  147.70100403    4.90999985    2.89000010
   16.52750015  134.42500305    4.90999985    2.82999992
   16.53083229  136.08700562    4.90999985    2.84999990
   16.53416634  142.70899963    4.90999985    2.93000007
   16.53722191  155.12800598    4.90999985    2.86999989
   16.53999901  148.57099915    4.90999985    2.86999989
   16.54111099  133.34500122    4.90999985    2.89000010
   16.54416656  156.21600342    4.90999985    2.89000010
   16.54749870  154.41099548    4.90999985    2.84999990
   16.55083275  149.42999268    4.90999985    2.84999990
   16.55388832  152.44999695    4.90999985    2.89000010
   16.55999947  152.44999695    4.90999985    2.89000010
   16.56388855  136.55299377    4.90999985    2.89000010
   16.56722260  136.84199524    4.90999985    2.73000002
   16.57055664  148.36099243    4.90999985    2.84999990
   16.57333374  140.93299866    4.90999985    2.93000007
   16.57416725  140.44200134    4.90999985    2.94000006
   16.57722282  153.15600586    4.90999985    2.93000007
   16.58055687  145.66000366    4.90999985    2.93000007
   16.58388901  180.29600525    4.90999985    2.89000010
   16.58694458  143.21299744    4.90999985    2.73000002
   16.59027863  146.55900574    4.90999985    2.94000006
   16.59361267  145.47999573    4.90999985    2.78999996
   16.59666824  145.53100586    4.90999985    2.80999994
   16.60277748  145.53100586    4.90999985    2.96000004
   16.60694504  151.57800293    4.90999985    2.94000006
   16.61000061  170.22000122    4.90999985    2.73000002
   16.61333466  149.96299744    4.90999985    2.66000009
   16.61666679  175.63999939    4.90999985    2.40000010
   16.61972237  271.81399536    4.90999985    2.09999990
   16.62305641   -1.00000000    4.90999985    2.11999989
   16.62611198   -1.00000000    4.90999985    1.78999996
   16.62944412   -1.00000000    4.90999985    1.91999996
   16.63277817   -1.00000000    4.90999985    1.46000004
   16.63583374   -1.00000000    4.90999985    1.34000003
   16.63916588   95.89489746    4.90999985    1.98000002
   16.66472244   -1.00000000    4.90999985    1.71000004
   16.66805458   -1.00000000    4.90999985    1.66999996
   16.67111015   -1.00000000    4.90999985    1.26999998
   16.67472076   -1.00000000    4.90999985    1.36000001
   16.67777634   -1.00000000    4.90999985    1.60000002
   16.68111038   -1.00000000    4.90999985    1.64999998
   16.68416595   -1.00000000    4.90999985    1.39999998
   16.68750000   -1.00000000    4.90999985    1.50000000
   16.69083214   -1.00000000    4.90999985    1.28999996
   16.69388771   -1.00000000    4.90999985    1.07000005
   16.69722176   -1.00000000    4.90999985    1.05999994
   16.70750046   -1.00000000    4.90999985    0.83999997
   16.71055603   -1.00000000    4.90999985    0.95999998
   16.71389008   -1.00000000    4.90999985    0.88000000
   16.71722221   -1.00000000    4.90999985    0.86000001
   16.72027779   -1.00000000    4.90999985    0.64999998
   16.72361183   -1.00000000    4.90999985    0.89999998
   16.72694588   -1.00000000    4.90999985    1.30999994
   16.73000145   -1.00000000    4.90999985    0.86000001
   16.73333359   -1.00000000    4.90999985    0.63000000
   16.73638916   -1.00000000    4.90999985    0.95999998
   16.73972321   -1.00000000    4.90999985    0.81999999
   16.75027847   -1.00000000    4.90999985    0.94000000
   16.75361061   -1.00000000    4.90999985    1.46000004
   16.75666618   -1.00000000    4.90999985    1.03999996
   16.76000023   -1.00000000    4.90999985    1.03999996
   16.76333427   -1.00000000    4.90999985    1.25000000
   16.76638794   -1.00000000    4.90999985    1.11000001
   16.76972198   -1.00000000    4.90999985    0.98000002
   16.77277756   -1.00000000    4.90999985    0.88000000
   16.77638817   -1.00000000    4.90999985    0.75000000
   16.77972221   -1.00000000    4.90999985    0.50000000
   16.78305435   -1.00000000    4.90999985    0.67000002
   16.79305458   -1.00000000    4.90999985    0.46000001
   16.79638863   -1.00000000    4.90999985    0.40000001
   16.79972076   -1.00000000    4.90999985    0.28000000
   16.80277634   -1.00000000    4.90999985    0.25999999
   16.80611038   -1.00000000    4.90999985    0.20999999
   16.80944443   -1.00000000    4.90999985    0.19000000
   16.81277657   -1.00000000    4.90999985    0.20999999
   16.81611061   -1.00000000    4.90999985    0.23000000
   16.81916809   -1.00000000    4.90999985    0.23000000
   16.82250023   -1.00000000    4.90999985    0.25999999
   16.82555580   -1.00000000    4.90999985    0.28000000
   16.83611107   -1.00000000    4.90999985    0.28000000
   16.83916664   -1.00000000    4.90999985    0.25000000
   16.84277916   -1.00000000    4.90999985    0.25000000
   16.84611130   -1.00000000    4.90999985    0.25000000
   16.84944534   -1.00000000    4.90999985    0.28000000
   16.85250092   -1.00000000    4.90999985    0.30000001
   16.85583305   -1.00000000    4.90999985    0.28000000
   16.85888863   -1.00000000    4.90999985    0.25000000
   16.86222267   -1.00000000    4.90999985    0.23000000
   16.86555672   -1.00000000    4.90999985    0.23000000
   16.86861038   -1.00000000    4.90999985    0.25000000
   16.87888908   -1.00000000    4.90999985    0.31999999
   16.88194466   -1.00000000    4.90999985    0.28000000
   16.88527679   -1.00000000    4.90999985    0.25000000
   16.88861084   -1.00000000    4.90999985    0.28000000
   16.89166641   -1.00000000    4.90999985    0.28000000
   16.89500046   -1.00000000    4.90999985    0.28000000
   16.89833260   -1.00000000    4.90999985    0.25000000
   16.90138817   -1.00000000    4.90999985    0.30000001
   16.90472221   -1.00000000    4.90999985    0.36000001
   16.90805435   -1.00000000    4.90999985    0.36000001
   16.91138840   -1.00000000    4.90999985    0.36000001
   16.92166519   -1.00000000    4.90999985    0.47999999
   16.92499924   -1.00000000    4.90999985    0.46000001
   16.92805481   -1.00000000    4.90999985    0.41999999
   16.93138885   -1.00000000    4.90999985    0.36000001
   16.93472099   -1.00000000    4.90999985    0.46000001
   16.93777657   -1.00000000    4.90999985    0.44000000
   16.94138718   -1.00000000    4.90999985    0.41999999
   16.94472122   -1.00000000    4.90999985    0.44000000
   16.94805527   -1.00000000    4.90999985    0.44000000
   16.95111275   -1.00000000    4.90999985    0.47999999
   16.95444489   -1.00000000    4.90999985    0.46000001
   16.96444511   -1.00000000    4.90999985    0.31999999
   16.96777916   -1.00000000    4.90999985    0.25000000
   16.97111130   -1.00000000    4.90999985    0.20999999
   16.97444534   -1.00000000    4.90999985    0.23000000
   16.97777748   -1.00000000    4.90999985    0.25999999
   16.98111153   -1.00000000    4.90999985    0.31999999
   16.98416710   -1.00000000    4.90999985    0.25999999
   16.98750114   -1.00000000    4.90999985    0.25000000
   16.99055672   -1.00000000    4.90999985    0.19000000
   16.99388885   -1.00000000    4.90999985    0.19000000
   16.99722290   -1.00000000    4.90999985    0.15000001
   17.00749969   -1.00000000    4.90999985    0.23000000
   17.01055527   -1.00000000    4.90999985    0.38000000
   17.01388931   -1.00000000    4.90999985    0.61000001
   17.01694489   -1.00000000    4.90999985    0.56999999
   17.02027702   -1.00000000    4.90999985    0.63000000
   17.02361107   -1.00000000    4.90999985    0.70999998
   17.02666664   -1.00000000    4.90999985    0.94000000
   17.03000069   -1.00000000    4.90999985    1.19000006
   17.03333282   -1.00000000    4.90999985    0.64999998
   17.03638840   -1.00000000    4.90999985    0.46000001
   17.03972244   -1.00000000    4.90999985    0.55000001
   17.05027771   -1.00000000    4.90999985    0.11000000
   17.05333328   -1.00000000    4.90999985    0.11000000
   17.05666542   -1.00000000    4.90999985    0.15000001
   17.05999947   -1.00000000    4.90999985    0.23000000
   17.06305504   -1.00000000    4.90999985    0.25000000
   17.06638718   -1.00000000    4.90999985    0.17000000
   17.06972313   -1.00000000    4.90999985    0.25000000
   17.07277870   -1.00000000    4.90999985    0.25999999
   17.07611275   -1.00000000    4.90999985    0.20999999
   17.07944489   -1.00000000    4.90999985    0.28000000
   17.08277893   -1.00000000    4.90999985    0.36000001
   17.09305573   -1.00000000    4.90999985    0.20999999
   17.09638977   -1.00000000    4.90999985    0.19000000
   17.09944534   -1.00000000    4.90999985    0.25000000
   17.10277748   -1.00000000    4.90999985    0.31999999
   17.10611153   -1.00000000    4.90999985    0.30000001
   17.10944557   -1.00000000    4.90999985    0.20999999
   17.11277771   -1.00000000    4.90999985    0.25999999
   17.11611176   -1.00000000    4.90999985    0.47999999
   17.11916733   -1.00000000    4.90999985    0.55000001
   17.12249947   -1.00000000    4.90999985    0.67000002
   17.12583351   -1.00000000    4.90999985    0.58999997
   17.13583374   -1.00000000    4.90999985    0.61000001
   17.13916588   -1.00000000    4.90999985    0.50000000
   17.14249992   -1.00000000    4.90999985    0.44000000
   17.14583397   -1.00000000    4.90999985    0.52999997
   17.14916611   -1.00000000    4.90999985    0.40000001
   17.15222168   -1.00000000    4.90999985    0.30000001
   17.15555573   -1.00000000    4.90999985    0.31999999
   17.15888786   -1.00000000    4.90999985    0.28000000
   17.16194344   -1.00000000    4.90999985    0.38000000
   17.16527748   -1.00000000    4.90999985    0.56999999
   17.16833305   -1.00000000    4.90999985    0.61000001
   17.17888832   -1.00000000    4.90999985    0.86000001
   17.18194389   -1.00000000    4.90999985    0.69000000
