    HOUR (UT)   FLARE FACTOR    SKY TESTER    SUN TESTER
   12.61833382   -1.00000000   -1.00000000   -1.00000000
   12.69916630  211.81100464    0.52999997    2.46000004
   12.70249939  227.39900208    0.52999997    2.46000004
   12.70555496  228.25199890    0.52999997    2.46000004
   12.70888901  251.10200500    0.55000001    2.46000004
   12.71222210  235.66400146    0.55000001    2.46000004
   12.71527767  242.09500122    0.52999997    2.48000002
   12.71944427  242.09500122    0.55000001    2.48000002
   12.72361088  265.91198730    0.55000001    2.48000002
   12.72694397  259.81100464    0.55000001    2.46000004
   12.72999954  275.81100464    0.55000001    2.46000004
   12.73249912  271.38699341    0.55000001    2.46000004
   12.73388958  263.40899658    0.55000001    2.46000004
   12.73694515  277.95001221    0.55000001    2.46000004
   12.74027824  249.21099854    0.55000001    2.48000002
   12.74361134  245.92700195    0.55000001    2.48000002
   12.74666691  284.95999146    0.55000001    2.46000004
   12.75000000  246.69400024    0.55000001    2.46000004
   12.75333309  263.15100098    0.55000001    2.46000004
   12.75638866  221.11199951    0.55000001    2.48000002
   12.76249981  221.11199951    0.52999997    2.48000002
   12.76638889  216.32200623    0.55000001    2.48000002
   12.76972198  231.89599609    0.52999997    2.48000002
   12.77305508  232.32400513    0.51999998    2.48000002
   12.77611065  235.70799255    0.51999998    2.48000002
   12.77944374  241.76100159    0.51999998    2.48000002
   12.78249931  230.71800232    0.51999998    2.50000000
   12.78583336  246.66299438    0.50000000    2.50000000
   12.78916740  238.76300049    0.51999998    2.50000000
   12.79222298  232.68200684    0.51999998    2.50000000
   12.79555607  215.20399475    0.50000000    2.50000000
   12.79888916  228.89700317    0.51999998    2.50000000
   12.79944515  243.16799927    0.51999998    2.50000000
   12.80527782  243.16799927    0.50000000    2.48000002
   12.80944443  232.27000427    0.50000000    2.50000000
   12.81250000  215.06100464    0.50000000    2.50000000
   12.81583309  217.05200195    0.50000000    2.50000000
   12.81888866  209.82699585    0.50000000    2.50000000
   12.82222176  223.64300537    0.47999999    2.50000000
   12.82555580  225.25700378    0.47999999    2.50000000
   12.82861137  206.17999268    0.47999999    2.50000000
   12.83194447  212.42399597    0.47999999    2.50000000
   12.83277798  211.67900085    0.47999999    2.50000000
   12.83555508  207.41099548    0.47999999    2.50000000
   12.83888817  199.27000427    0.47999999    2.50000000
   12.84222221  235.81199646    0.47999999    2.50000000
   12.84805489  235.81199646    0.47999999    2.50000000
   12.85222244  219.26699829    0.46000001    2.51999998
   12.85555553  216.92700195    0.46000001    2.50000000
   12.85861111  204.20199585    0.44000000    2.51999998
   12.86194515  208.13400269    0.46000001    2.51999998
   12.86500072  217.56900024    0.46000001    2.51999998
   12.86611176  211.03799438    0.46000001    2.51999998
   12.86861134  211.41000366    0.46000001    2.51999998
   12.87194443  207.92300415    0.46000001    2.50000000
   12.87527752  205.27499390    0.46000001    2.51999998
   12.87833309  215.39799500    0.47999999    2.51999998
   12.88166714  211.25599670    0.47999999    2.51999998
   12.88472176  205.68499756    0.47999999    2.51999998
   12.89083290  205.68499756    0.50000000    2.51999998
   12.89499950  196.16299438    0.50000000    2.51999998
   12.89833355  201.17999268    0.50000000    2.51999998
   12.89944458  196.88699341    0.50000000    2.51999998
   12.90166664  194.04899597    0.50000000    2.51999998
   12.90499973  192.63600159    0.50000000    2.51999998
   12.90833282  189.18699646    0.50000000    2.51999998
   12.91138840  189.44900513    0.47999999    2.51999998
   12.91472149  177.09399414    0.47999999    2.53999996
   12.91777802  171.17799377    0.47999999    2.51999998
   12.92111111  180.72999573    0.46000001    2.53999996
   12.92444515  188.01499939    0.46000001    2.51999998
   12.92750072  189.92900085    0.44000000    2.51999998
   12.93388939  189.92900085    0.44000000    2.53999996
   12.93777752  177.31100464    0.44000000    2.53999996
   12.94111156  168.96499634    0.41999999    2.53999996
   12.94444466  168.50999451    0.44000000    2.53999996
   12.94750023  168.18899536    0.44000000    2.53999996
   12.95083332  176.25700378    0.44000000    2.53999996
   12.95416641  177.93400574    0.44000000    2.53999996
   12.95722198  175.41200256    0.44000000    2.53999996
   12.96055508  172.02799988    0.44000000    2.53999996
   12.96388912  178.85299683    0.44000000    2.53999996
   12.96611118  181.32000732    0.44000000    2.53999996
   12.96722221  180.53900146    0.44000000    2.55999994
   12.97055531  181.28900146    0.44000000    2.53999996
   12.97666645  181.28900146    0.44000000    2.53999996
   12.98083305  192.35800171    0.44000000    2.53999996
   12.98388958  185.67599487    0.44000000    2.53999996
   12.98722267  185.85400391    0.46000001    2.53999996
   12.99055576  175.67500305    0.46000001    2.53999996
   12.99361134  176.09300232    0.46000001    2.53999996
   12.99694443  178.44099426    0.46000001    2.53999996
   12.99944496  183.70300293    0.46000001    2.55999994
   13.00055599  176.57699585    0.46000001    2.55999994
   13.00388908  181.93099976    0.44000000    2.53999996
   13.00722218  176.17799377    0.44000000    2.53999996
   13.01027775  186.87100220    0.44000000    2.53999996
   13.01361084  203.38200378    0.44000000    2.55999994
   13.01944447  203.38200378    0.46000001    2.55999994
   13.02361107  234.82800293    0.46000001    2.55999994
   13.02666664  225.24200439    0.46000001    2.55999994
   13.02999973  248.78700256    0.44000000    2.55999994
   13.03277779  276.59698486    0.44000000    2.55999994
   13.03361130  262.57800293    0.44000000    2.55999994
   13.03694534  248.03500366    0.44000000    2.55999994
   13.04027843  239.67399597    0.41999999    2.55999994
   13.04333401  241.58200073    0.41999999    2.55999994
   13.04666710  224.59500122    0.41999999    2.55999994
   13.04972267  228.99299622    0.44000000    2.55999994
   13.05305576  243.14599609    0.41999999    2.55999994
   13.05638885  238.99400330    0.41999999    2.57999992
   13.06222248  238.99400330    0.41999999    2.55999994
   13.06638908  238.98300171    0.41999999    2.55999994
   13.06972218  259.68301392    0.41999999    2.57999992
   13.07277775  235.85499573    0.41999999    2.57999992
   13.07611084  241.70799255    0.41999999    2.57999992
   13.07944393  235.61500549    0.41999999    2.55999994
   13.08249950  254.13600159    0.41999999    2.57999992
   13.08583260  258.15399170    0.40000001    2.57999992
   13.08888817  233.17100525    0.40000001    2.57999992
   13.09222221  219.65100098    0.41999999    2.57999992
   13.09555531  248.24600220    0.41999999    2.57999992
   13.09861088  219.33999634    0.41999999    2.57999992
   13.09944439  239.43200684    0.41999999    2.57999992
   13.10500050  239.43200684    0.41999999    2.59999990
   13.10916710  213.43499756    0.44000000    2.57999992
   13.11250019  217.82600403    0.44000000    2.57999992
   13.11583328  226.38400269    0.44000000    2.57999992
   13.11888885  221.63800049    0.44000000    2.59999990
   13.12222195  211.97200012    0.46000001    2.57999992
   13.12527752  210.06100464    0.46000001    2.57999992
   13.12861156  209.29899597    0.47999999    2.57999992
   13.13194466  206.24699402    0.47999999    2.57999992
   13.13277817  197.31500244    0.47999999    2.57999992
   13.13527775  192.86300659    0.47999999    2.57999992
   13.13861084  198.92799377    0.50000000    2.57999992
   13.14194393  211.69900513    0.47999999    2.57999992
   13.14805508  211.69900513    0.47999999    2.59999990
   13.15222168  206.51600647    0.47999999    2.59999990
   13.15527725  206.30200195    0.47999999    2.59999990
   13.15861034  194.17500305    0.47999999    2.59999990
   13.16194439  178.61300659    0.47999999    2.57999992
   13.16499996  188.27400208    0.47999999    2.57999992
   13.16611099  189.79699707    0.47999999    2.57999992
   13.16888905  176.75000000    0.44000000    2.59999990
   13.17194462  178.09100342    0.44000000    2.59999990
   13.17527771  182.03599548    0.44000000    2.59999990
   13.17861176  193.24200439    0.44000000    2.59999990
   13.18166733  178.65400696    0.44000000    2.59999990
   13.18500042  179.25999451    0.44000000    2.59999990
   13.19083309  179.25999451    0.46000001    2.59999990
   13.19499969  192.73500061    0.46000001    2.59999990
   13.19805527  182.21600342    0.46000001    2.59999990
   13.19944477  176.66900635    0.46000001    2.59999990
   13.20166683  189.89199829    0.46000001    2.59999990
   13.20499992  188.48300171    0.46000001    2.59999990
   13.20833302  182.38999939    0.47999999    2.59999990
   13.21138859  187.88900757    0.47999999    2.59999990
   13.21472168  169.24099731    0.47999999    2.59999990
   13.21805477  178.85099792    0.50000000    2.59999990
   13.22111034  176.70700073    0.50000000    2.59999990
   13.22444439  163.83900452    0.50000000    2.59999990
   13.22749996  165.61000061    0.50000000    2.59999990
   13.23361111  165.61000061    0.50000000    2.61999989
   13.23777771  174.69999695    0.51999998    2.61999989
   13.24111176  166.80799866    0.51999998    2.61999989
   13.24416733  170.66099548    0.51999998    2.61999989
   13.24750042  161.13200378    0.50000000    2.61999989
   13.25083351  169.32000732    0.51999998    2.61999989
   13.25388908  162.98599243    0.51999998    2.61999989
   13.25722218  165.78300476    0.51999998    2.61999989
   13.26027775  159.33500671    0.50000000    2.61999989
   13.26361084  167.71200562    0.50000000    2.59999990
   13.26611137  158.64300537    0.50000000    2.61999989
   13.26722240  166.25999451    0.50000000    2.61999989
   13.27055550  162.03900146    0.47999999    2.59999990
   13.27638817  162.03900146    0.47999999    2.61999989
   13.28055573  163.25900269    0.46000001    2.61999989
   13.28388977  165.15600586    0.47999999    2.61999989
   13.28722286  167.40800476    0.47999999    2.61999989
   13.29027843  168.92100525    0.47999999    2.61999989
   13.29361153  157.23599243    0.47999999    2.61999989
   13.29666710  164.40100098    0.47999999    2.61999989
   13.29944515  159.87500000    0.47999999    2.61999989
   13.30055618  163.17100525    0.47999999    2.61999989
   13.30361176  169.44500732    0.47999999    2.64000010
   13.30694485  160.20700073    0.47999999    2.61999989
   13.31000042  155.44799805    0.47999999    2.61999989
   13.31333351  152.41000366    0.47999999    2.61999989
   13.31944466  152.41000366    0.50000000    2.64000010
   13.32361126  169.77000427    0.52999997    2.61999989
   13.32666683  166.23800659    0.56999999    2.61999989
   13.32999992  154.89999390    0.55000001    2.61999989
   13.33277798  163.10400391    0.52999997    2.61999989
   13.33388901  154.07600403    0.52999997    2.61999989
   13.33722210  154.00100708    0.55000001    2.64000010
   13.34027767  155.79499817    0.55000001    2.64000010
   13.34361076  160.81399536    0.51999998    2.64000010
   13.34694386  164.68699646    0.51999998    2.64000010
   13.35000038  158.07499695    0.52999997    2.64000010
   13.35333347  155.90800476    0.52999997    2.64000010
   13.35638905  159.47599792    0.52999997    2.64000010
   13.36222267  159.47599792    0.51999998    2.61999989
   13.36638927  179.25799561    0.51999998    2.61999989
   13.36944485  155.26499939    0.51999998    2.61999989
   13.37277794  157.51899719    0.52999997    2.61999989
   13.37611103  162.53399658    0.51999998    2.64000010
   13.37916660  155.33799744    0.51999998    2.64000010
   13.38249969  161.57099915    0.51999998    2.64000010
   13.38583279  163.62100220    0.51999998    2.64000010
   13.38888836  165.57200623    0.51999998    2.64000010
   13.39222240  158.71899414    0.51999998    2.64000010
   13.39527798  163.34300232    0.51999998    2.64000010
   13.39861107  162.26400757    0.51999998    2.64000010
   13.39944458  164.19599915    0.51999998    2.64000010
   13.40499973  164.19599915    0.50000000    2.64000010
   13.40916634  158.22300720    0.50000000    2.64000010
   13.41249943  154.87100220    0.50000000    2.64000010
   13.41555500  168.03300476    0.50000000    2.64000010
   13.41888905  160.64399719    0.50000000    2.64000010
   13.42222214  155.75100708    0.50000000    2.64000010
   13.42527771  157.13900757    0.47999999    2.64000010
   13.42861176  162.88900757    0.46000001    2.66000009
   13.43194485  155.89199829    0.46000001    2.66000009
   13.43277836  165.63200378    0.46000001    2.64000010
   13.43555546  159.08799744    0.44000000    2.66000009
   13.43861103  155.63099670    0.41999999    2.66000009
   13.44194412  152.72000122    0.41999999    2.66000009
   13.44777775  152.72000122    0.44000000    2.66000009
   13.45194435  157.66099548    0.44000000    2.66000009
   13.45527744  158.08000183    0.41999999    2.66000009
   13.45861053  155.28300476    0.41999999    2.64000010
   13.46166611  156.60899353    0.41999999    2.66000009
   13.46500015  154.79899597    0.40000001    2.66000009
   13.46611118  147.33500671    0.38000000    2.66000009
   13.46861076  155.65199280    0.36000001    2.66000009
   13.47166634  152.77000427    0.36000001    2.66000009
   13.47499943  155.33399963    0.36000001    2.66000009
   13.47805500  155.69700623    0.36000001    2.66000009
   13.48138809  156.72000122    0.36000001    2.66000009
   13.48472214  154.42100525    0.36000001    2.66000009
   13.49083328  154.42100525    0.36000001    2.66000009
   13.49499989  158.14100647    0.34000000    2.66000009
   13.49805546  150.95700073    0.34000000    2.66000009
   13.49944496  152.89900208    0.34000000    2.66000009
   13.50194454  158.27299500    0.34000000    2.66000009
   13.50500011  151.49400330    0.31999999    2.66000009
   13.50833321  155.18200684    0.31999999    2.66000009
   13.51138878  152.72200012    0.31999999    2.66000009
   13.51472187  149.48199463    0.31999999    2.66000009
   13.51805496  155.53599548    0.31999999    2.66000009
   13.52111053  154.11900330    0.31999999    2.67000008
   13.52444458  154.53399658    0.34000000    2.66000009
   13.52777767  156.45500183    0.36000001    2.67000008
   13.53361130  156.45500183    0.36000001    2.67000008
   13.53777790  163.83299255    0.36000001    2.66000009
   13.54083347  154.74299622    0.38000000    2.66000009
   13.54416752  155.63299561    0.36000001    2.67000008
   13.54750061  143.22300720    0.36000001    2.66000009
   13.55055618  147.81799316    0.36000001    2.66000009
   13.55388927  149.17100525    0.34000000    2.67000008
   13.55722237  151.44099426    0.34000000    2.66000009
   13.56027794  154.34800720    0.34000000    2.67000008
   13.56361103  150.53900146    0.34000000    2.67000008
   13.56611156  150.79699707    0.34000000    2.67000008
   13.56722260  150.52000427    0.34000000    2.67000008
   13.57027817  161.75100708    0.34000000    2.67000008
   13.57638836  161.75100708    0.31999999    2.67000008
   13.58055592  149.64900208    0.31999999    2.67000008
   13.58388901  154.17700195    0.31999999    2.67000008
   13.58694458  153.46400452    0.34000000    2.66000009
   13.59027767  151.45399475    0.34000000    2.66000009
   13.59361076  154.53199768    0.34000000    2.67000008
   13.59666634  152.25999451    0.31999999    2.67000008
   13.59944439  145.00799561    0.31999999    2.67000008
   13.60055637  157.61300659    0.31999999    2.67000008
   13.60361195  145.12399292    0.31999999    2.67000008
   13.60694504  154.12600708    0.31999999    2.67000008
   13.61027813  152.18299866    0.31999999    2.67000008
   13.61333370  150.49699402    0.31999999    2.67000008
   13.61916637  150.49699402    0.31999999    2.67000008
   13.62333393  153.19099426    0.30000001    2.67000008
   13.62666702  162.78199768    0.30000001    2.67000008
   13.63000011  155.65199280    0.30000001    2.67000008
   13.63277817  149.63299561    0.30000001    2.67000008
   13.63361073  152.96200562    0.30000001    2.67000008
   13.63666630  153.59899902    0.30000001    2.67000008
   13.64000034  153.92399597    0.30000001    2.67000008
   13.64333344  150.99499512    0.31999999    2.67000008
   13.64638901  152.62100220    0.31999999    2.67000008
   13.64972210  150.59100342    0.30000001    2.67000008
   13.65277767  153.32699585    0.30000001    2.67000008
   13.65611076  145.75599670    0.28000000    2.67000008
   13.66222191  145.75599670    0.28000000    2.67000008
   13.66638851  155.56500244    0.28000000    2.67000008
   13.66944504  146.66000366    0.28000000    2.67000008
   13.67277813  145.82099915    0.28000000    2.67000008
   13.67583370  148.46600342    0.31999999    2.69000006
   13.67916679  157.60299683    0.34000000    2.67000008
   13.68249989  144.36999512    0.31999999    2.69000006
   13.68555546  145.26499939    0.31999999    2.67000008
   13.68888855  150.18099976    0.31999999    2.69000006
   13.69222260  152.83700562    0.31999999    2.67000008
   13.69527817  147.08200073    0.30000001    2.67000008
   13.69861126  150.00000000    0.30000001    2.69000006
   13.69944477  146.36399841    0.30000001    2.67000008
   13.72027779  146.36399841    0.30000001    2.69000006
   13.72416592  151.70300293    0.30000001    2.67000008
   13.72749996  150.48100281    0.28000000    2.69000006
   13.73083305  161.59100342    0.28000000    2.67000008
   13.73277760  150.71099854    0.28000000    2.67000008
   13.73444462  155.58999634    0.28000000    2.69000006
   13.73750019  154.03100586    0.28000000    2.69000006
   13.74083328  152.08200073    0.28000000    2.69000006
   13.74416733  153.15400696    0.28000000    2.69000006
   13.74722290  152.28799438    0.30000001    2.69000006
   13.75055599  157.52600098    0.28000000    2.69000006
   13.75388908  150.79499817    0.28000000    2.69000006
   13.75694466  156.65899658    0.28000000    2.69000006
   13.76277733  156.65899658    0.28000000    2.69000006
   13.76694393  148.71000671    0.28000000    2.69000006
   13.77027798  148.63999939    0.28000000    2.69000006
   13.77333355  150.88600159    0.28000000    2.69000006
   13.77666664  148.98699951    0.28000000    2.69000006
   13.77999973  145.44400024    0.30000001    2.69000006
   13.78305531  142.99099731    0.28000000    2.69000006
   13.78638935  191.05400085    0.28000000    2.69000006
   13.78972244  149.84100342    0.28000000    2.69000006
   13.79277802  144.91000366    0.28000000    2.69000006
   13.79611111  143.77200317    0.28000000    2.69000006
   13.79944515  145.42799377    0.28000000    2.69000006
   13.80000019  142.63299561    0.28000000    2.69000006
   13.80583382  142.63299561    0.28000000    2.69000006
   13.80972195  147.19500732    0.28000000    2.69000006
   13.81305599  144.87699890    0.30000001    2.69000006
   13.81638908  146.66200256    0.30000001    2.69000006
   13.81944466  144.59199524    0.30000001    2.69000006
   13.82277775  146.81599426    0.30000001    2.69000006
   13.82611084  150.10499573    0.30000001    2.71000004
   13.82916641  149.23199463    0.30000001    2.69000006
   13.83249950  150.02600098    0.28000000    2.71000004
   13.83333302  151.28799438    0.30000001    2.69000006
   13.83611107  144.20500183    0.28000000    2.69000006
   13.83944416  152.88800049    0.30000001    2.71000004
   13.84249973  152.42300415    0.28000000    2.71000004
   13.84861088  152.42300415    0.28000000    2.69000006
   13.85277843  152.86900330    0.28000000    2.69000006
   13.85583401  149.37600708    0.30000001    2.69000006
   13.85916710  152.33399963    0.28000000    2.69000006
   13.86250019  148.23399353    0.28000000    2.69000006
   13.86555576  157.96699524    0.28000000    2.71000004
   13.86666679  152.16900635    0.28000000    2.71000004
   13.86916637  148.45300293    0.28000000    2.69000006
   13.87250042  154.60600281    0.28000000    2.69000006
   13.87555599  136.11599731    0.28000000    2.69000006
   13.87888908  147.86300659    0.28000000    2.69000006
   13.88222218  142.60899353    0.28000000    2.71000004
   13.88527775  149.66999817    0.34000000    2.69000006
   13.89138889  149.66999817    0.38000000    2.69000006
   13.89555550  148.16799927    0.38000000    2.69000006
   13.89888859  151.39300537    0.38000000    2.69000006
   13.89999962  146.91900635    0.38000000    2.69000006
   13.90222168  153.19200134    0.40000001    2.71000004
   13.90555477  147.28300476    0.50000000    2.71000004
   13.90861034  146.49699402    0.47999999    2.71000004
   13.91194439  142.15400696    0.47999999    2.71000004
   13.91527748  151.10699463    0.47999999    2.69000006
   13.91833401  144.54100037    0.46000001    2.71000004
   13.92166710  143.11099243    0.44000000    2.71000004
   13.92500019  148.90600586    0.40000001    2.71000004
   13.92805576  155.07200623    0.38000000    2.71000004
   13.93416691  155.07200623    0.31999999    2.71000004
   13.93833351  151.82099915    0.31999999    2.71000004
   13.94166660  150.23399353    0.31999999    2.71000004
   13.94499969  158.20700073    0.34000000    2.71000004
   13.94805527  152.87800598    0.34000000    2.71000004
   13.95138836  153.32800293    0.31999999    2.71000004
   13.95444393  154.94000244    0.31999999    2.71000004
   13.95777798  149.77000427    0.31999999    2.71000004
   13.96111107  156.56900024    0.31999999    2.71000004
   13.96416664  157.55000305    0.31999999    2.71000004
   13.96666622  155.39700317    0.31999999    2.71000004
   13.96777725  157.48899841    0.31999999    2.71000004
   13.97111034  150.08999634    0.31999999    2.71000004
   13.97722149  150.08999634    0.31999999    2.71000004
   13.98111057  152.25700378    0.31999999    2.71000004
   13.98444462  152.98300171    0.31999999    2.71000004
   13.98777771  153.91200256    0.31999999    2.71000004
   13.99083328  151.94500732    0.31999999    2.71000004
   13.99416733  152.14399719    0.31999999    2.71000004
   13.99750042  148.69299316    0.34000000    2.71000004
   14.00000000  154.02299500    0.31999999    2.71000004
   14.00083351  149.35699463    0.31999999    2.71000004
   14.00416660  149.11599731    0.31999999    2.71000004
   14.00722218  150.94599915    0.34000000    2.71000004
   14.01055527  149.19099426    0.31999999    2.71000004
   14.01388931  158.04600525    0.31999999    2.71000004
   14.01999950  158.04600525    0.34000000    2.71000004
   14.02416611  162.30999756    0.34000000    2.71000004
   14.02722168  158.14599609    0.34000000    2.71000004
   14.03055573  162.69900513    0.34000000    2.71000004
   14.03333378  143.89999390    0.34000000    2.73000002
   14.03416729  154.98800659    0.36000001    2.71000004
   14.03750038  161.84199524    0.34000000    2.71000004
   14.04055595  151.63600159    0.36000001    2.71000004
   14.04388905  156.54299927    0.34000000    2.71000004
   14.04722309  156.21699524    0.34000000    2.71000004
   14.05027771  155.89700317    0.31999999    2.71000004
   14.05361176  157.69099426    0.31999999    2.71000004
   14.05694485  152.78500366    0.31999999    2.73000002
   14.06277752  152.78500366    0.34000000    2.71000004
   14.06694412  154.21600342    0.31999999    2.71000004
   14.07027817  152.75599670    0.31999999    2.73000002
   14.07361126  157.08399963    0.30000001    2.71000004
   14.07694435  145.37500000    0.30000001    2.71000004
   14.08027744  148.99299622    0.30000001    2.73000002
   14.08333302  158.87199402    0.30000001    2.73000002
   14.08694458  154.63000488    0.30000001    2.71000004
   14.09027767  160.77699280    0.31999999    2.71000004
   14.09333324  153.71899414    0.30000001    2.73000002
   14.09666634  155.17900085    0.28000000    2.71000004
   14.10000038  156.61300659    0.28000000    2.73000002
   14.10027790  156.80799866    0.28000000    2.73000002
   14.10555553  156.80799866    0.28000000    2.71000004
   14.10972214  151.05799866    0.30000001    2.73000002
   14.11305618  153.95500183    0.28000000    2.73000002
   14.11611176  158.50500488    0.30000001    2.73000002
   14.11944485  143.28300476    0.30000001    2.73000002
   14.12277794  151.83000183    0.31999999    2.73000002
   14.12611103  159.61799622    0.31999999    2.73000002
   14.12916660  155.10299683    0.31999999    2.73000002
   14.13249969  153.30999756    0.30000001    2.73000002
   14.13333321  146.92599487    0.30000001    2.73000002
   14.13611126  156.20399475    0.30000001    2.73000002
   14.13944435  150.61099243    0.31999999    2.71000004
   14.14277744  149.22000122    0.31999999    2.73000002
   14.14861107  149.22000122    0.31999999    2.73000002
   14.15249920  150.14599609    0.31999999    2.73000002
   14.15583324  149.32400513    0.34000000    2.73000002
   14.15916634  145.28100586    0.36000001    2.73000002
   14.16222191  160.03900146    0.36000001    2.73000002
   14.16555500  162.09500122    0.34000000    2.73000002
   14.16666698  169.31700134    0.34000000    2.73000002
   14.16916656  166.23899841    0.34000000    2.73000002
   14.17250061  171.27099609    0.31999999    2.73000002
   14.17583370  162.43099976    0.31999999    2.73000002
   14.17888927  158.63099670    0.31999999    2.73000002
   14.18222237  153.67799377    0.31999999    2.73000002
   14.18527794  156.03799438    0.31999999    2.73000002
   14.19138908  156.03799438    0.34000000    2.73000002
   14.19555569  151.33999634    0.34000000    2.73000002
   14.19861126  166.16400146    0.31999999    2.75000000
   14.19999981  166.12300110    0.31999999    2.73000002
   14.20249939  160.14700317    0.31999999    2.73000002
   14.20555496  158.56399536    0.30000001    2.73000002
   14.20888901  160.24400330    0.31999999    2.73000002
   14.21194458  158.16499329    0.31999999    2.73000002
   14.21527767  158.82699585    0.30000001    2.73000002
   14.21861076  163.50000000    0.30000001    2.73000002
   14.22166634  156.30000305    0.30000001    2.73000002
   14.22499943  160.16099548    0.28000000    2.73000002
   14.22833252  159.22000122    0.28000000    2.73000002
   14.23416710  159.22000122    0.28000000    2.75000000
   14.23833370  150.97200012    0.28000000    2.75000000
   14.24166679  157.61099243    0.30000001    2.73000002
   14.24472237  154.03399658    0.30000001    2.73000002
   14.24805546  151.44400024    0.28000000    2.73000002
   14.25111103  157.16400146    0.28000000    2.73000002
   14.25444412  161.46099854    0.28000000    2.73000002
   14.25777817  155.18899536    0.28000000    2.73000002
   14.26083374  153.55099487    0.28000000    2.75000000
   14.26416683  150.30299377    0.28000000    2.75000000
   14.26666641  150.15600586    0.28000000    2.75000000
   14.26777744  156.82899475    0.28000000    2.75000000
   14.27111053  152.55400085    0.30000001    2.73000002
   14.27694416  152.55400085    0.31999999    2.73000002
   14.28111076  151.63000488    0.34000000    2.73000002
   14.28444481  154.37600708    0.31999999    2.73000002
   14.28750038  151.74499512    0.30000001    2.73000002
   14.29083347  151.45100403    0.30000001    2.75000000
   14.29416752  154.72300720    0.28000000    2.75000000
   14.29722309  150.38099670    0.28000000    2.75000000
   14.30000019  157.35899353    0.28000000    2.75000000
   14.30083370  158.67900085    0.28000000    2.75000000
   14.30416679  156.14599609    0.28000000    2.73000002
   14.30749989  161.21499634    0.28000000    2.73000002
   14.31055546  166.18699646    0.28000000    2.73000002
   14.31388950  152.54200745    0.28000000    2.73000002
   14.31999969  152.54200745    0.28000000    2.73000002
   14.32388878  158.63499451    0.30000001    2.75000000
   14.32722187  152.92900085    0.30000001    2.75000000
   14.33055592  152.95300293    0.30000001    2.73000002
   14.33333302  157.90100098    0.30000001    2.73000002
   14.33388901  157.01600647    0.30000001    2.75000000
   14.33722210  160.96400452    0.28000000    2.75000000
   14.34055519  158.06300354    0.28000000    2.75000000
   14.34361076  160.54100037    0.28000000    2.75000000
   14.34694386  158.97999573    0.28000000    2.75000000
   14.35027790  152.48899841    0.28000000    2.73000002
   14.35333347  153.40499878    0.28000000    2.75000000
   14.35666752  153.89999390    0.28000000    2.75000000
   14.36277771  153.89999390    0.28000000    2.73000002
   14.36694431  148.30499268    0.30000001    2.75000000
   14.36999989  162.39700317    0.30000001    2.75000000
   14.37333393  154.39999390    0.30000001    2.75000000
   14.37666702  148.42700195    0.31999999    2.73000002
   14.37972260  156.09700012    0.30000001    2.75000000
   14.38305569  157.43299866    0.31999999    2.75000000
   14.38638878  149.79400635    0.31999999    2.75000000
   14.38944435  158.21499634    0.31999999    2.75000000
   14.39277744  156.79600525    0.30000001    2.75000000
   14.39583302  155.11199951    0.30000001    2.75000000
   14.39916611  157.71600342    0.31999999    2.75000000
   14.39999962  154.38800049    0.30000001    2.75000000
   14.40555477  154.38800049    0.30000001    2.75000000
   14.40972137  158.05499268    0.30000001    2.75000000
   14.41305542  160.50999451    0.31999999    2.75000000
   14.41611099  159.77699280    0.31999999    2.75000000
   14.41944504  156.79299927    0.31999999    2.75000000
   14.42250061  158.99200439    0.31999999    2.75000000
   14.42583370  158.07899475    0.31999999    2.75000000
   14.42916679  160.41299438    0.31999999    2.75000000
   14.43222237  156.13000488    0.31999999    2.75000000
   14.43333340  162.02400208    0.31999999    2.75000000
   14.43583298  163.46299744    0.31999999    2.75000000
   14.43916702  157.32600403    0.31999999    2.75000000
   14.44250011  158.99899292    0.31999999    2.75000000
   14.44833374  158.99899292    0.31999999    2.75000000
   14.45249939  159.20500183    0.31999999    2.75000000
   14.45583344  160.95300293    0.31999999    2.75000000
   14.45916653  162.48399353    0.34000000    2.75000000
   14.46222210  155.14500427    0.34000000    2.75000000
   14.46555519  152.94099426    0.31999999    2.75000000
   14.46666622  157.27699280    0.31999999    2.75000000
   14.46888828  161.01300049    0.34000000    2.75000000
   14.47222137  161.88200378    0.34000000    2.75000000
   14.47555542  157.22999573    0.34000000    2.75000000
   14.47861099  152.50399780    0.34000000    2.75000000
   14.48194408  158.26100159    0.34000000    2.75000000
   14.48527813  160.60299683    0.34000000    2.75000000
   14.49138927  160.60299683    0.31999999    2.75000000
   14.49583340  161.86300659    0.36000001    2.75000000
   14.49888897  153.45799255    0.34000000    2.75000000
   14.50027752  151.50900269    0.34000000    2.75000000
   14.50277805  156.84700012    0.34000000    2.75000000
   14.50583363  166.51300049    0.31999999    2.75000000
   14.50916672  152.72000122    0.31999999    2.76999998
   14.51222229  157.47099304    0.31999999    2.75000000
   14.51555538  153.10499573    0.31999999    2.76999998
   14.51888847  161.87800598    0.31999999    2.75000000
   14.52194405  156.68299866    0.31999999    2.75000000
   14.52527714  161.93699646    0.31999999    2.75000000
   14.52861118  151.89799500    0.31999999    2.75000000
   14.53444481  151.89799500    0.31999999    2.75000000
   14.53861141  153.69900513    0.31999999    2.75000000
   14.54194450  161.01199341    0.31999999    2.75000000
   14.54500008  148.29299927    0.31999999    2.75000000
   14.54833412  153.36799622    0.31999999    2.76999998
   14.55138874  154.43600464    0.31999999    2.76999998
   14.55472279  153.25500488    0.31999999    2.76999998
   14.55805588  152.60600281    0.34000000    2.76999998
   14.56111145  155.89799500    0.31999999    2.75000000
   14.56444454  153.35600281    0.31999999    2.76999998
   14.56694412  158.99800110    0.31999999    2.76999998
   14.56805515  156.84800720    0.31999999    2.75000000
   14.57111073  160.18899536    0.31999999    2.76999998
   14.57694435  160.18899536    0.31999999    2.76999998
   14.58111095  155.23599243    0.36000001    2.76999998
   14.58444405  157.78700256    0.36000001    2.76999998
   14.58749962  155.91600037    0.36000001    2.76999998
   14.59083271  155.34800720    0.38000000    2.76999998
   14.59416676  152.88000488    0.38000000    2.76999998
   14.59749985  161.29499817    0.36000001    2.76999998
   14.60000038  161.00799561    0.36000001    2.76999998
   14.60111141  156.16700745    0.36000001    2.76999998
   14.60416698  157.09500122    0.31999999    2.76999998
   14.60750008  155.09800720    0.31999999    2.76999998
   14.61083412  151.72500610    0.31999999    2.76999998
   14.61388969  155.70599365    0.31999999    2.76999998
   14.61972237  155.70599365    0.34000000    2.76999998
   14.62388897  155.60000610    0.31999999    2.76999998
   14.62722206  151.92599487    0.31999999    2.75000000
   14.63055611  156.02000427    0.31999999    2.76999998
   14.63333321  148.27799988    0.31999999    2.76999998
   14.63416672  152.68200684    0.31999999    2.76999998
   14.63722229  153.40899658    0.34000000    2.76999998
   14.64055538  156.86399841    0.31999999    2.76999998
   14.64361095  155.74000549    0.34000000    2.76999998
   14.64694405  153.63000488    0.34000000    2.76999998
   14.65027714  159.12800598    0.34000000    2.76999998
   14.65333271  153.28399658    0.31999999    2.76999998
   14.65666676  151.74400330    0.31999999    2.76999998
   14.66277695  151.74400330    0.34000000    2.76999998
   14.66666698  150.49699402    0.34000000    2.76999998
   14.67000008  147.84599304    0.34000000    2.76999998
   14.67333412  152.95799255    0.34000000    2.76999998
   14.67638874  152.14900208    0.36000001    2.75000000
   14.67972279  151.03399658    0.36000001    2.76999998
   14.68305588  146.83500671    0.34000000    2.76999998
   14.68611145  158.55299377    0.31999999    2.76999998
   14.68944454  149.59399414    0.30000001    2.76999998
   14.69250011  152.94200134    0.30000001    2.76999998
   14.69583321  166.56500244    0.30000001    2.76999998
   14.69916630  156.38400269    0.30000001    2.76999998
   14.69999981  157.57600403    0.30000001    2.76999998
   14.70555496  157.57600403    0.31999999    2.76999998
   14.70972157  157.24099731    0.38000000    2.76999998
   14.71277714  153.59399414    0.38000000    2.75000000
   14.71611118  159.15699768    0.36000001    2.76999998
   14.73361111  158.53999329    0.36000001    2.76999998
   14.73611164  151.80999756    0.34000000    2.76999998
   14.73944473  157.46499634    0.34000000    2.76999998
   14.74250031  153.36399841    0.34000000    2.76999998
   14.74861145  153.36399841    0.34000000    2.76999998
   14.75277805  159.93299866    0.34000000    2.76999998
   14.75583363  158.35499573    0.34000000    2.76999998
   14.75916672  162.24200439    0.34000000    2.76999998
   14.76222229  156.98899841    0.34000000    2.76999998
   14.76555538  170.19500732    0.34000000    2.76999998
   14.76694393  155.61700439    0.34000000    2.76999998
   14.76944447  163.50999451    0.34000000    2.76999998
   14.77250004  164.13800049    0.34000000    2.76999998
   14.77583313  164.69299316    0.34000000    2.76999998
   14.77888870  162.88800049    0.34000000    2.76999998
   14.78222179  168.93499756    0.34000000    2.76999998
   14.78555584  169.57899475    0.36000001    2.76999998
   14.79138947  169.57899475    0.36000001    2.76999998
   14.79555607  162.78399658    0.36000001    2.76999998
   14.79861164  153.95599365    0.36000001    2.76999998
   14.80027771  166.50599670    0.36000001    2.76999998
   14.80249977  157.60699463    0.34000000    2.76999998
   14.80555534  152.05000305    0.34000000    2.78999996
   14.80888939  158.07000732    0.34000000    2.78999996
   14.81222248  161.31799316    0.34000000    2.76999998
   14.81527805  163.84100342    0.34000000    2.78999996
   14.81861115  160.00100708    0.31999999    2.76999998
   14.82194424  163.91400146    0.31999999    2.76999998
   14.82499981  169.93099976    0.31999999    2.76999998
   14.82833290  165.97900391    0.31999999    2.76999998
   14.83416653  165.97900391    0.34000000    2.76999998
   14.83833313  159.10600281    0.36000001    2.78999996
   14.84166622  161.80499268    0.36000001    2.76999998
   14.84499931  166.96899414    0.36000001    2.76999998
   14.84833336  153.36399841    0.36000001    2.76999998
   14.85166740  161.21400452    0.36000001    2.76999998
   14.85472298  159.74299622    0.36000001    2.76999998
   14.85805607  161.86000061    0.40000001    2.76999998
   14.86138916  163.34800720    0.47999999    2.76999998
   14.86444473  160.65100098    0.55000001    2.76999998
   14.86694431  169.71200562    0.56999999    2.76999998
   14.86833382  159.78300476    0.61000001    2.76999998
   14.87138939  154.44200134    0.61000001    2.76999998
   14.87694454  154.44200134    0.46000001    2.76999998
   14.88111115  165.67399597    0.46000001    2.76999998
   14.88444424  150.67500305    0.40000001    2.76999998
   14.88777733  159.90600586    0.41999999    2.78999996
   14.89083290  155.13200378    0.40000001    2.76999998
   14.89416695  154.19099426    0.40000001    2.78999996
   14.89722252  155.02299500    0.40000001    2.78999996
   14.90027714  156.91099548    0.40000001    2.76999998
   14.90111065  150.46299744    0.40000001    2.76999998
   14.90416622  154.34300232    0.40000001    2.76999998
   14.90749931  148.79699707    0.38000000    2.76999998
   14.91055489  146.79800415    0.38000000    2.76999998
   14.91388893  151.76300049    0.40000001    2.76999998
   14.92000008  151.76300049    0.51999998    2.78999996
   14.92416668  155.95199585    0.51999998    2.76999998
   14.92722225  146.33500671    0.56999999    2.78999996
   14.93055630  150.42100525    0.55000001    2.76999998
   14.93361092  153.25300598    0.55000001    2.76999998
   14.93416691  150.99899292    0.56999999    2.76999998
   14.93722248  153.33299255    0.56999999    2.76999998
   14.94055557  146.91299438    0.56999999    2.76999998
   14.94361115  154.79699707    0.61000001    2.76999998
   14.94694424  153.93099976    0.55000001    2.76999998
   14.95027733  153.21000671    0.52999997    2.76999998
   14.95333290  155.94000244    0.52999997    2.76999998
   14.95666695  156.09399414    0.51999998    2.76999998
   14.96277714  156.09399414    0.46000001    2.78999996
   14.96694374  156.02299500    0.46000001    2.76999998
   14.96749973  156.75799561    0.46000001    2.76999998
   14.97055531  154.40100098    0.46000001    2.76999998
   14.97388840  154.30499268    0.44000000    2.78999996
   14.97722149  155.45700073    0.44000000    2.78999996
   14.98027706  154.12699890    0.41999999    2.76999998
   14.98361111  155.25000000    0.44000000    2.76999998
   14.98694515  155.37600708    0.47999999    2.76999998
   14.99000072  155.50399780    0.47999999    2.76999998
   14.99333382  152.81199646    0.47999999    2.76999998
   14.99638939  158.43400574    0.44000000    2.78999996
   14.99972248  151.07800293    0.44000000    2.76999998
   15.00027752  156.32000732    0.44000000    2.76999998
   15.00555515  156.32000732    0.44000000    2.76999998
   15.00972176  150.96299744    0.44000000    2.76999998
   15.01305580  152.74299622    0.41999999    2.76999998
   15.01611137  159.84199524    0.41999999    2.76999998
   15.01944447  155.58700562    0.44000000    2.76999998
   15.02250004  156.77299500    0.44000000    2.78999996
   15.02583313  155.59100342    0.41999999    2.78999996
   15.02916622  152.09800720    0.41999999    2.78999996
   15.03222179  151.36999512    0.41999999    2.78999996
   15.03361130  155.10499573    0.41999999    2.78999996
   15.03611183  151.59300232    0.38000000    2.76999998
   15.03916740  153.71299744    0.40000001    2.76999998
   15.04250050  153.52000427    0.40000001    2.78999996
   15.04833412  153.52000427    0.40000001    2.78999996
   15.05249977  154.67799377    0.40000001    2.76999998
   15.05583382  152.74400330    0.40000001    2.76999998
   15.05888939  143.44099426    0.40000001    2.76999998
   15.06222248  150.98899841    0.40000001    2.76999998
   15.06555557  144.39599609    0.36000001    2.78999996
   15.06694412  157.77400208    0.36000001    2.78999996
   15.06916618  148.20100403    0.36000001    2.78999996
   15.07222176  146.24200439    0.38000000    2.78999996
   15.07555580  154.67799377    0.38000000    2.78999996
   15.07888889  153.26800537    0.36000001    2.78999996
   15.08194447  152.44200134    0.36000001    2.78999996
   15.08527756  153.04600525    0.34000000    2.78999996
   15.09138870  153.04600525    0.36000001    2.78999996
   15.09527779  162.15299988    0.38000000    2.78999996
   15.09861088  151.47200012    0.36000001    2.78999996
   15.10027790  149.30799866    0.36000001    2.78999996
   15.10222244  149.32400513    0.36000001    2.78999996
   15.10527802  147.94500732    0.36000001    2.76999998
   15.10861111  156.13099670    0.36000001    2.78999996
   15.11194515  153.44599915    0.36000001    2.78999996
   15.11500072  158.17100525    0.36000001    2.78999996
   15.11833382  154.43600464    0.36000001    2.78999996
   15.12166691  150.16499329    0.36000001    2.78999996
   15.12472248  153.48199463    0.36000001    2.78999996
   15.12805557  150.55700684    0.34000000    2.78999996
   15.13416672  150.55700684    0.38000000    2.78999996
   15.13833332  151.85800171    0.36000001    2.78999996
   15.14138889  152.94500732    0.36000001    2.78999996
   15.14472198  152.46699524    0.38000000    2.78999996
   15.14833355  147.31700134    0.36000001    2.78999996
   15.15138817  154.48500061    0.38000000    2.78999996
   15.15472221  151.19000244    0.38000000    2.78999996
   15.15805531  152.39100647    0.36000001    2.78999996
   15.16111088  152.57400513    0.36000001    2.78999996
   15.16444397  143.67199707    0.38000000    2.78999996
   15.16694450  151.35000610    0.38000000    2.78999996
   15.16805553  150.98199463    0.38000000    2.78999996
   15.17111111  150.46899414    0.40000001    2.78999996
   15.17694473  150.46899414    0.40000001    2.76999998
   15.18111134  150.04600525    0.40000001    2.78999996
   15.18444443  152.78900146    0.38000000    2.78999996
   15.18750000  150.02999878    0.40000001    2.78999996
   15.19083309  146.82699585    0.40000001    2.78999996
   15.19388866  159.75100708    0.41999999    2.78999996
   15.19722271  143.27900696    0.41999999    2.78999996
   15.20027733  144.16400146    0.41999999    2.78999996
   15.20083332  149.77900696    0.41999999    2.78999996
   15.20388889  139.34300232    0.41999999    2.78999996
   15.20722198  135.42500305    0.44000000    2.78999996
   15.21055508  139.26699829    0.41999999    2.78999996
   15.21361065  137.80000305    0.76999998    2.78999996
   15.21972179  137.80000305    0.79000002    2.78999996
   15.22388840  142.39599609    0.75000000    2.78999996
   15.22722149  135.16900635    0.76999998    2.78999996
   15.23027706  147.98599243    0.79000002    2.78999996
   15.23361111  147.29400635    0.70999998    2.78999996
   15.23416710  144.49600220    0.70999998    2.78999996
   15.23722267  158.11799622    0.70999998    2.78999996
   15.24055576  148.11000061    0.73000002    2.78999996
   15.24388885  149.01800537    0.70999998    2.78999996
   15.24694443  148.52799988    0.70999998    2.78999996
   15.25027752  146.52499390    0.70999998    2.78999996
   15.25361156  147.93099976    0.67000002    2.78999996
   15.25666714  149.13400269    0.64999998    2.78999996
   15.26277733  149.13400269    0.67000002    2.78999996
   15.26666641  147.22599792    0.63000000    2.78999996
   15.26722240  142.88699341    0.63000000    2.78999996
   15.27055550  147.62500000    0.51999998    2.78999996
   15.27388859  153.25599670    0.52999997    2.78999996
   15.27694416  149.69000244    0.52999997    2.78999996
   15.28027725  149.21499634    0.51999998    2.78999996
   15.28361130  144.54400635    0.51999998    2.78999996
   15.28666687  149.27299500    0.51999998    2.78999996
   15.29000092  153.45100403    0.47999999    2.78999996
   15.29305553  149.22200012    0.47999999    2.78999996
   15.29638958  156.17799377    0.47999999    2.78999996
   15.29972267  146.79100037    0.47999999    2.78999996
   15.30055618  145.18499756    0.47999999    2.78999996
   15.30555534  145.18499756    0.50000000    2.78999996
   15.30972195  146.69200134    0.50000000    2.78999996
   15.31277752  151.10000610    0.58999997    2.78999996
   15.31611156  153.51199341    0.52999997    2.78999996
   15.31944466  150.56799316    0.52999997    2.80999994
   15.32250023  154.94000244    0.56999999    2.78999996
   15.32583332  149.87800598    0.52999997    2.78999996
   15.32916641  147.32899475    0.52999997    2.78999996
   15.33222198  154.60400391    0.52999997    2.78999996
   15.33388901  152.07899475    0.52999997    2.78999996
   15.33583260  154.96200562    0.52999997    2.78999996
   15.33916664  147.91099548    0.56999999    2.78999996
   15.34222221  152.35400391    0.56999999    2.78999996
   15.34833336  152.35400391    0.58999997    2.78999996
   15.35249996  147.56399536    0.52999997    2.78999996
   15.35583401  156.38299561    0.52999997    2.78999996
   15.35888958  166.51499939    0.51999998    2.78999996
   15.36222267  157.48899841    0.51999998    2.78999996
   15.36555576  157.72799683    0.56999999    2.78999996
   15.36722279  158.50999451    0.55000001    2.78999996
   15.36916637  158.65899658    0.52999997    2.78999996
   15.37250042  158.99099731    0.51999998    2.78999996
   15.37555599  154.24899292    0.47999999    2.78999996
   15.37888908  160.88800049    0.41999999    2.80999994
   15.38222218  160.62800598    0.44000000    2.78999996
   15.38527775  152.70899963    0.50000000    2.78999996
   15.39111137  152.70899963    0.50000000    2.78999996
   15.39527798  152.58399963    0.51999998    2.78999996
   15.39861107  151.33099365    0.52999997    2.78999996
   15.40055561  158.11399841    0.52999997    2.78999996
   15.40222168  151.59300232    0.52999997    2.78999996
   15.40555477  154.88600159    0.55000001    2.78999996
   15.40861034  141.74400330    0.56999999    2.78999996
   15.41194439  129.93499756    0.56999999    2.78999996
   15.41527748  143.19200134    0.56999999    2.78999996
   15.41861153  143.56100464    0.58999997    2.78999996
   15.42166710  138.26199341    0.67000002    2.82999992
   15.42500019  144.32299805    0.81999999    2.78999996
   15.42833328  135.91600037    0.81999999    2.78999996
   15.43416691  135.91600037    1.09000003    2.76999998
   15.43805599  142.56599426    1.19000006    2.76999998
   15.44138908  150.02699280    1.01999998    2.76999998
   15.44472218  150.27600098    1.01999998    2.76999998
   15.44777775  155.52000427    0.94000000    2.78999996
   15.45111084  152.93499756    0.98000002    2.78999996
   15.45444393  146.86399841    0.95999998    2.78999996
   15.45749950  149.84300232    0.92000002    2.78999996
   15.46083355  153.07499695    0.83999997    2.78999996
   15.46388912  150.02499390    0.79000002    2.78999996
   15.46722221  146.82400513    0.79000002    2.78999996
   15.46777725  143.53300476    0.80000001    2.78999996
   15.47111034  148.74299622    0.79000002    2.78999996
   15.47694397  148.74299622    0.80000001    2.78999996
   15.48111057  150.56799316    0.73000002    2.78999996
   15.48416710  154.30700684    0.70999998    2.78999996
   15.48750019  154.61799622    0.69000000    2.78999996
   15.49083328  148.52299500    0.69000000    2.78999996
   15.49388885  148.42300415    0.70999998    2.78999996
   15.49722290  155.91299438    0.67000002    2.78999996
   15.50027752  148.36700439    0.69000000    2.78999996
   15.50111103  149.59899902    0.69000000    2.78999996
   15.50416660  146.58700562    0.69000000    2.78999996
   15.50722218  149.51100159    0.73000002    2.80999994
   15.51055527  149.59399414    0.64999998    2.76999998
   15.51388931  153.61799622    0.61000001    2.80999994
   15.51972198  153.61799622    0.61000001    2.80999994
   15.52388859  155.00599670    0.61000001    2.80999994
   15.52722168  157.05999756    0.63000000    2.78999996
   15.53027725  150.08299255    0.67000002    2.80999994
   15.53361130  147.22500610    0.69000000    2.78999996
   15.53444481  149.53500366    0.70999998    2.78999996
   15.53722286  147.92500305    0.70999998    2.78999996
   15.54027843  145.77900696    0.70999998    2.80999994
   15.54361153  154.39900208    0.64999998    2.80999994
   15.54694462  152.43499756    0.64999998    2.80999994
   15.55000019  164.53300476    0.52999997    2.80999994
   15.55333328  151.81599426    0.55000001    2.80999994
   15.55638885  144.54899597    0.63000000    2.78999996
   15.56250000  144.54899597    0.58999997    2.78999996
   15.56666660  150.39100647    0.56999999    2.78999996
   15.56777763  146.82800293    0.58999997    2.78999996
   15.57055569  153.98500061    0.58999997    2.78999996
   15.57361126  157.05499268    0.58999997    2.78999996
   15.57694435  159.34700012    0.56999999    2.80999994
   15.58027744  156.83500671    0.56999999    2.78999996
   15.58333302  153.31100464    0.56999999    2.78999996
   15.58666611  152.41099548    0.55000001    2.80999994
   15.58972168  150.06700134    0.55000001    2.80999994
   15.59305477  157.46499634    0.55000001    2.78999996
   15.59638882  158.16999817    0.55000001    2.78999996
   15.59944439  151.42599487    0.56999999    2.78999996
   15.60111141  155.10600281    0.56999999    2.78999996
   15.60527802  155.10600281    0.56999999    2.80999994
   15.60944462  161.45199585    0.56999999    2.78999996
   15.61277771  147.99699402    0.56999999    2.80999994
   15.61611176  150.81399536    0.56999999    2.78999996
   15.61916637  150.53300476    0.55000001    2.78999996
   15.62250042  148.06599426    0.56999999    2.78999996
   15.62583351  154.74000549    0.58999997    2.80999994
   15.62888908  158.94500732    0.61000001    2.80999994
   15.63222218  150.57499695    0.61000001    2.80999994
   15.63444424  151.58799744    0.58999997    2.78999996
   15.63583279  155.28700256    0.56999999    2.78999996
   15.73916721   -1.00000000   -1.00000000   -1.00000000
   15.83916664   -1.00000000   -1.00000000   -1.00000000
   16.00138855   -1.00000000   -1.00000000   -1.00000000
   16.16833305   70.68969727    0.86000001    2.80999994
   16.17138863  157.82899475    0.86000001    2.80999994
   16.17472076  152.64700317    0.86000001    2.80999994
   16.17805481  152.51600647    0.86000001    2.78999996
   16.18111038  155.91999817    0.86000001    2.78999996
   16.18444443  159.99200439    0.86000001    2.78999996
   16.18861008  159.99200439    0.83999997    2.80999994
   16.19277763  155.33599854    0.81999999    2.80999994
   16.19583321  155.25199890    0.81999999    2.80999994
   16.19916534  150.64799500    0.81999999    2.80999994
   16.20166779  155.66799927    0.81999999    2.80999994
   16.20277786  154.98899841    0.81999999    2.80999994
   16.20611191  154.26800537    0.80000001    2.80999994
   16.20944595  152.81100464    0.80000001    2.80999994
   16.21250153  154.31100464    0.79000002    2.78999996
   16.21583366  159.99099731    0.79000002    2.80999994
   16.21916771  154.74600220    0.81999999    2.80999994
   16.22222328  149.96200562    0.81999999    2.78999996
   16.22555542  151.79600525    0.81999999    2.78999996
   16.23139000  151.79600525    0.83999997    2.80999994
   16.23555565  149.73800659    0.86000001    2.80999994
   16.23888969  151.06500244    0.86000001    2.78999996
   16.24194527  149.23699951    0.81999999    2.80999994
   16.24527740  151.20199585    0.83999997    2.80999994
   16.24861145  154.49499512    0.83999997    2.80999994
   16.25166702  149.46000671    0.83999997    2.80999994
   16.25499916  148.07600403    0.86000001    2.80999994
   16.25833321  153.32600403    0.88000000    2.80999994
   16.26138878  147.81500244    0.92000002    2.80999994
   16.26472282  152.27900696    0.89999998    2.80999994
   16.26805496  150.12800598    0.89999998    2.80999994
   16.26861000  146.68099976    0.89999998    2.80999994
   16.27416611  146.68099976    0.88000000    2.80999994
   16.27833366  144.63299561    0.88000000    2.80999994
   16.28166580  150.50000000    0.88000000    2.80999994
   16.28499985  143.04600525    0.88000000    2.80999994
   16.28805542  147.63400269    0.88000000    2.80999994
   16.29138756  152.05000305    0.86000001    2.78999996
   16.29472160  153.78999329    0.88000000    2.80999994
   16.29777718  155.15499878    0.88000000    2.80999994
   16.30111122  153.17700195    0.86000001    2.80999994
   16.30194283  150.73199463    0.86000001    2.80999994
   16.30472183  150.09199524    0.86000001    2.80999994
   16.30805397  151.32899475    0.81999999    2.80999994
   16.31138802  149.88000488    0.83999997    2.80999994
   16.31722260  149.88000488    0.86000001    2.80999994
   16.32139015  141.04400635    0.83999997    2.80999994
   16.32444572  151.14999390    0.81999999    2.80999994
   16.32777786  148.87600708    0.81999999    2.80999994
   16.33083344  147.71200562    0.81999999    2.80999994
   16.33416748  148.20599365    0.81999999    2.80999994
   16.33527756  151.04499817    0.81999999    2.80999994
   16.33777809  147.94500732    0.81999999    2.80999994
   16.34111214  142.49099731    0.81999999    2.80999994
   16.34444427  150.58399963    0.81999999    2.80999994
   16.34749985  147.99299622    0.81999999    2.80999994
   16.35083389  150.90499878    0.83999997    2.80999994
   16.35388947  151.85600281    0.83999997    2.80999994
   16.36000061  151.85600281    0.81999999    2.80999994
   16.36416626  148.08200073    0.83999997    2.80999994
   16.36722183  146.24299622    0.83999997    2.80999994
   16.36861038  150.88800049    0.86000001    2.80999994
   16.37111092  149.37500000    0.86000001    2.80999994
   16.37416649  146.83500671    0.86000001    2.80999994
   16.37750053  148.38999939    0.86000001    2.80999994
   16.38083267  153.22999573    0.86000001    2.80999994
   16.38388824  152.98500061    0.88000000    2.80999994
   16.38722229  152.47500610    0.88000000    2.80999994
   16.39055634  148.74699402    0.86000001    2.80999994
   16.39361191  157.58299255    0.86000001    2.80999994
   16.39694405  154.43899536    0.86000001    2.80999994
   16.40277672  154.43899536    0.80000001    2.80999994
   16.40694427  150.13000488    0.88000000    2.80999994
   16.41027832  144.59599304    0.83999997    2.82999992
   16.41333389  158.55200195    0.81999999    2.80999994
   16.41666603  146.93400574    0.83999997    2.80999994
   16.41972160  151.01400757    0.81999999    2.82999992
   16.42305565  146.19999695    0.81999999    2.80999994
   16.42638779  148.44999695    0.83999997    2.80999994
   16.42972183  150.88200378    0.81999999    2.80999994
   16.43277740  148.08200073    0.83999997    2.82999992
   16.43527603  146.06199646    0.88000000    2.82999992
   16.43638802  156.91600037    0.88000000    2.82999992
   16.43972206  153.79600525    0.86000001    2.80999994
   16.44555473  153.79600525    0.88000000    2.80999994
   16.44972038  151.93699646    0.89999998    2.80999994
   16.45305634  154.64399719    0.92000002    2.80999994
   16.45639038  148.53500366    0.92000002    2.80999994
   16.45944595  148.92999268    0.94000000    2.80999994
   16.46277809  156.60699463    0.94000000    2.80999994
   16.46583366  149.54899597    0.95999998    2.80999994
   16.46861076  155.75199890    0.95999998    2.80999994
   16.46944427  154.87399292    0.95999998    2.80999994
   16.47277832  151.11500549    1.01999998    2.78999996
   16.47583389  154.61999512    1.07000005    2.80999994
   16.47916794  149.72099304    1.19000006    2.78999996
   16.48250008  151.12199402    1.55999994    2.78999996
   16.48861122  151.12199402    1.89999998    2.78999996
   16.49277878  155.94999695    1.89999998    2.78999996
   16.49583435  155.81199646    1.96000004    2.78999996
   16.49916649  155.20899963    2.05999994    2.78999996
   16.50194359  159.44400024    2.09999990    2.78999996
   16.50277710  160.35299683    2.11999989    2.78999996
   16.50611115  148.93600464    1.89999998    2.80999994
   16.50916672  149.93499756    1.76999998    2.80999994
   16.51250076  151.81399536    1.73000002    2.80999994
   16.51583290  146.10000610    4.90999985    2.84999990
   16.51888847  143.15400696    4.90999985    2.89000010
   16.52222252  163.49899292    4.90999985    1.53999996
   16.52555466   97.59839630    4.90999985    1.76999998
   16.53138924   97.59839630    4.90999985    2.93000007
   16.53555489  162.15899658    4.90999985    2.86999989
   16.53861046  157.28599548    4.90999985    2.82999992
   16.54194450  160.22700500    4.90999985    2.80999994
   16.54527664  160.66900635    4.90999985    2.76999998
   16.54833221  157.34800720    4.90999985    2.82999992
   16.55166626  148.39199829    4.90999985    2.80999994
   16.55472183  155.93200684    4.90999985    2.80999994
   16.55805397  142.05799866    4.90999985    2.75000000
   16.56138802  211.91299438    4.90999985    1.89999998
   16.56444359  155.30299377    4.90999985    1.71000004
   16.56777954  159.05799866    4.90999985    2.76999998
   16.56861115  156.65499878    4.90999985    2.55999994
   16.57416725  156.65499878    4.90999985    2.75000000
   16.57833481  156.12899780    4.90999985    2.71000004
   16.58166695  153.35600281    4.26999998    2.75000000
   16.58472252  158.15499878    3.66000009    2.76999998
   16.58805656  156.86300659    3.51999998    2.75000000
   16.59111214  149.61900330    3.20000005    2.75000000
   16.59444427  151.10200500    2.78999996    2.76999998
   16.59777832  158.55499268    2.44000006    2.75000000
   16.60111237  162.85699463    2.13000011    2.76999998
   16.60194397  155.30200195    1.98000002    2.78999996
   16.60444450  152.51800537    1.96000004    2.78999996
   16.60777855  155.41700745    1.78999996    2.78999996
   16.61111069  154.26400757    1.86000001    2.76999998
   16.61694527  154.26400757    2.09999990    2.76999998
   16.62111092  159.96800232    1.78999996    2.78999996
   16.62444496  161.49600220    1.60000002    2.78999996
   16.62750053  150.86500549    1.48000002    2.80999994
   16.63083267  157.81500244    1.46000004    2.78999996
   16.63416672  149.70399475    1.50000000    2.78999996
   16.63527679  156.02299500    1.50000000    2.78999996
   16.63750076  155.59899902    1.53999996    2.78999996
   16.64083290  156.13099670    2.13000011    2.78999996
   16.64416695  161.99600220    2.32999992    2.76999998
   16.64722252  153.98599243    2.46000004    2.78999996
   16.65055466  160.93899536    2.25000000    2.76999998
   16.65361023  159.45300293    2.05999994    2.78999996
   16.65999985  159.45300293    2.30999994    2.78999996
   16.66416550  159.04699707    2.42000008    2.78999996
   16.66722107  157.04400635    4.90999985    2.84999990
   16.66860962  152.45599365    4.90999985    2.84999990
   16.67083359  157.45399475    4.90999985    2.82999992
   16.67416573  163.90299988    4.90999985    2.84999990
   16.67749977  204.26899719    3.76999998    2.80999994
   16.68055534  167.25300598    3.41000009    2.76999998
   16.68388748  152.07000732    2.71000004    2.78999996
   16.68694305  155.44700623    2.66000009    2.78999996
   16.69027710  161.75599670    2.73000002    2.78999996
   16.69361115  160.95300293    3.21000004    2.75000000
   16.69666672  157.29299927    3.66000009    2.76999998
   16.70277786  157.29299927    4.90999985    2.50000000
   16.70694542  164.74499512    4.88999987    2.76999998
   16.71000099  158.00999451    4.90999985    2.75000000
   16.71333504  153.24400330    4.90999985    2.78999996
   16.71666718  154.71800232    4.90999985    2.84999990
   16.71972275  164.47599792    4.90999985    2.71000004
   16.72305679   -1.00000000    4.90999985    1.88000000
   16.72638893   -1.00000000    4.90999985    1.69000006
   16.72944450   -1.00000000    4.90999985    0.55000001
   16.73277855   -1.00000000    4.90999985    0.30000001
   16.73638916  265.20901489    4.90999985    0.25999999
   16.73972321   -1.00000000    4.90999985    1.61000001
   16.74555588   -1.00000000    4.90999985    0.70999998
   16.74972153   -1.00000000    4.90999985    0.69000000
   16.75305557   -1.00000000    4.90999985    1.21000004
   16.75611115   -1.00000000    4.90999985    1.25000000
   16.75944519   -1.00000000    4.90999985    0.61000001
   16.76250076  173.41799927    4.90999985    1.23000002
   16.76583290  140.55700684    4.90999985    1.96000004
   16.76944351   -1.00000000    4.90999985    2.28999996
   16.77277756   -1.00000000    4.90999985    0.41999999
   16.77583313   -1.00000000    4.90999985    0.40000001
   16.77916718   -1.00000000    4.90999985    0.56999999
   16.78222275   -1.00000000    4.90999985    0.76999998
   16.78833199   -1.00000000    4.90999985    2.82999992
   16.79249954  176.55400085    4.90999985    2.76999998
   16.79583359   -1.00000000    4.90999985    2.66000009
   16.79888916   -1.00000000    4.90999985    0.88000000
   16.80194283   91.65670013    4.90999985    1.14999998
   16.80249977  239.53100586    4.90999985    1.14999998
   16.80583191  144.26300049    4.90999985    1.23000002
   16.80916595  189.15800476    4.90999985    0.51999998
   16.81222153  236.83799744    4.90999985    0.95999998
   16.81555557   -1.00000000    4.90999985    1.89999998
   16.81861115   -1.00000000    4.90999985    0.17000000
   16.82194519   -1.00000000    4.90999985    0.07000000
   16.82527924   -1.00000000    4.90999985    0.05000000
   16.83527756   -1.00000000    4.90999985    0.11000000
   16.83861160   -1.00000000    4.90999985    0.13000000
   16.84166718   -1.00000000    4.90999985    0.23000000
   16.84500122   -1.00000000    4.90999985    0.28000000
   16.84833336   -1.00000000    4.90999985    0.64999998
   16.85138893   -1.00000000    4.90999985    1.85000002
   16.85472298   -1.00000000    4.90999985    0.51999998
   16.85805511   -1.00000000    4.90999985    0.07000000
   16.86111069   -1.00000000    2.89000010    0.05000000
   16.86444473   -1.00000000    4.90999985    0.07000000
   16.86750031   -1.00000000    4.90999985    0.13000000
   16.87416649   -1.00000000    4.90999985    2.78999996
   16.87833405  235.31100464    4.90999985    2.67000008
   16.88138962  181.86199951    4.90999985    2.34999990
   16.88472176  168.96299744    4.90999985    2.59999990
   16.88805580  172.95399475    4.90999985    2.57999992
   16.89111137  162.94200134    4.90999985    2.55999994
   16.89444351  166.05700684    4.90999985    2.59999990
   16.89749908  160.71499634    4.90999985    2.64000010
   16.90083313  163.77299500    4.90999985    2.53999996
   16.90194321  167.77200317    4.90999985    2.53999996
   16.90444374  160.65499878    4.90999985    2.64000010
   16.90777779  181.38000488    4.90999985    2.61999989
   16.91110992  166.93699646    4.90999985    2.57999992
   16.91694450  166.93699646    4.90999985    2.53999996
   16.92111015  206.19500732    4.90999985    2.44000006
   16.92444420  187.47799683    4.90999985    2.42000008
   16.92749977  177.68699646    4.90999985    2.44000006
   16.93083191  170.02099609    4.90999985    2.51999998
   16.93388748  160.82200623    4.90999985    2.59999990
   16.93527603  156.72900391    4.90999985    2.66000009
   16.93750000  157.37399292    4.90999985    2.73000002
   16.94083214  156.15499878    4.90999985    2.75000000
   16.94416618  159.69099426    4.90999985    2.78999996
   16.94722176  154.16900635    4.90999985    2.78999996
   16.95055580  159.41600037    4.90999985    2.82999992
   16.95388985  169.44999695    4.90999985    2.42000008
   16.95972252  169.44999695    4.90999985    2.28999996
   16.96389008  153.94299316    4.90999985    2.82999992
   16.96722221  153.74699402    4.90999985    2.76999998
   16.96861076  150.45300293    4.90999985    2.76999998
   16.97055626  154.03100586    4.90999985    2.75000000
   16.97389030  155.06500244    4.90999985    2.75000000
   16.97722244  151.28100586    3.99000001    2.76999998
   16.98027802  161.24699402    4.30999994    2.75000000
   16.98361206  154.34500122    4.55999994    2.73000002
   16.98694420  166.27400208    4.42999983    2.69000006
   16.98999977  156.78399658    4.55999994    2.71000004
   16.99333382  156.58599854    4.90999985    2.76999998
   16.99638939  154.01899719    4.90999985    2.69000006
   17.00277710  154.01899719    4.42999983    2.73000002
   17.00694466  160.28199768    3.03999996    2.75000000
   17.01000023  144.80299377    2.32999992    2.78999996
   17.01333427  152.59500122    1.69000006    2.76999998
   17.01666641  145.04200745    1.55999994    2.78999996
   17.01972198  153.45399475    1.58000004    2.78999996
   17.02305603  149.12100220    1.60000002    2.78999996
   17.02611160  141.83200073    1.66999996    2.78999996
   17.02944374  147.48800659    1.71000004    2.80999994
   17.03277779  150.50900269    2.05999994    2.80999994
   17.03527641  146.76899719    2.53999996    2.80999994
   17.03638840  153.09800720    2.53999996    2.80999994
   17.03944397  152.26100159    2.09999990    2.82999992
   17.04555511  152.26100159    1.66999996    2.80999994
   17.04972076  151.07099915    1.63000000    2.80999994
   17.05277634  146.26199341    1.69000006    2.78999996
   17.05611038  153.95399475    1.71000004    2.78999996
   17.05944443  153.51199341    1.71000004    2.78999996
   17.06250000  152.69599915    1.75000000    2.78999996
   17.06583214  153.85800171    2.21000004    2.78999996
   17.06861115  154.73300171    2.91000009    2.76999998
   17.06972313  154.61099243    3.41000009    2.75000000
   17.07277870  159.97399902    3.91000009    2.73000002
   17.07611275  161.04299927    3.53999996    2.75000000
   17.07916832  162.13200378    3.59999990    2.69000006
   17.08250046  159.10299683    3.73000002    2.73000002
   17.08833313  159.10299683    4.86999989    2.76999998
   17.09250069  156.62399292    2.89000010    2.78999996
   17.09583473  155.26899719    3.36999989    2.76999998
   17.09889030  153.75999451    2.89000010    2.76999998
   17.10194397  161.95399475    3.45000005    2.75000000
   17.10277748  161.51899719    3.45000005    2.75000000
   17.10583305  158.40100098    3.55999994    2.71000004
   17.10916710  157.80499268    3.45000005    2.73000002
   17.11222267  157.56100464    3.53999996    2.75000000
   17.11555672  155.65899658    4.00000000    2.71000004
   17.11888885  156.89399719    4.90999985    2.67000008
   17.12194443  161.98599243    4.90999985    2.66000009
   17.12527847  167.64399719    4.90999985    2.61999989
   17.13111115  167.64399719    4.90999985    2.50000000
   17.13527679  159.81500244    4.90999985    2.48000002
   17.13861084  159.02499390    4.90999985    2.53999996
   17.14194489  154.78599548    4.90999985    2.59999990
   17.14500046  153.29299927    4.90999985    2.69000006
   17.14833260  148.49600220    4.23999977    2.73000002
   17.15138817  159.04400635    2.69000006    2.78999996
   17.15472221  153.56500244    2.00000000    2.78999996
   17.15805435  151.67599487    1.64999998    2.78999996
   17.16110992  148.53500366    1.60000002    2.78999996
   17.16444397  154.28599548    1.58000004    2.80999994
   17.16777802  148.26899719    1.55999994    2.78999996
   17.16860962  157.86500549    1.51999998    2.80999994
   17.18916512  157.86500549    1.75000000    2.78999996
   17.19333267  146.64100647    1.86000001    2.78999996
   17.19666672  158.14199829    1.88000000    2.78999996
   17.19972038  147.88999939    1.88000000    2.78999996
   17.20194435  147.79699707    1.96000004    2.76999998
   17.20361137  154.22500610    1.89999998    2.78999996
   17.20694542  151.84500122    1.89999998    2.78999996
   17.21000099  150.88499451    1.91999996    2.78999996
   17.21333504  151.44000244    1.91999996    2.78999996
   17.21666718  149.11099243    1.61000001    2.78999996
   17.21972275  154.66400146    1.60000002    2.78999996
   17.22305679  152.96600342    1.60000002    2.78999996
   17.22611237  150.05900574    1.50000000    2.80999994
   17.23194504  150.05900574    1.50000000    2.78999996
   17.23611069  141.29600525    1.51999998    2.80999994
   17.23944473  147.77999878    1.53999996    2.78999996
   17.24250031  147.51699829    1.53999996    2.80999994
   17.24583435  144.36500549    1.55999994    2.78999996
   17.24888992  143.27600098    1.55999994    2.78999996
   17.25222206  150.19099426    1.55999994    2.78999996
   17.25555611  153.12500000    1.55999994    2.78999996
   17.25861168  153.42399597    1.53999996    2.78999996
   17.26194382  139.97700500    1.53999996    2.78999996
   17.26527786  144.73800659    1.51999998    2.78999996
   17.26833344  146.55099487    1.51999998    2.80999994
   17.26888847  149.68400574    1.51999998    2.80999994
   17.27499962  149.68400574    1.51999998    2.78999996
   17.27888870  157.88999939    1.53999996    2.78999996
   17.28222275  159.14599609    1.53999996    2.78999996
   17.28555489  154.30000305    1.55999994    2.78999996
   17.28861046  152.55499268    1.60000002    2.80999994
   17.29194450  147.83700562    1.63000000    2.80999994
   17.29527664  158.75799561    1.61000001    2.78999996
   17.29833221  148.59800720    1.64999998    2.78999996
   17.30166626  152.68200684    1.64999998    2.78999996
   17.30222130  150.38299561    1.64999998    2.78999996
   17.30527687  147.72599792    1.60000002    2.78999996
   17.30833244  146.35000610    1.55999994    2.80999994
   17.31166649  153.67399597    1.55999994    2.78999996
   17.31777954  153.67399597    1.55999994    2.78999996
   17.32166672  149.82699585    1.60000002    2.78999996
   17.32500076  154.44299316    1.60000002    2.78999996
   17.32833481  149.06700134    1.61000001    2.78999996
   17.33139038  149.90800476    1.61000001    2.78999996
   17.33472252  150.24899292    1.61000001    2.78999996
   17.33555603  148.26199341    1.61000001    2.78999996
   17.33833313  151.33200073    1.60000002    2.80999994
   17.34138870  152.07000732    1.60000002    2.80999994
   17.34472275  154.91700745    1.60000002    2.78999996
   17.34805679  146.58900452    1.60000002    2.78999996
   17.35111237  154.78599548    1.60000002    2.78999996
   17.35444450  149.87399292    1.66999996    2.78999996
   17.36055565  149.87399292    2.75000000    2.76999998
   17.36472321  151.50500488    2.53999996    2.76999998
   17.36777878  154.15100098    2.09999990    2.78999996
   17.36888885  148.03300476    1.86000001    2.78999996
   17.37166595  151.40699768    1.78999996    2.76999998
   17.37472153  156.47099304    1.63000000    2.76999998
   17.37805557  151.36700439    1.61000001    2.78999996
   17.38138962  155.99200439    1.55999994    2.78999996
   17.38444519  157.37199402    1.55999994    2.78999996
   17.38777733  151.12199402    1.60000002    2.78999996
   17.39111137  154.92900085    1.63000000    2.78999996
   17.39416695  153.33500671    1.63000000    2.78999996
   17.39749908  149.05400085    1.63000000    2.78999996
   17.40333366  149.05400085    1.64999998    2.78999996
   17.40749931  150.87100220    1.63000000    2.78999996
   17.41083336  148.58299255    1.61000001    2.78999996
   17.41388893  147.82600403    1.61000001    2.78999996
   17.41722107  150.82400513    1.61000001    2.78999996
   17.42027664  153.61300659    1.63000000    2.78999996
   17.42361069  147.91200256    1.63000000    2.78999996
   17.42694473  145.05099487    1.64999998    2.78999996
   17.43000031  154.67199707    1.66999996    2.78999996
   17.43333244  142.57600403    1.66999996    2.78999996
   17.43555450  153.78500366    1.69000006    2.78999996
   17.43694305  147.14199829    1.66999996    2.78999996
   17.43999863  145.72799683    1.64999998    2.78999996
   17.44610977  145.72799683    1.66999996    2.78999996
   17.45027924  137.11300659    1.66999996    2.78999996
   17.45361137  146.65400696    1.66999996    2.78999996
   17.45666695  141.17199707    1.69000006    2.78999996
   17.46000099  144.05299377    1.66999996    2.80999994
   17.46333504  140.26899719    1.66999996    2.78999996
   17.46638870  139.79400635    1.66999996    2.78999996
   17.46888924  148.91000366    1.66999996    2.78999996
   17.47027779  148.58599854    1.64999998    2.78999996
   17.47333336  144.77400208    1.64999998    2.78999996
   17.47666740  152.47799683    1.66999996    2.78999996
   17.48000145  149.26699829    1.71000004    2.78999996
   17.48305511  156.42500305    1.69000006    2.78999996
   17.48916626  156.42500305    1.69000006    2.78999996
   17.49333382  158.62899780    1.66999996    2.78999996
   17.49666786  157.44700623    1.66999996    2.78999996
   17.49972153  152.69999695    2.09999990    2.78999996
   17.50222206  155.16000366    1.76999998    2.80999994
   17.50361061  155.30099487    1.71000004    2.78999996
   17.50666618  151.98599243    1.69000006    2.78999996
   17.51000023  153.07099915    1.71000004    2.78999996
   17.51333427  157.32699585    1.73000002    2.78999996
   17.51638794  152.93200684    1.73000002    2.80999994
   17.51972198  154.31100464    1.71000004    2.78999996
   17.52305603  158.38499451    1.71000004    2.78999996
   17.52611160  151.99800110    1.71000004    2.78999996
   17.53194427  151.99800110    1.61000001    2.78999996
   17.53610992  152.62800598    1.63000000    2.78999996
   17.53916550  160.11000061    1.63000000    2.78999996
   17.54249954  153.00900269    1.63000000    2.78999996
   17.54583359  151.15499878    1.63000000    2.78999996
   17.54888916  152.35299683    1.66999996    2.78999996
   17.55222130  145.79299927    1.69000006    2.78999996
   17.55527687  151.14599609    1.71000004    2.78999996
   17.55861092  159.13099670    1.73000002    2.78999996
   17.56194305  153.23500061    1.73000002    2.78999996
   17.56499863  149.71499634    1.73000002    2.78999996
   17.56833458  154.46299744    1.76999998    2.78999996
   17.56888962  152.26100159    1.76999998    2.78999996
   17.57472229  152.26100159    1.83000004    2.78999996
   17.57888985  149.73500061    1.83000004    2.78999996
   17.58222389  146.63000488    1.83000004    2.78999996
   17.58527756  149.82600403    1.80999994    2.78999996
   17.58861160  153.45599365    1.80999994    2.78999996
   17.59166718  157.33599854    1.76999998    2.78999996
   17.59500122  158.75199890    1.76999998    2.76999998
   17.59833336  146.11999512    1.73000002    2.78999996
   17.60138893  154.07800293    1.75000000    2.78999996
   17.60222244  150.11999512    1.75000000    2.78999996
   17.60499954  146.25500488    1.88000000    2.78999996
   17.60833359  148.94299316    2.13000011    2.78999996
   17.61138916  150.38299561    1.96000004    2.78999996
   17.61750031  150.38299561    1.94000006    2.78999996
   17.62166595  144.94700623    1.83000004    2.78999996
   17.62500000  145.13699341    1.83000004    2.76999998
   17.62833405  145.51300049    1.80999994    2.78999996
   17.63138962  146.25799561    1.76999998    2.80999994
   17.63472176  150.89999390    1.94000006    2.80999994
   17.63555527  143.66700745    2.01999998    2.78999996
   17.63833237  153.56700134    2.28999996    2.80999994
   17.64166641  147.70100403    4.90999985    2.78999996
   17.64472198   46.78089905    4.90999985    2.15000010
   17.64805603  200.50000000    4.90999985    1.98000002
   17.65111160  158.10400391    4.90999985    2.67000008
   17.65444374  248.39100647    4.90999985    2.76999998
   17.66055489  248.39100647    4.90999985    2.64000010
   17.66472244  156.62800598    4.90999985    2.78999996
   17.66777802  158.00000000    4.90999985    2.75000000
   17.66888809  155.31100464    4.90999985    2.80999994
   17.67138863  154.80400085    4.76000023    2.78999996
   17.67472076  148.57699585    3.68000007    2.71000004
   17.67777634  154.54600525    3.11999989    2.76999998
   17.68111038  152.70700073    2.50000000    2.78999996
   17.68444443  156.16799927    2.40000010    2.78999996
   17.68750000  149.27799988    2.17000008    2.78999996
   17.69111061  151.06700134    2.07999992    2.78999996
   17.69444275  151.73300171    2.01999998    2.76999998
   17.69749832  150.10800171    1.94000006    2.76999998
   17.70333481  150.10800171    1.83000004    2.78999996
   17.70750046  150.67799377    1.75000000    2.78999996
   17.71055603  152.56199646    1.75000000    2.78999996
   17.71389008  143.99099731    1.75000000    2.76999998
   17.71722221  147.88499451    1.71000004    2.78999996
   17.72027779  148.36799622    1.66999996    2.78999996
   17.72361183  144.93800354    1.66999996    2.78999996
   17.72666740  152.00399780    1.60000002    2.78999996
   17.73000145  153.03999329    1.61000001    2.78999996
   17.73333359  153.55200195    1.69000006    2.78999996
   17.73555565  159.84399414    1.75000000    2.78999996
   17.73694420  150.21899414    1.75000000    2.78999996
   17.74027824  156.08900452    1.83000004    2.78999996
   17.74611092  156.08900452    1.88000000    2.76999998
   17.75027847  149.08200073    2.01999998    2.78999996
   17.75361061  150.36799622    2.07999992    2.78999996
   17.75666618  149.59500122    2.39000010    2.78999996
   17.76000023  148.66700745    2.50000000    2.76999998
   17.76305580  150.74699402    2.36999989    2.78999996
   17.76638794  147.73500061    2.39000010    2.76999998
   17.76888847  151.57000732    2.48000002    2.76999998
   17.77000046  147.88900757    2.53999996    2.76999998
   17.77333260  150.89399719    2.57999992    2.78999996
   17.77638817  153.41900635    2.66000009    2.78999996
   17.77972221  151.24800110    2.25000000    2.78999996
   17.78277779  148.00999451    2.26999998    2.76999998
   17.78888893  148.00999451    2.55999994    2.76999998
   17.79305458  148.62300110    2.48000002    2.76999998
   17.79638863  148.59500122    2.59999990    2.78999996
   17.79944420  149.79600525    2.61999989    2.76999998
   17.80222130  149.92100525    2.73000002    2.78999996
   17.80333328  149.10000610    2.75000000    2.76999998
   17.80666542  145.13900757    2.76999998    2.76999998
   17.80972099  152.67700195    2.78999996    2.76999998
   17.81305504  155.15100098    2.84999990    2.78999996
   17.81638718  153.96099854    2.86999989    2.76999998
   17.81944466  155.36300659    2.80999994    2.76999998
   17.82277870  155.25500488    2.67000008    2.76999998
   17.82583427  151.65899658    2.57999992    2.76999998
   17.83194542  151.65899658    2.57999992    2.76999998
   17.83583450  150.55200195    2.53999996    2.76999998
   17.83916664  162.70500183    2.51999998    2.76999998
   17.84250069  157.16900635    2.51999998    2.76999998
   17.84555626  161.81500244    2.55999994    2.78999996
   17.84889030  153.13200378    2.55999994    2.78999996
   17.85222244  156.31399536    2.55999994    2.76999998
   17.85527802  159.62300110    2.55999994    2.76999998
   17.85861206  154.39999390    2.55999994    2.76999998
   17.86194420  158.24499512    2.51999998    2.76999998
   17.86499977  158.53700256    2.40000010    2.76999998
   17.86833382  151.27099609    2.30999994    2.76999998
   17.86888885  155.67300415    2.28999996    2.78999996
   17.87472153  155.67300415    2.32999992    2.78999996
   17.87888908  159.23699951    2.51999998    2.78999996
   17.88194466  150.24400330    2.61999989    2.78999996
   17.88527679  154.35899353    2.48000002    2.76999998
   17.88861084  152.86599731    2.09999990    2.78999996
   17.89166641  151.21099854    1.86000001    2.76999998
   17.89500046  154.19299316    1.76999998    2.76999998
   17.89805603  153.87300110    1.78999996    2.76999998
   17.90138817  155.31599426    1.83000004    2.78999996
   17.90222168  151.42700195    1.83000004    2.78999996
   17.90499878  150.63400269    1.89999998    2.78999996
   17.90833282  151.98599243    1.91999996    2.76999998
   17.91138840  155.21800232    1.94000006    2.78999996
   17.91749954  155.21800232    1.96000004    2.78999996
   17.92166519  153.03500366    1.89999998    2.78999996
   17.92499924  153.21699524    1.86000001    2.78999996
   17.92805481  154.85200500    1.86000001    2.78999996
   17.93138885  151.28100586    1.88000000    2.78999996
   17.93444443  155.19599915    1.89999998    2.78999996
   17.93555450  154.48699951    1.89999998    2.78999996
   17.93805504  156.84399414    1.91999996    2.78999996
   17.94138718  154.43200684    1.86000001    2.78999996
   17.94444275  157.94299316    1.76999998    2.78999996
   17.94777679  153.65899658    1.64999998    2.78999996
   17.95111275  150.29699707    1.64999998    2.78999996
   17.95416832  150.06399536    1.60000002    2.78999996
   17.96027946  150.06399536    1.71000004    2.78999996
   17.96444511  157.87500000    1.61000001    2.80999994
   17.96777916  152.59500122    1.64999998    2.80999994
   17.96888924  152.30799866    1.73000002    2.78999996
   17.97138977  153.01400757    1.61000001    2.78999996
   17.97472191  151.44200134    1.61000001    2.78999996
   17.97777748  151.58000183    1.58000004    2.78999996
   17.98111153  147.86799622    1.63000000    2.78999996
   17.98444557  151.40699768    1.63000000    2.78999996
   17.98750114  153.88699341    1.63000000    2.78999996
   17.99083328  153.91900635    1.61000001    2.78999996
   17.99388885  144.21699524    1.61000001    2.78999996
   17.99722290  150.48800659    1.51999998    2.80999994
   18.00333405  150.48800659    1.51999998    2.80999994
   18.00722313  153.19200134    1.36000001    2.78999996
   18.01055527  161.66299438    1.38000000    2.78999996
   18.01388931  148.91799927    1.38000000    2.80999994
   18.01694489  151.29299927    1.28999996    2.80999994
   18.02027702  146.22900391    1.25000000    2.80999994
   18.02361107  150.35800171    1.25000000    2.80999994
   18.02666664  155.70300293    1.26999998    2.80999994
   18.03000069  156.22900391    1.28999996    2.80999994
   18.03305435  155.40600586    1.30999994    2.80999994
   18.03555489  157.26199341    1.33000004    2.80999994
   18.03666687  157.69799805    1.34000003    2.80999994
   18.03999901  151.99299622    1.36000001    2.78999996
   18.04611015  151.99299622    1.39999998    2.78999996
   18.05027771  149.88299561    1.44000006    2.78999996
   18.05333328  157.89799500    1.44000006    2.78999996
   18.05666542  154.76300049    1.46000004    2.78999996
   18.05999947  161.33700562    1.51999998    2.78999996
   18.06305504  152.69000244    1.55999994    2.78999996
   18.06638718  153.02999878    1.55999994    2.78999996
   18.06916809  152.02000427    1.53999996    2.80999994
   18.07000160  149.23599243    1.55999994    2.78999996
   18.07333374  152.36199951    1.58000004    2.78999996
   18.07638931  151.53700256    1.58000004    2.78999996
   18.07972336  151.06300354    1.61000001    2.78999996
   18.08305550  157.57299805    1.60000002    2.78999996
   18.08889008  157.57299805    1.60000002    2.78999996
   18.09305573  150.64700317    1.60000002    2.78999996
   18.09638977  159.21400452    1.60000002    2.78999996
   18.09944534  155.29499817    1.60000002    2.78999996
   18.10250092  151.34199524    1.58000004    2.78999996
   18.10305595  143.50399780    1.53999996    2.78999996
   18.10639000  157.29600525    1.55999994    2.78999996
   18.10944557  155.47599792    1.53999996    2.78999996
   18.11277771  146.70300293    1.53999996    2.78999996
   18.11611176  152.62500000    1.53999996    2.78999996
   18.11916733  163.82899475    1.53999996    2.78999996
   18.12249947  160.57299805    1.53999996    2.78999996
   18.12555504  158.95199585    1.51999998    2.78999996
   18.13166618  158.95199585    1.55999994    2.76999998
   18.13583374  152.50199890    1.53999996    2.78999996
   18.13916588  154.21200562    1.60000002    2.78999996
   18.14249992  161.70899963    1.58000004    2.78999996
   18.14555550  147.81799316    1.53999996    2.78999996
   18.14888954  185.81100464    1.63000000    2.78999996
   18.15194321  192.15400696    4.90999985    2.53999996
   18.15527725  152.88099670    4.90999985    2.51999998
   18.15861130  149.25399780    4.90999985    2.78999996
   18.16166687  145.22900391    4.90999985    2.78999996
   18.16499901  154.92100525    4.90999985    2.78999996
   18.16833305  147.80000305    4.90999985    2.76999998
   18.16916656  157.52999878    4.90999985    2.75000000
   18.17472076  157.52999878    4.90999985    2.61999989
   18.17888832  151.49099731    4.90999985    2.69000006
   18.18194389  153.27200317    4.90999985    2.76999998
   18.18527603  185.03599548    4.90999985    2.46000004
   18.20277786  209.98599243    4.90999985    2.42000008
   18.20527840  194.45899963    4.90999985    2.44000006
   18.20861244  195.26100159    4.90999985    2.39000010
   18.21166801  155.10600281    4.90999985    2.17000008
   18.21777916  155.10600281    4.90999985    2.80999994
   18.22166634  148.83999634    3.28999996    2.80999994
   18.22500038  147.16400146    4.90999985    2.82999992
   18.22833443  150.18099976    4.90999985    2.82999992
   18.23139000  149.00999451    2.48000002    2.80999994
   18.23472214  149.88000488    3.91000009    2.78999996
   18.23611069  148.68099976    3.78999996    2.78999996
   18.23861122  147.84399414    3.09999990    2.76999998
   18.24166679  153.30099487    3.99000001    2.48000002
   18.24500084  149.06900024    4.90999985    1.51999998
   18.24805641  148.13000488    4.90999985    2.80999994
   18.25138855  147.42100525    1.64999998    2.78999996
   18.25472260  154.62399292    1.66999996    2.76999998
   18.26055527  154.62399292    1.61000001    2.78999996
   18.26472282  146.24000549    1.60000002    2.76999998
   18.26777840  150.35600281    1.61000001    2.78999996
   18.26944351  149.87600708    1.63000000    2.78999996
   18.27166557  153.69299316    1.64999998    2.78999996
   18.27472115  154.74400330    1.63000000    2.78999996
   18.27805519  152.44599915    1.64999998    2.78999996
   18.28111076  148.33599854    1.64999998    2.78999996
   18.28444481  145.70300293    1.63000000    2.78999996
   18.28777695  141.03799438    1.63000000    2.78999996
   18.29083252  140.60499573    1.69000006    2.76999998
   18.29416656  148.18899536    1.88000000    2.78999996
   18.29749870  142.56900024    1.83000004    2.76999998
   18.30333328  142.56900024    1.78999996    2.78999996
   18.30749893  148.97900391    1.80999994    2.78999996
   18.31083298  152.05499268    1.78999996    2.78999996
   18.31388855  145.96000671    1.60000002    2.78999996
   18.31722260  152.62100220    1.60000002    2.78999996
   18.32055664  148.24600220    1.61000001    2.78999996
   18.32389069  146.41600037    1.63000000    2.78999996
   18.32694626  143.22500610    1.66999996    2.78999996
   18.33027840  153.29699707    1.66999996    2.78999996
   18.33333397  149.04499817    1.66999996    2.78999996
   18.33611107  147.59500122    1.63000000    2.78999996
   18.33722305  146.46600342    1.63000000    2.78999996
   18.34027863  145.17399597    1.66999996    2.78999996
   18.34611130  145.17399597    1.86000001    2.78999996
   18.35027885  148.96499634    1.85000002    2.78999996
   18.35361099  151.63499451    1.86000001    2.76999998
   18.35666656  148.72300720    1.86000001    2.76999998
   18.36000061  151.54499817    1.88000000    2.78999996
   18.36333466  151.83299255    1.85000002    2.78999996
   18.36638832  152.14399719    2.00000000    2.76999998
   18.36944389  151.68499756    2.07999992    2.78999996
   18.37027740  150.00000000    2.09999990    2.78999996
   18.37333298  157.20300293    2.15000010    2.78999996
   18.37666702  151.83399963    2.23000002    2.78999996
   18.37972260  161.45500183    2.28999996    2.78999996
   18.38305473  156.32800293    2.50000000    2.76999998
   18.38916588  156.32800293    2.59999990    2.78999996
   18.39305496  157.94299316    2.76999998    2.76999998
   18.39638901  149.43200684    2.69000006    2.76999998
   18.39972115  151.85000610    2.71000004    2.76999998
   18.40277672  145.30200195    2.67000008    2.76999998
   18.40333366  150.68499756    2.69000006    2.76999998
   18.40638924  152.70599365    3.01999998    2.78999996
   18.40972137  143.77900696    3.70000005    2.76999998
   18.41277695  151.02900696    3.86999989    2.78999996
   18.41611099  140.22500610    3.51999998    2.78999996
   18.41944313  141.72799683    3.28999996    2.78999996
   18.42249870  145.49699402    2.76999998    2.76999998
   18.42583275  145.66799927    2.75000000    2.76999998
   18.43194389  145.66799927    2.73000002    2.76999998
   18.43610954  159.26300049    2.51999998    2.76999998
   18.43666649  146.46299744    2.51999998    2.76999998
   18.43972206  155.57899475    2.39000010    2.76999998
   18.44305420  146.19900513    2.34999990    2.78999996
   18.44610977  158.07699585    2.30999994    2.78999996
   18.44944382  146.59199524    2.21000004    2.76999998
   18.45277786  149.69999695    2.21000004    2.75000000
   18.45583344  153.45100403    2.17000008    2.76999998
   18.45916748  150.97200012    2.15000010    2.76999998
   18.46250153  159.10400391    2.21000004    2.76999998
   18.46555710  146.01400757    2.11999989    2.76999998
   18.46888924  152.94099426    1.94000006    2.76999998
   18.46944427  155.52999878    1.89999998    2.76999998
   18.47472191  155.52999878    1.86000001    2.76999998
   18.47888947  150.60299683    1.88000000    2.78999996
   18.48222351  142.91700745    1.83000004    2.76999998
   18.48527718  152.32699585    1.80999994    2.76999998
   18.48861122  151.07699585    1.80999994    2.78999996
   18.49166679  147.27400208    1.86000001    2.76999998
   18.49500084  149.58900452    1.86000001    2.76999998
   18.49833298  147.74800110    1.85000002    2.76999998
   18.50138855  145.42300415    1.85000002    2.76999998
   18.50277710  152.09800720    1.85000002    2.76999998
   18.50527763  153.27799988    1.85000002    2.76999998
   18.50833321  146.12699890    1.85000002    2.76999998
   18.51166725  143.55900574    1.86000001    2.76999998
   18.51749992  143.55900574    1.85000002    2.76999998
   18.52166557  158.37300110    1.86000001    2.76999998
   18.52499962  164.67799377    1.88000000    2.76999998
   18.52805519  156.71299744    2.05999994    2.76999998
   18.53138924  160.10099792    2.07999992    2.76999998
   18.53472137  151.59800720    2.05999994    2.76999998
   18.53610992  151.99299622    2.01999998    2.75000000
   18.53833199  153.46899414    2.00000000    2.76999998
   18.54138756  165.27200317    1.94000006    2.75000000
   18.54472160  159.71000671    1.89999998    2.76999998
   18.54805565  152.01699829    1.89999998    2.76999998
   18.55111122  146.58599854    1.89999998    2.76999998
   18.55444336  154.29600525    1.91999996    2.76999998
   18.56055450  154.29600525    1.85000002    2.76999998
   18.56444359  152.16099548    1.86000001    2.76999998
   18.56777954  150.36199951    1.88000000    2.76999998
   18.56944466  150.22999573    1.88000000    2.75000000
   18.57166672  155.23599243    1.88000000    2.75000000
   18.57472229  159.91700745    1.88000000    2.76999998
   18.57805634  151.79200745    1.88000000    2.76999998
   18.58139038  148.39399719    1.88000000    2.75000000
   18.58444595  142.51300049    1.86000001    2.76999998
   18.58777809  151.27499390    1.88000000    2.76999998
   18.59111214  154.17300415    1.89999998    2.76999998
   18.59416771  153.74000549    1.89999998    2.76999998
   18.59749985  148.83599854    1.98000002    2.76999998
   18.60333443  148.83599854    2.05999994    2.75000000
   18.60750008  149.33900452    2.03999996    2.75000000
   18.61055565  151.53599548    2.03999996    2.75000000
   18.61388969  153.76699829    2.09999990    2.76999998
   18.61722183  152.97799683    2.11999989    2.76999998
   18.62027740  154.34500122    2.05999994    2.75000000
   18.62361145  151.36900330    2.01999998    2.76999998
   18.62666702  146.20599365    1.91999996    2.76999998
   18.63000107  146.87100220    1.88000000    2.76999998
   18.63333321  154.11500549    1.88000000    2.76999998
   18.63611031  153.92799377    1.88000000    2.75000000
   18.63694382  153.63000488    1.89999998    2.76999998
   18.63999939  154.57400513    1.86000001    2.76999998
   18.64611053  154.57400513    1.85000002    2.75000000
   18.65027809  146.62199402    1.85000002    2.76999998
   18.65361023  149.24800110    1.89999998    2.76999998
   18.65666580  149.27499390    1.94000006    2.75000000
   18.65999985  155.75900269    1.94000006    2.75000000
   18.66305542  161.45399475    2.09999990    2.75000000
   18.66666603  153.29800415    1.91999996    2.75000000
   18.66944313  152.86399841    1.91999996    2.75000000
   18.67027664  146.83099365    1.88000000    2.76999998
   18.67333221  140.90199280    1.85000002    2.76999998
   18.67666626  149.72399902    1.76999998    2.76999998
   18.68000031  150.90800476    1.76999998    2.75000000
   18.68305397  152.09399414    1.83000004    2.75000000
   18.68888855  152.09399414    1.80999994    2.75000000
   18.69305420  146.52699280    1.86000001    2.75000000
   18.69638824  145.88699341    1.85000002    2.76999998
   18.69944382  151.38999939    1.85000002    2.75000000
   18.70277786  152.48100281    1.83000004    2.76999998
   18.70333481  152.05700684    1.83000004    2.75000000
   18.70639038  161.19299316    1.83000004    2.75000000
   18.70972252  152.98399353    1.85000002    2.75000000
   18.71305656  153.13600159    1.85000002    2.75000000
   18.71611214  154.14500427    1.85000002    2.76999998
   18.71944427  146.98100281    1.85000002    2.75000000
   18.72249985  152.30000305    1.76999998    2.75000000
   18.72583389  146.67599487    1.73000002    2.75000000
   18.73166656  146.67599487    1.69000006    2.76999998
   18.73583412  150.62600708    1.71000004    2.75000000
   18.73638916  154.15199280    1.69000006    2.76999998
   18.73972321  153.45700073    1.69000006    2.76999998
   18.74305534  150.65899658    1.71000004    2.76999998
   18.74611092  144.11700439    1.71000004    2.75000000
   18.74944496  155.96400452    1.71000004    2.75000000
   18.75250053  150.97300720    4.90999985    2.76999998
   18.75583267  148.64799500    4.48999977    2.75000000
   18.75916672  147.92700195    2.07999992    2.75000000
   18.76222229  147.80499268    1.86000001    2.75000000
   18.76555634  145.32000732    1.88000000    2.75000000
   18.76888847  151.93499756    2.55999994    2.75000000
   18.76972198  153.62699890    2.51999998    2.75000000
   18.77472115  153.62699890    1.91999996    2.73000002
   18.77888870  153.46400452    1.89999998    2.73000002
   18.78194427  159.72599792    1.91999996    2.75000000
   18.78527641  156.07800293    4.42999983    2.75000000
   18.78833199  123.30599976    4.90999985    2.39000010
   18.79166603  154.75700378    4.90999985    2.69000006
   18.79500008  152.43800354    4.90999985    2.78999996
   18.79833221  149.32499695    2.48000002    2.76999998
   18.80138779  144.32600403    4.44999981    2.75000000
   18.80305481  156.49899292    4.26999998    2.75000000
   18.80499840  144.91700745    3.91000009    2.51999998
   18.80833244  159.46099854    4.90999985    2.76999998
   18.81138802  155.60099792    4.90999985    2.76999998
   18.81750107  155.60099792    4.90999985    2.00000000
   18.82166672   -1.00000000    4.90999985    0.55000001
   18.82500076  179.40499878    4.90999985    1.14999998
   18.82805634  188.00399780    4.90999985    2.36999989
   18.83139038  150.52699280    4.90999985    2.76999998
   18.83444595  146.67399597    2.51999998    2.76999998
   18.83638954  152.65600586    1.83000004    2.75000000
   18.83833313  151.19500732    1.86000001    2.75000000
   18.84166718  150.17500305    1.80999994    2.71000004
   18.84472275  154.46200562    1.83000004    2.73000002
   18.84805679  155.19900513    1.83000004    2.73000002
   18.85111237  147.46299744    1.83000004    2.73000002
   18.85444450  158.75399780    1.88000000    2.73000002
   18.86027908  158.75399780    2.09999990    2.75000000
   18.86444473  148.47599792    2.11999989    2.73000002
   18.86777878  152.35899353    2.28999996    2.75000000
   18.86972237  151.92700195    3.21000004    2.73000002
   18.87138939  151.51199341    3.91000009    2.75000000
   18.87472153  155.05400085    3.25000000    2.75000000
   18.87777710  149.52000427    2.19000006    2.75000000
   18.88111115  148.95700073    2.19000006    2.73000002
   18.88416672  147.75300598    2.15000010    2.73000002
   18.88750076  149.85200500    2.05999994    2.73000002
   18.89083290  152.56599426    2.01999998    2.73000002
   18.89388847  151.00199890    2.01999998    2.73000002
   18.89722252  144.30999756    1.89999998    2.71000004
   18.90305519  144.30999756    1.91999996    2.73000002
   18.90722275  142.99099731    2.03999996    2.75000000
   18.91055489  140.49200439    2.05999994    2.73000002
   18.91388893  146.64399719    2.05999994    2.75000000
   18.91694450  141.61500549    2.11999989    2.73000002
   18.92027664  152.94400024    2.13000011    2.75000000
   18.92333221  139.52600098    2.11999989    2.73000002
   18.92666626  149.65899658    2.15000010    2.73000002
   18.93000031  144.36399841    2.11999989    2.73000002
   18.93305397  143.92500305    2.19000006    2.73000002
   18.93638802  146.93299866    2.23000002    2.73000002
   18.93694305  144.13600159    2.26999998    2.75000000
   18.94027710  143.78100586    2.19000006    2.73000002
   18.94610977  143.78100586    2.17000008    2.75000000
   18.95027924  155.06900024    2.15000010    2.75000000
   18.95333481  149.01499939    2.17000008    2.73000002
   18.95666695  151.49400330    2.21000004    2.73000002
   18.95972252  151.14999390    2.25000000    2.73000002
   18.96305656  160.73899841    2.28999996    2.73000002
   18.96638870  151.60800171    2.36999989    2.73000002
   18.96944427  153.11099243    2.42000008    2.73000002
   18.97027779  146.01800537    2.42000008    2.73000002
   18.97333336  153.02099609    2.46000004    2.73000002
   18.97638893  147.19200134    2.48000002    2.73000002
   18.97972298  145.21800232    2.51999998    2.73000002
   18.98277855  144.82600403    2.57999992    2.75000000
   18.98888969  144.82600403    4.90999985    2.75000000
   18.99305534  129.66900635    4.90999985    2.78999996
   18.99611092  107.35600281    4.90999985    2.57999992
   18.99944496  159.04299927    4.90999985    2.48000002
   19.00277710  158.25999451    4.01999998    2.71000004
   19.00361061  151.36700439    4.01999998    2.71000004
   19.00638962  148.23399353    3.14000010    2.73000002
   19.00944519  155.11399841    2.55999994    2.73000002
   19.01277733  148.00999451    2.48000002    2.73000002
   19.01583290  153.46699524    2.53999996    2.75000000
   19.01916695  155.00199890    2.69000006    2.73000002
   19.02249908  157.19799805    3.16000009    2.73000002
   19.02555466  155.68400574    3.25000000    2.71000004
   19.03166580  155.68400574    3.00000000    2.71000004
   19.03583336  154.27600098    2.71000004    2.73000002
   19.03694344  158.83000183    2.67000008    2.71000004
   19.03972244  152.41700745    2.61999989    2.71000004
   19.04277802  161.14700317    2.59999990    2.73000002
   19.04611015  159.34500122    2.57999992    2.73000002
   19.04916573  158.84500122    2.59999990    2.71000004
   19.05249977  162.61000061    2.59999990    2.71000004
   19.05583191  157.11099243    2.61999989    2.71000004
   19.05888748  159.15400696    2.64000010    2.71000004
   19.06222153  145.00999451    2.64000010    2.73000002
   19.06555557  152.98199463    2.57999992    2.69000006
   19.06861115  154.88600159    2.61999989    2.71000004
   19.07027817  152.86999512    2.59999990    2.71000004
   19.07444572  152.86999512    2.59999990    2.71000004
   19.07861137  152.39199829    2.59999990    2.71000004
   19.08194542  149.39300537    2.57999992    2.71000004
   19.08527756  153.00000000    2.57999992    2.73000002
   19.08833313  163.96299744    2.51999998    2.73000002
   19.09166718  145.18800354    2.48000002    2.71000004
   19.09472275  152.48899841    2.42000008    2.71000004
   19.09805679  145.00199890    2.40000010    2.71000004
   19.10138893  150.16700745    2.34999990    2.71000004
   19.10361099  149.37199402    2.34999990    2.73000002
   19.10499954  148.85899353    2.32999992    2.71000004
   19.10805511  152.72300720    2.26999998    2.73000002
   19.11138916  146.54699707    2.21000004    2.71000004
   19.11750031  146.54699707    2.21000004    2.73000002
   19.12166595  141.23199463    2.25000000    2.73000002
   19.12472153  153.79600525    2.25000000    2.73000002
   19.12805557  145.20199585    2.26999998    2.71000004
   19.13138962  150.90600586    2.25000000    2.73000002
   19.13444519  145.82299805    2.23000002    2.71000004
   19.13694382  151.25300598    2.23000002    2.71000004
   19.13833237  160.19500732    2.25000000    2.71000004
   19.14138794  147.00100708    2.23000002    2.69000006
   19.14472198  151.65600586    2.28999996    2.71000004
   19.14777756  153.27900696    2.28999996    2.73000002
   19.15111160  149.24099731    2.78999996    2.71000004
   19.15444374  149.36000061    2.69000006    2.71000004
   19.16027832  149.36000061    2.94000006    2.34999990
   19.16444397  155.50100708    4.65999985    2.69000006
   19.16749954  148.74200439    3.78999996    2.71000004
   19.17027664  145.60800171    2.76999998    2.71000004
   19.17138863  152.46600342    2.80999994    2.71000004
   19.17444420  150.16000366    2.26999998    2.71000004
   19.17777634  144.99499512    2.23000002    2.71000004
   19.18083191  147.79499817    2.25000000    2.71000004
   19.18416595  145.55299377    2.25000000    2.71000004
   19.18750000  153.28700256    2.17000008    2.71000004
   19.19055557  154.02099609    2.17000008    2.71000004
   19.19388771  156.56799316    2.11999989    2.71000004
   19.19722176  144.38900757    2.09999990    2.71000004
   19.20305634  144.38900757    2.05999994    2.71000004
   19.22138977  137.94999695    2.01999998    2.71000004
   19.22472191  154.92599487    2.01999998    2.71000004
   19.22805595  154.48500061    2.00000000    2.71000004
   19.23111153  158.28199768    1.98000002    2.71000004
   19.23444557  155.26699829    1.98000002    2.71000004
   19.23777771  159.00799561    1.94000006    2.69000006
   19.24083328  154.89799500    1.94000006    2.69000006
   19.24611092  154.89799500    2.11999989    2.71000004
   19.25027847  157.87800598    2.07999992    2.71000004
   19.25361061  158.62600708    2.00000000    2.69000006
   19.25444412  157.10699463    1.96000004    2.71000004
   19.25722313  155.01499939    1.98000002    2.69000006
   19.26055527  160.46099854    1.94000006    2.71000004
   19.26361084  148.29699707    1.96000004    2.71000004
   19.26694489  151.95500183    1.96000004    2.71000004
   19.27027702  157.51199341    2.00000000    2.69000006
   19.27333260  154.79100037    2.00000000    2.71000004
   19.27666664  165.86700439    2.00000000    2.71000004
   19.27972221  154.11900330    2.00000000    2.71000004
   19.28305435  154.56300354    2.01999998    2.71000004
   19.28916550  154.56300354    2.09999990    2.71000004
   19.29305458  153.65899658    2.11999989    2.69000006
   19.29638863  157.15499878    2.11999989    2.71000004
   19.29972076  154.18600464    2.09999990    2.71000004
   19.30277634  153.33200073    2.09999990    2.71000004
   19.30611038  149.95899963    2.15000010    2.71000004
   19.30944443  156.02799988    2.11999989    2.69000006
   19.31250000  147.50300598    2.09999990    2.71000004
   19.31583214  161.30200195    2.09999990    2.71000004
   19.31888962  157.06700134    2.13000011    2.69000006
   19.32111168  153.30099487    2.13000011    2.69000006
   19.32250023  162.87500000    2.17000008    2.69000006
   19.32583427  144.38000488    2.13000011    2.69000006
   19.33194542  144.38000488    2.34999990    2.69000006
   19.33611107  154.48300171    2.25000000    2.71000004
   19.33916664  155.30900574    2.32999992    2.71000004
   19.34250069  159.60699463    2.34999990    2.69000006
   19.34583473  147.90699768    2.39000010    2.69000006
   19.34889030  156.51800537    2.42000008    2.71000004
   19.35222244  154.62699890    2.55999994    2.69000006
   19.35444450  155.88499451    2.61999989    2.69000006
   19.35583305  153.98100281    2.66000009    2.69000006
   19.35916710  160.06700134    2.50000000    2.69000006
   19.36222267  156.27999878    2.50000000    2.69000006
   19.36555672  154.86500549    2.44000006    2.69000006
   19.36888885  162.83500671    2.44000006    2.71000004
   19.37472153  162.83500671    2.39000010    2.69000006
   19.37888908  155.88999939    2.36999989    2.69000006
   19.38222313  153.19299316    2.61999989    2.69000006
   19.38527679  151.06399536    2.64000010    2.69000006
   19.38777733  151.91499329    2.61999989    2.69000006
   19.38888931  161.59500122    2.59999990    2.69000006
   19.39222145  140.79200745    2.57999992    2.69000006
   19.39527702  145.83200073    2.61999989    2.69000006
   19.39861107  152.91799927    2.67000008    2.69000006
   19.40194321  162.55099487    2.67000008    2.69000006
   19.40499878  151.84399414    2.71000004    2.69000006
   19.40833282  153.12600708    2.78999996    2.69000006
   19.41166687  148.17599487    2.78999996    2.69000006
   19.41749954  148.17599487    2.82999992    2.69000006
   19.42166519  156.50100708    2.82999992    2.69000006
   19.42499924  159.68200684    2.86999989    2.69000006
   19.42833328  149.81900024    2.91000009    2.69000006
   19.43138885  147.67599487    2.91000009    2.69000006
   19.43472099  143.41700745    2.94000006    2.69000006
   19.43777657  151.51100159    2.91000009    2.69000006
   19.44111061  153.90800476    2.94000006    2.69000006
   19.44444275  155.14500427    3.01999998    2.67000008
   19.44749832  149.78100586    2.93000007    2.67000008
   19.45083427  154.90899658    2.84999990    2.69000006
   19.45416832  148.71600342    2.91000009    2.69000006
   19.45444489  155.88400269    2.89000010    2.69000006
   19.46055603  155.88400269    2.86999989    2.67000008
   19.46472359  160.53199768    3.11999989    2.67000008
   19.46777916  158.87100220    3.14000010    2.67000008
   19.47111130  163.25199890    3.16000009    2.67000008
   19.47444534  163.84899902    3.68000007    2.67000008
   19.47750092  154.97599792    4.01999998    2.67000008
   19.48083305  154.92999268    4.57999992    2.67000008
   19.48388863  154.09500122    4.57999992    2.66000009
   19.48722267  154.17999268    4.26000023    2.66000009
   19.48777771  161.62300110    4.26000023    2.66000009
   19.49083328  155.97599792    4.11999989    2.66000009
   19.49416733  168.49000549    4.03999996    2.66000009
   19.49722290  160.92999268    3.91000009    2.66000009
   19.50333405  160.92999268    3.48000002    2.66000009
   19.50749969  165.41700745    3.36999989    2.67000008
   19.51055527  149.87100220    3.41000009    2.67000008
   19.51388931  155.13200378    3.32999992    2.67000008
   19.51722145  156.12300110    3.39000010    2.67000008
   19.52027702  161.37199402    3.28999996    2.67000008
   19.52111053  160.25999451    3.28999996    2.67000008
   19.52388954  156.91700745    3.23000002    2.67000008
   19.52722168  154.52600098    3.18000007    2.67000008
   19.53027725  156.96299744    3.21000004    2.67000008
   19.53361130  155.88800049    3.26999998    2.67000008
   19.53694344  162.84100342    3.36999989    2.67000008
   19.53999901  165.37699890    3.34999990    2.66000009
   19.54611015  165.37699890    3.46000004    2.67000008
   19.55027771  155.95899963    3.48000002    2.67000008
   19.55360985  153.53399658    3.61999989    2.66000009
   19.55472183  164.60099792    3.70000005    2.66000009
   19.55694389  155.39900208    3.95000005    2.66000009
   19.56027794  161.82499695    3.97000003    2.66000009
   19.56333351  160.31700134    3.97000003    2.66000009
   19.56666756  158.64599609    3.91000009    2.66000009
   19.57000160  147.80799866    3.86999989    2.66000009
   19.57305717  152.17100525    3.80999994    2.67000008
   19.57638931  150.29200745    3.89000010    2.66000009
   19.57972336  152.94799805    3.97000003    2.66000009
   19.58277893  150.31799316    3.93000007    2.67000008
   19.58889008  150.31799316    4.07999992    2.67000008
   19.59305573  157.67100525    4.90999985    2.67000008
   19.59638977  151.90800476    4.90999985    2.67000008
   19.59972191  148.06900024    4.90999985    2.67000008
   19.60277748  148.57299805    4.90999985    2.67000008
   19.60611153  150.41400146    4.90999985    2.67000008
   19.60916710  165.77600098    4.90999985    2.57999992
   19.61250114  150.37500000    4.90999985    2.48000002
   19.61583328  156.87399292    4.90999985    2.59999990
   19.61888885  146.88600159    4.90999985    2.69000006
   19.62138939  143.39199829    4.90999985    2.69000006
   19.62249947  144.65100098    4.90999985    2.64000010
   19.62583351  180.18800354    4.90999985    1.85000002
   19.63194466  180.18800354    4.90999985    1.05999994
   19.63611031   -1.00000000    4.90999985    2.00000000
   19.63916588   -1.00000000    4.90999985    0.25000000
   19.64249992   -1.00000000    4.90999985    0.46000001
   19.64555550   -1.00000000    4.90999985    0.25000000
   19.64888954  147.96200562    4.90999985    0.51999998
   19.65222168  233.66600037    4.90999985    1.25000000
   19.65472221  178.07000732    4.90999985    1.51999998
   19.65583229   -1.00000000    4.90999985    1.75000000
   19.65916634   -1.00000000    4.90999985    0.55000001
   19.66222191   -1.00000000    4.90999985    0.47999999
   19.66555595   -1.00000000    4.90999985    0.76999998
   19.66888809   -1.00000000    4.90999985    0.67000002
   19.67472076   -1.00000000    4.90999985    2.71000004
   19.67888832  155.00399780    4.80999994    2.69000006
   19.68194389  162.07400513    2.51999998    2.66000009
   19.68527603  158.91400146    2.48000002    2.66000009
   19.68805504  166.11999512    2.46000004    2.66000009
   19.68888855  148.99499512    2.46000004    2.64000010
   19.69222069  154.71400452    2.48000002    2.64000010
   19.69527626  155.44099426    2.51999998    2.66000009
   19.69861031  163.29100037    2.53999996    2.66000009
   19.70194435  165.46400452    2.59999990    2.64000010
   19.70499992  168.11999512    2.66000009    2.64000010
   19.70833397  164.66999817    2.73000002    2.64000010
   19.71166801  150.84599304    2.84999990    2.64000010
   19.71750069  150.84599304    3.00000000    2.64000010
   19.72166634  167.22500610    3.18000007    2.64000010
   19.72500038  154.61700439    3.20000005    2.64000010
   19.72805595  157.13000488    3.26999998    2.64000010
   19.73139000  166.93299866    3.32999992    2.64000010
   19.73472214  157.62399292    3.30999994    2.64000010
   19.73777771  158.82499695    3.34999990    2.61999989
   19.74111176  159.13000488    3.45000005    2.64000010
   19.74416733  161.67799377    3.50000000    2.61999989
   19.74749947  158.04200745    3.64000010    2.64000010
   19.75083351  160.20199585    3.75000000    2.64000010
   19.75388908  168.27699280    3.82999992    2.64000010
   19.75472260  161.58099365    3.86999989    2.64000010
   19.76027870  161.58099365    3.97000003    2.64000010
   19.76444435  158.11599731    4.01999998    2.64000010
   19.76777840  161.95100403    4.03999996    2.61999989
   19.77083397  153.86099243    4.07999992    2.61999989
   19.77416611  158.86900330    4.11999989    2.61999989
   19.77750015  149.38200378    4.15999985    2.61999989
   19.78055573  166.24800110    4.13999987    2.61999989
   19.78388786  163.59100342    4.05999994    2.61999989
   19.78722191  165.89999390    4.13999987    2.59999990
   19.78805542  164.50999451    4.13999987    2.59999990
   19.79055595  167.57600403    4.11999989    2.64000010
   19.79388809  167.32499695    4.11999989    2.64000010
   19.79722214  166.88800049    4.23999977    2.64000010
   19.80333328  166.88800049    4.40999985    2.61999989
   19.80722237  147.60000610    4.40999985    2.61999989
   19.81055450  161.42100525    4.44999981    2.61999989
