    HOUR (UT)   FLARE FACTOR    SKY TESTER    SUN TESTER
   11.70166683   -1.00000000   -1.00000000   -1.00000000
   12.71583271  167.29400635    4.90999985    2.50000000
   12.71916580  165.84599304    4.90999985    2.50000000
   12.72222137  159.96699524    4.90999985    2.50000000
   12.72555542  164.39100647    4.90999985    2.50000000
   12.72888851  161.37699890    4.90999985    2.50000000
   12.73194408  167.34800720    4.90999985    2.48000002
   12.73527813  166.96099854    4.90999985    2.50000000
   12.73833370  164.78599548    4.90999985    2.50000000
   12.74166679  174.99600220    4.90999985    2.50000000
   12.74499989  172.96699524    4.90999985    2.50000000
   12.74805546  173.65400696    4.90999985    2.50000000
   12.74916649  162.01600647    4.90999985    2.51999998
   12.75194454  173.47999573    4.90999985    2.51999998
   12.75500011  163.98899841    4.90999985    2.51999998
   12.75833321  163.67399597    4.90999985    2.51999998
   12.76138878  160.10600281    4.90999985    2.25000000
   12.76472187  228.27999878    4.90999985    1.28999996
   12.76805496  169.23800659    4.90999985    1.85000002
   12.77111053  181.50799561    4.90999985    2.34999990
   12.77444458  165.68800354    4.90999985    2.39000010
   12.77777767  164.87699890    4.90999985    2.51999998
   12.78083324  176.24800110    4.90999985    2.53999996
   12.78249931  165.36199951    4.90999985    2.53999996
   12.78472233  166.55000305    4.90999985    2.51999998
   12.78777790  182.66499329    4.90999985    2.42000008
   12.79111195  114.29799652    4.90999985    2.30999994
   12.79416752   -1.00000000    4.90999985    1.01999998
   12.79750061   96.73690033    4.90999985    1.03999996
   12.80083370  165.60800171    4.90999985    1.86000001
   12.80388927  184.72399902    4.90999985    2.50000000
   12.80722237  161.64199829    4.90999985    2.34999990
   12.81055546  168.04299927    4.90999985    2.53999996
   12.81361103  167.31500244    4.90999985    2.51999998
   12.81583309  168.39900208    4.90999985    2.51999998
   12.81750011  165.18299866    4.90999985    2.53999996
   12.82055569  166.44000244    4.90999985    2.53999996
   12.82388878  162.31599426    4.90999985    2.51999998
   12.82694435  165.72200012    4.90999985    2.51999998
   12.83027744  171.11900330    4.90999985    2.53999996
   12.83361053  168.03799438    4.90999985    2.53999996
   12.83666611  167.39999390    4.90999985    2.53999996
   12.84000015  167.50999451    4.90999985    2.53999996
   12.84333324  166.47900391    4.90999985    2.51999998
   12.84638882  159.97200012    4.90999985    2.53999996
   12.84916592  153.55700684    4.90999985    2.51999998
   12.85027790  160.02200317    4.90999985    2.53999996
   12.85333347  158.76899719    4.90999985    2.53999996
   12.85666752  162.54800415    4.90999985    2.53999996
   12.85972214  161.98500061    4.90999985    2.53999996
   12.86305618  159.66600037    4.90999985    2.53999996
   12.86638927  154.34100342    4.90999985    2.53999996
   12.86944485  154.47700500    4.90999985    2.53999996
   12.87277794  157.37500000    4.90999985    2.53999996
   12.87611103  162.89100647    4.90999985    2.53999996
   12.87916660  156.16600037    4.90999985    2.51999998
   12.88249969  165.35600281    4.90999985    2.53999996
   12.88277817  164.62300110    4.90999985    2.53999996
   12.88611126  157.30999756    4.90999985    2.53999996
   12.88944435  162.23399353    4.90999985    2.53999996
   12.89249992  158.58500671    4.90999985    2.53999996
   12.89583302  161.47900391    4.90999985    2.53999996
   12.89916611  159.84599304    4.90999985    2.53999996
   12.90222168  169.10299683    4.90999985    2.55999994
   12.90555477  158.98399353    4.90999985    2.53999996
   12.90861034  166.25100708    4.90999985    2.53999996
   12.91194439  166.05900574    4.90999985    2.53999996
   12.91527748  155.59500122    4.90999985    2.53999996
   12.91583252  167.17900085    4.90999985    2.53999996
   12.91861153  156.80900574    4.90999985    2.53999996
   12.92194462  163.21899414    4.90999985    2.53999996
   12.92527771  157.95300293    4.90999985    2.55999994
   12.92833328  160.72200012    4.90999985    2.53999996
   12.93166733  158.64900208    4.90999985    2.53999996
   12.93500042  158.73599243    4.90999985    2.55999994
   12.93805599  154.75599670    4.90999985    2.55999994
   12.94138908  161.29800415    4.90999985    2.55999994
   12.94444466  159.74000549    4.90999985    2.55999994
   12.94777775  155.89300537    4.90999985    2.53999996
   12.94916630  163.89599609    4.90999985    2.53999996
   12.95138836  158.92300415    4.90999985    2.53999996
   12.95472240  166.60499573    4.90999985    2.55999994
   12.95805550  167.50799561    4.90999985    2.55999994
   12.96111107  159.85699463    4.90999985    2.55999994
   12.96444416  167.50500488    4.90999985    2.55999994
   12.96777725  162.75700378    4.90999985    2.53999996
   12.97083282  161.12600708    4.90999985    2.53999996
   12.97416592  164.18400574    4.90999985    2.55999994
   12.97722149  156.36799622    4.90999985    2.55999994
   12.98055553  162.56300354    4.90999985    2.55999994
   12.98249912  158.82400513    4.90999985    2.55999994
   12.98444462  162.89999390    4.90999985    2.57999992
   12.98750019  168.36199951    4.90999985    2.55999994
   12.99083328  163.41099548    4.90999985    2.55999994
   12.99388885  161.30400085    4.90999985    2.55999994
   12.99722290  162.02600098    4.90999985    2.55999994
   13.00055599  168.83500671    4.90999985    2.53999996
   13.00361156  168.46600342    4.90999985    2.55999994
   13.00694466  173.24299622    4.90999985    2.55999994
   13.01027775  164.14399719    4.90999985    2.55999994
   13.01333332  162.34599304    4.90999985    2.55999994
   13.01583290  159.12300110    4.90999985    2.55999994
   13.01722240  166.56399536    4.90999985    2.55999994
   13.02027798  162.36099243    4.90999985    2.53999996
   13.02361107  162.90100098    4.90999985    2.51999998
   13.02666664  158.96699524    4.90999985    2.53999996
   13.02999973  153.27699280    4.90999985    2.55999994
   13.03333378  163.24499512    4.90999985    2.55999994
   13.03638935  169.38900757    4.90999985    2.53999996
   13.03972244  169.27400208    4.90999985    2.51999998
   13.04305553  161.65400696    4.90999985    2.55999994
   13.04611111  163.32899475    4.90999985    2.55999994
   13.04916668  163.28399658    4.90999985    2.57999992
   13.05000019  165.99499512    4.90999985    2.55999994
   13.05305576  168.15299988    4.90999985    2.55999994
   13.05638885  169.38200378    4.90999985    2.55999994
   13.05944443  163.89799500    4.90999985    2.55999994
   13.06277752  163.18899536    4.90999985    2.57999992
   13.06611156  173.67100525    4.90999985    2.55999994
   13.06916618  169.13299561    4.90999985    2.55999994
   13.07250023  167.66400146    4.90999985    2.57999992
   13.07583332  163.10699463    4.90999985    2.55999994
   13.07888889  163.02299500    4.90999985    2.57999992
   13.08222198  164.50500488    4.90999985    2.57999992
   13.08277798  166.01300049    4.90999985    2.57999992
   13.08583260  166.33999634    4.90999985    2.57999992
   13.08916664  168.29600525    4.90999985    2.57999992
   13.09249973  167.48399353    4.90999985    2.57999992
   13.09555531  169.09100342    4.90999985    2.57999992
   13.09888840  164.22099304    4.90999985    2.57999992
   13.10222244  167.94200134    4.90999985    2.55999994
   13.10527802  162.37199402    4.90999985    2.57999992
   13.10861111  163.68400574    4.90999985    2.57999992
   13.11166668  169.91000366    4.90999985    2.55999994
   13.11500072  174.04299927    4.90999985    2.57999992
   13.11611176  168.17700195    4.90999985    2.57999992
   13.11861134  165.36599731    4.90999985    2.57999992
   13.12194443  162.70199585    4.90999985    2.59999990
   13.12527752  161.89599609    4.90999985    2.57999992
   13.12861156  173.23699951    4.90999985    2.57999992
   13.13166714  166.87300110    4.90999985    2.57999992
   13.13500023  161.55799866    4.90999985    2.57999992
   13.13805580  170.28999329    4.90999985    2.57999992
   13.14138889  167.41799927    4.90999985    2.57999992
   13.14472198  170.67999268    4.90999985    2.59999990
   13.14777756  164.46000671    4.90999985    2.57999992
   13.14944458  165.85600281    4.90999985    2.57999992
   13.15138817  165.02400208    4.90999985    2.55999994
   13.15472221  173.01400757    4.90999985    2.59999990
   13.15805531  163.86900330    4.90999985    2.59999990
   13.16111088  174.95199585    4.90999985    2.57999992
   13.16444397  156.08900452    4.90999985    2.57999992
   13.16777802  168.93200684    4.90999985    2.57999992
   13.17083359  167.56500244    4.90999985    2.59999990
   13.17416668  165.99000549    4.90999985    2.59999990
   13.17722225  162.33099365    4.90999985    2.59999990
   13.18055630  160.14999390    4.90999985    2.57999992
   13.18277836  158.65899658    4.90999985    2.57999992
   13.18416691  149.67399597    4.90999985    2.59999990
   13.18750000  174.63600159    4.90999985    2.59999990
   13.19083309  169.98800659    4.90999985    2.59999990
   13.19388866  172.18899536    4.90999985    2.59999990
   13.19722271  170.55400085    4.90999985    2.57999992
   13.20055580  163.91999817    4.90999985    2.57999992
   13.20361137  166.02600098    4.90999985    2.57999992
   13.20694447  168.97399902    4.90999985    2.59999990
   13.21000004  158.85499573    4.90999985    2.59999990
   13.21333313  166.04499817    4.90999985    2.59999990
   13.21611118  166.62899780    4.90999985    2.57999992
   13.21694374  166.76100159    4.90999985    2.59999990
   13.22027779  163.30400085    4.90999985    2.57999992
   13.22361088  170.71400452    4.90999985    2.59999990
   13.22666645  162.05299377    4.90999985    2.61999989
   13.22999954  160.47300720    4.90999985    2.59999990
   13.23333359  220.38000488    4.90999985    2.59999990
   13.23638916  165.58999634    4.90999985    2.59999990
   13.23972225  187.35499573    4.90999985    2.59999990
   13.24277782  194.74200439    4.90999985    2.59999990
   13.24611092  202.68699646    4.90999985    2.59999990
   13.24944496  185.35499573    4.90999985    2.59999990
   13.24972248  185.35899353    4.90999985    2.59999990
   13.25305557  200.19900513    4.90999985    2.59999990
   13.25638866  235.45399475    4.90999985    2.59999990
   13.25944424  264.40899658    4.90999985    2.61999989
   13.26277733  306.35800171    4.90999985    2.59999990
   13.26611137  280.69601440    4.90999985    2.59999990
   13.26916599  234.94700623    4.90999985    2.59999990
   13.27250004  221.39700317    4.90999985    2.59999990
   13.27555561  263.25799561    4.90999985    2.59999990
   13.27888870  257.70498657    4.90999985    2.59999990
   13.28222179  322.77398682    4.90999985    2.59999990
   13.28277779  264.65301514    4.90999985    2.59999990
   13.28555584  368.60400391    4.90999985    2.61999989
   13.28888893  302.38699341    4.90999985    2.59999990
   13.29222298  299.99600220    4.90999985    2.59999990
   13.29527855  279.20498657    4.90999985    2.59999990
   13.29861164  277.81500244    4.90999985    2.59999990
   13.30194473  251.07299805    4.90999985    2.61999989
   13.30500031  314.75299072    4.90999985    2.61999989
   13.30833340  294.04000854    4.90999985    2.59999990
   13.31138897  276.76300049    4.90999985    2.59999990
   13.31472206  291.12100220    4.90999985    2.59999990
   13.31611156  267.38500977    4.90999985    2.59999990
   13.31861115  263.57101440    4.90999985    2.61999989
   13.32166672  269.73999023    4.90999985    2.61999989
   13.32499981  266.74700928    4.90999985    2.61999989
   13.32805538  252.32299805    4.90999985    2.61999989
   13.33138847  247.25399780    4.90999985    2.59999990
   13.33472157  229.87899780    4.90999985    2.61999989
   13.33777714  248.80099487    4.90999985    2.61999989
   13.34111118  245.28500366    4.90999985    2.61999989
   13.34444427  198.24299622    4.90999985    2.61999989
   13.34749985  199.38000488    4.90999985    2.61999989
   13.34944439  220.62199402    4.90999985    2.59999990
   13.35138893  241.67599487    4.90999985    2.61999989
   13.35444450  206.78999329    4.90999985    2.59999990
   13.35777855  203.79200745    4.90999985    2.61999989
   13.36083412  183.22399902    4.90999985    2.61999989
   13.36416721  173.91999817    4.90999985    2.59999990
   13.36750031  196.19999695    4.90999985    2.59999990
   13.37055588  168.41499329    4.90999985    2.59999990
   13.37388897  179.35499573    4.90999985    2.59999990
   13.37722206  159.91000366    4.90999985    2.61999989
   13.38027763  166.81599426    4.90999985    2.61999989
   13.38277817  170.44200134    4.90999985    2.61999989
   13.38416672  170.24299622    4.90999985    2.61999989
   13.38722229  168.38499451    4.90999985    2.61999989
   13.39055538  173.05499268    4.90999985    2.61999989
   13.39361095  168.16400146    4.90999985    2.61999989
   13.39694405  172.01600647    4.90999985    2.61999989
   13.40027714  173.97599792    4.90999985    2.64000010
   13.40333271  165.84100342    4.90999985    2.64000010
   13.40666676  165.52099609    4.90999985    2.61999989
   13.40999985  164.01800537    4.90999985    2.61999989
   13.41305542  161.92500305    4.90999985    2.61999989
   13.41611099  163.65600586    4.90999985    2.61999989
   13.41694450  160.11599731    4.90999985    2.61999989
   13.42000008  161.84899902    4.90999985    2.61999989
   13.42333412  164.25599670    4.90999985    2.64000010
   13.42638874  161.80700684    4.90999985    2.61999989
   13.42972279  158.62300110    4.90999985    2.61999989
   13.43305588  166.95500183    4.90999985    2.61999989
   13.43611145  162.16600037    4.90999985    2.64000010
   13.43944454  161.11599731    4.90999985    2.61999989
   13.44250011  166.19299316    4.90999985    2.64000010
   13.44583321  167.03700256    4.90999985    2.64000010
   13.44916630  169.60400391    4.90999985    2.61999989
   13.44972229  166.96099854    4.90999985    2.61999989
   13.45277786  168.79100037    4.90999985    2.64000010
   13.45611095  169.00700378    4.90999985    2.64000010
   13.45944405  166.19500732    4.90999985    2.61999989
   13.46249962  162.52499390    4.90999985    2.64000010
   13.46583271  172.13699341    4.90999985    2.64000010
   13.46916580  174.40899658    4.90999985    2.64000010
   13.47222137  170.27400208    4.90999985    2.64000010
   13.47555542  172.86199951    4.90999985    2.64000010
   13.47888851  175.76300049    4.90999985    2.64000010
   13.48194408  173.73899841    4.90999985    2.64000010
   13.48305511  171.52299500    4.90999985    2.64000010
   13.48555565  166.09899902    4.90999985    2.64000010
   13.48888874  172.30499268    4.90999985    2.64000010
   13.49222279  160.64700317    4.90999985    2.64000010
   13.49527836  175.73399353    4.90999985    2.64000010
   13.49861145  171.64100647    4.90999985    2.64000010
   13.50166702  163.72099304    4.90999985    2.64000010
   13.50500011  174.02000427    4.90999985    2.64000010
   13.50833321  173.02099609    4.90999985    2.64000010
   13.51138878  170.09500122    4.90999985    2.64000010
   13.51472187  169.47300720    4.90999985    2.64000010
   13.51638889  173.54699707    4.90999985    2.64000010
   13.51833344  169.73100281    4.90999985    2.64000010
   13.52166653  167.03399658    4.90999985    2.64000010
   13.52499962  162.81900024    4.90999985    2.61999989
   13.52805519  163.17900085    4.90999985    2.64000010
   13.53138828  166.16499329    4.90999985    2.64000010
   13.53444481  175.19900513    4.90999985    2.64000010
   13.53777790  161.39100647    4.90999985    2.64000010
   13.54111195  163.50700378    4.90999985    2.64000010
   13.54416752  169.66999817    4.90999985    2.66000009
   13.54750061  167.62399292    4.90999985    2.64000010
   13.54972267  172.02000427    4.90999985    2.64000010
   13.55111122  167.47999573    4.90999985    2.64000010
   13.55444431  169.25100708    4.90999985    2.64000010
   13.55777836  168.61199951    4.90999985    2.64000010
   13.56083393  173.02499390    4.90999985    2.61999989
   13.56416702  175.35499573    4.90999985    2.64000010
   13.56722260  173.12500000    4.90999985    2.66000009
   13.57055569  172.97000122    4.90999985    2.64000010
   13.57388878  171.61900330    4.90999985    2.64000010
   13.57694435  175.58500671    4.90999985    2.64000010
   13.58027744  175.04200745    4.90999985    2.64000010
   13.58305550  173.20100403    4.90999985    2.64000010
   13.58388901  175.42700195    4.90999985    2.64000010
   13.58722210  177.42399597    4.90999985    2.64000010
   13.59055519  172.77200317    4.90999985    2.64000010
   13.59361076  171.44900513    4.90999985    2.66000009
   13.59694386  168.65299988    4.90999985    2.64000010
   13.60027790  173.50300598    4.90999985    2.66000009
   13.60333347  174.21699524    4.90999985    2.66000009
   13.60666752  177.25700378    4.90999985    2.64000010
   13.60972214  176.38600159    4.90999985    2.66000009
   13.61305618  190.82400513    4.90999985    2.66000009
   13.61638927  187.86199951    4.90999985    2.66000009
   13.61666679  178.89599609    4.90999985    2.66000009
   13.61999989  182.69799805    4.90999985    2.66000009
   13.62333393  182.60200500    4.90999985    2.66000009
   13.62638855  186.57600403    4.90999985    2.64000010
   13.62972260  187.52600098    4.90999985    2.64000010
   13.63277817  184.41499329    4.90999985    2.64000010
   13.63611126  184.68600464    4.90999985    2.66000009
   13.63944435  193.72700500    4.90999985    2.66000009
   13.64249992  182.08399963    4.90999985    2.66000009
   13.64583302  203.45199585    4.90999985    2.66000009
   13.64916611  201.88200378    4.90999985    2.66000009
   13.64972210  189.65699768    4.90999985    2.66000009
   13.65249920  200.93400574    4.90999985    2.66000009
   13.65583324  197.58599854    4.90999985    2.59999990
   13.65916634  211.31300354    4.90999985    2.67000008
   13.66222191  211.00500488    4.90999985    2.66000009
   13.66555500  205.43099976    4.90999985    2.66000009
   13.66888905  207.21800232    4.90999985    2.66000009
   13.67194462  211.67500305    4.90999985    2.66000009
   13.67527771  226.46000671    4.90999985    2.61999989
   13.67833328  230.19799805    4.90999985    2.64000010
   13.68166733  227.35699463    4.90999985    2.66000009
   13.68305588  223.89100647    4.90999985    2.66000009
   13.68527794  221.71499634    4.90999985    2.66000009
   13.68861103  234.55599976    4.90999985    2.66000009
   13.69194412  221.48100281    4.90999985    2.67000008
   13.69499969  240.38900757    4.90999985    2.66000009
   13.69833374  258.80801392    4.90999985    2.67000008
   13.70166683  266.93200684    4.90999985    2.67000008
   13.70472240  245.92300415    4.90999985    2.66000009
   13.70805550  251.71600342    4.90999985    2.66000009
   13.71111107  241.18800354    4.90999985    2.67000008
   13.71444416  269.10198975    4.90999985    2.66000009
   13.73249912  345.92498779    4.90999985    2.64000010
   13.73416710  324.88198853    4.90999985    2.66000009
   13.73750019  406.08401489    4.90999985    2.66000009
   17.48750114  406.08401489    4.90999985    2.66000009
   17.48777771  240.38900757    4.90999985    2.66000009
   17.48777771  258.80801392    4.90999985    2.67000008
   17.48805618  266.93200684    4.90999985    2.67000008
   17.48805618  245.92300415    4.90999985    2.66000009
   17.48805618  251.71600342    4.90999985    2.66000009
   17.48833275  241.18800354    4.90999985    2.67000008
   17.48833275  269.10198975    4.90999985    2.66000009
   17.48833275  324.88198853    4.90999985    2.66000009
   17.50472260   -1.00000000   -1.00000000   -1.00000000
   17.50833321   -1.00000000   -1.00000000   -1.00000000
   17.52916718  153.05099487    4.90999985    2.64000010
   17.53555489  149.92799377    4.90999985    2.59999990
   17.53861046  282.17898560    4.90999985    2.13000011
   17.54194450  265.48400879    4.90999985    1.78999996
   17.54500008  203.83799744    4.90999985    1.98000002
   17.54833221  160.52799988    4.90999985    2.07999992
   17.55166626  149.70399475    4.90999985    2.34999990
   17.55472183  149.12300110    4.90999985    2.61999989
   17.55805397  143.33399963    4.90999985    2.53999996
   17.56138802  153.18499756    4.90999985    2.61999989
   17.56250000  156.22000122    4.90999985    2.61999989
   17.56472206  155.88900757    4.90999985    2.67000008
   17.56805611  174.42500305    4.90999985    2.57999992
   17.57139015  156.90600586    4.90999985    2.46000004
   17.57444572  161.73599243    4.90999985    2.55999994
   17.57777786  156.13000488    4.90999985    2.40000010
   17.58083344  154.77600098    4.90999985    2.42000008
   17.58416748  187.59700012    4.90999985    2.61999989
   17.58750153  227.18099976    4.90999985    2.19000006
   17.59055710  161.09800720    4.90999985    2.46000004
   17.59388924  162.23199463    4.90999985    2.61999989
   17.59583473  195.21000671    4.90999985    2.59999990
   17.59749985  241.19400024    4.90999985    2.44000006
   17.60083389  262.96099854    4.90999985    2.03999996
   17.60416794  190.50000000    4.90999985    2.30999994
   17.60722351  216.37600708    4.90999985    2.03999996
   17.61055565  186.83599854    4.90999985    2.07999992
   17.61361122  150.93099976    4.90999985    2.39000010
   17.61694527  161.52799988    4.90999985    2.55999994
   17.62027740  174.93099976    4.90999985    2.55999994
   17.62333298  155.42199707    4.90999985    2.57999992
   17.62666702  156.25500488    4.90999985    2.57999992
   17.62916756  156.65299988    4.90999985    2.61999989
   17.63027763  168.48800659    4.90999985    2.61999989
   17.63361168  158.46899414    4.90999985    2.61999989
   17.63694382  148.24800110    4.90999985    2.61999989
   17.63999939  161.12199402    4.90999985    2.59999990
   17.64333344  159.97399902    4.90999985    2.61999989
   17.64638901  157.96699524    4.90999985    2.61999989
   17.64972115  156.15800476    4.90999985    2.61999989
   17.65305519  154.87399292    4.90999985    2.61999989
   17.65611076  157.69999695    4.90999985    2.59999990
   17.65944481  158.75399780    4.90999985    2.61999989
   17.66250038  160.19299316    4.90999985    2.59999990
   17.66305542  155.83799744    4.90999985    2.59999990
   17.66638756  158.55599976    4.90999985    2.57999992
   17.66972160  158.19000244    4.90999985    2.59999990
   17.67277718  160.94000244    4.90999985    2.59999990
   17.67611122  156.59100342    4.90999985    2.59999990
   17.67916679  160.16499329    4.90999985    2.59999990
   17.68249893  154.11799622    4.90999985    2.61999989
   17.68583298  167.54499817    4.90999985    2.61999989
   17.68888855  154.81300354    4.90999985    2.61999989
   17.69222069  150.10200500    4.90999985    2.61999989
   17.69555473  151.07499695    4.90999985    2.61999989
   17.69610977  148.19900513    4.90999985    2.61999989
   17.69916534  156.73500061    4.90999985    2.61999989
   17.70250130  154.20199585    4.90999985    2.61999989
   17.70583344  152.25599670    4.90999985    2.61999989
   17.70888901  160.41099548    4.90999985    2.61999989
   17.71222305  158.18499756    4.90999985    2.61999989
   17.71555710  149.76300049    4.90999985    2.61999989
   17.71861076  154.08900452    4.90999985    2.59999990
   17.72194481  156.04200745    4.90999985    2.59999990
   17.72500038  151.00100708    4.90999985    2.61999989
   17.72833443  155.29100037    4.90999985    2.61999989
   17.72944450  153.56700134    4.90999985    2.61999989
   17.73194504  148.59800720    4.90999985    2.61999989
   17.73527718  155.74000549    4.90999985    2.61999989
   17.73861122  154.89300537    4.90999985    2.61999989
   17.74166679  152.97200012    4.90999985    2.61999989
   17.74500084  159.41999817    4.90999985    2.61999989
   17.74833298  151.00599670    4.90999985    2.64000010
   17.75138855  156.12199402    4.90999985    2.61999989
   17.75472260  152.41000366    4.90999985    2.64000010
   17.75777817  147.53700256    4.90999985    2.64000010
   17.76111031  153.53500366    4.90999985    2.64000010
   17.76277733  148.93200684    4.90999985    2.61999989
   17.76472282  153.73300171    4.90999985    2.64000010
   17.76805496  152.27000427    4.90999985    2.61999989
   17.77138901  155.78500366    4.90999985    2.64000010
   17.77444458  151.32499695    4.90999985    2.61999989
   17.77777672  123.29900360    4.90999985    2.64000010
   17.78111076  156.91799927    4.90999985    2.61999989
   17.78416634  156.22700500    4.90999985    2.61999989
   17.78750038  151.85099792    4.90999985    2.64000010
   17.79083252  144.22900391    4.90999985    2.61999989
   17.79388809  146.97000122    4.90999985    2.64000010
   17.79611015  150.45899963    4.90999985    2.61999989
   17.79749870  152.69999695    4.90999985    2.61999989
   17.80083275  159.00399780    4.90999985    2.61999989
   17.80416679  159.93600464    4.90999985    2.61999989
   17.80722237  170.68099976    4.90999985    2.61999989
   17.81055450  166.04800415    4.90999985    2.59999990
   17.81388855  173.64999390    4.90999985    2.59999990
   17.81694603  183.63400269    4.90999985    2.59999990
   17.82027817  194.19900513    4.90999985    2.59999990
   17.82333374  205.19200134    4.90999985    2.61999989
   17.82666779  216.20199585    4.90999985    2.59999990
   17.82944489  229.22599792    4.90999985    2.61999989
   17.83027840  239.31900024    4.90999985    2.61999989
   17.83361244  273.49301147    4.90999985    2.61999989
   17.83694458  294.03201294    4.90999985    2.61999989
   17.84000015  332.41299438    4.90999985    2.61999989
   17.84222221  358.88900757    4.90999985    2.61999989
   17.84333420  373.27099609    4.90999985    2.61999989
   17.84472275  368.79501343    4.90999985    2.61999989
   17.84611130  334.33999634    4.90999985    2.61999989
   17.84749985  274.91598511    4.90999985    2.59999990
   17.84889030  191.22900391    4.90999985    2.59999990
   17.84916687  239.31900024    4.90999985    2.61999989
   17.84916687  273.49301147    4.90999985    2.61999989
   17.84916687  294.03201294    4.90999985    2.61999989
   17.84944534  332.41299438    4.90999985    2.61999989
   17.84944534  173.64999390    4.90999985    2.59999990
   17.84972191  183.63400269    4.90999985    2.59999990
   17.84972191  194.19900513    4.90999985    2.59999990
   17.84972191  205.19200134    4.90999985    2.61999989
   17.85000038  216.20199585    4.90999985    2.59999990
   17.85055542  149.94999695    4.90999985    2.59999990
   17.85361099  104.61199951    4.90999985    2.61999989
   17.85694504   99.86430359    4.90999985    2.61999989
   17.86027908   94.76380157    4.90999985    2.61999989
   17.86333466   84.77249908    4.90999985    2.59999990
   17.86972237   84.77249908    4.90999985    2.61999989
   17.87388992   -1.00000000    4.90999985    2.61999989
   17.87722206   -1.00000000    4.90999985    2.61999989
   17.88027763   -1.00000000    4.90999985    2.59999990
   17.88416672   -1.00000000    4.90999985    2.61999989
   17.88722229   -1.00000000    4.90999985    2.59999990
   17.89055634   -1.00000000    4.90999985    2.59999990
   17.89361191   -1.00000000    4.90999985    2.59999990
   17.89694405   -1.00000000    4.90999985    2.57999992
   17.90027809   -1.00000000    4.90999985    2.59999990
   17.90333366   -1.00000000    4.90999985    2.57999992
   17.90666580   -1.00000000    4.90999985    2.57999992
   17.91666603   -1.00000000    4.90999985    2.55999994
   17.92000008   -1.00000000    4.90999985    2.53999996
   17.92305565   -1.00000000    4.90999985    2.55999994
   17.92638779   -1.00000000    4.90999985    2.57999992
   17.92972183   -1.00000000    4.90999985    2.57999992
   17.93277740   -1.00000000    4.90999985    2.55999994
   17.93610954   -1.00000000    4.90999985    2.55999994
   17.93916512   -1.00000000    4.90999985    2.55999994
   17.94249916   -1.00000000    4.90999985    2.55999994
   17.94583321   -1.00000000    4.90999985    2.55999994
   17.94888878   -1.00000000    4.90999985    2.55999994
   17.95944595   -1.00000000    4.90999985    2.50000000
   17.96277809   -1.00000000    4.90999985    2.51999998
   17.96611214   -1.00000000    4.90999985    2.51999998
   17.96916771   -1.00000000    4.90999985    2.50000000
   17.97249985   -1.00000000    4.90999985    2.50000000
   17.97555542   -1.00000000    4.90999985    2.46000004
   17.97888947   -1.00000000    4.90999985    2.46000004
   17.98222351   -1.00000000    4.90999985    2.48000002
   17.98583412   -1.00000000    4.90999985    2.48000002
   17.98888969   -1.00000000    4.90999985    2.46000004
   17.99222183   -1.00000000    4.90999985    2.46000004
   18.00250053   -1.00000000    4.90999985    2.46000004
   18.00555611   -1.00000000    4.90999985    2.46000004
   18.00888824   -1.00000000    4.90999985    2.46000004
   18.01194382   -1.00000000    4.90999985    2.44000006
   18.01527786   -1.00000000    4.90999985    2.48000002
   18.01888847   -1.00000000    4.90999985    2.48000002
   18.02194405   -1.00000000    4.90999985    2.48000002
   18.02527809   -1.00000000    4.90999985    2.44000006
   18.02861023   -1.00000000    4.90999985    2.46000004
   18.03166580   -1.00000000    4.90999985    2.42000008
   18.03499985   -1.00000000    4.90999985    2.42000008
   18.04527664   -1.00000000    4.90999985    2.42000008
   18.04833221   -1.00000000    4.90999985    2.34999990
   18.05222130   -1.00000000    4.90999985    2.34999990
   18.05527687   -1.00000000    4.90999985    2.34999990
   18.05861092  354.53698730    4.90999985    2.34999990
   18.06055450  363.68499756    4.90999985    2.32999992
   18.06194305  339.09799194    4.90999985    2.28999996
   18.06333351  284.99600220    4.90999985    2.28999996
   18.06472206  238.36700439    4.90999985    2.26999998
   18.06472206   -1.00000000    4.90999985    2.44000006
   18.06499863   -1.00000000    4.90999985    2.46000004
   18.06499863   -1.00000000    4.90999985    2.42000008
   18.06499863   -1.00000000    4.90999985    2.42000008
   18.06527710   -1.00000000    4.90999985    2.42000008
   18.06527710   -1.00000000    4.90999985    2.34999990
   18.06555557   -1.00000000    4.90999985    2.34999990
   18.06555557   -1.00000000    4.90999985    2.34999990
   18.06555557  354.53698730    4.90999985    2.34999990
   18.06611061  153.65800476    4.90999985    2.25000000
   18.06944466  110.40899658    4.90999985    2.21000004
   18.07277870  101.40799713    4.90999985    2.21000004
   18.07583427  122.88099670    4.90999985    2.15000010
   18.07916832  124.97899628    4.90999985    2.21000004
   18.08555603  124.97899628    4.90999985    2.15000010
   18.08972359  117.61000061    4.90999985    2.15000010
   18.09277916  105.96099854    4.90999985    2.17000008
   18.09611130  105.37200165    4.90999985    2.17000008
   18.09861183   96.99839783    4.90999985    2.15000010
   18.10000038  106.41899872    4.90999985    2.15000010
   18.10305595  102.11799622    4.90999985    2.17000008
   18.10639000   86.92870331    4.90999985    2.15000010
   18.10944557   87.54779816    4.90999985    2.13000011
   18.11277771  103.37400055    4.90999985    2.19000006
   18.11611176  102.11000061    4.90999985    2.19000006
   18.11916733  105.09300232    4.90999985    2.19000006
   18.12249947  102.67700195    4.90999985    2.19000006
   18.12833405  102.67700195    4.90999985    2.19000006
   18.13249969  108.90899658    4.90999985    2.19000006
   18.13583374  117.55699921    4.90999985    2.17000008
   18.13888931  123.11199951    4.90999985    2.17000008
   18.14222145  155.74699402    4.90999985    2.23000002
   18.14555550  230.38400269    4.90999985    2.23000002
   18.14861107  185.60499573    4.90999985    2.25000000
   18.15194321  297.06600952    4.90999985    2.25000000
   18.15499878  271.32299805    4.90999985    2.25000000
   18.15833282  317.40399170    4.90999985    2.25000000
   18.16027832  311.56298828    4.90999985    2.26999998
   18.16166687  330.69400024    4.90999985    2.26999998
   18.16305542  325.14199829    4.90999985    2.26999998
   18.16444397  311.81201172    4.90999985    2.26999998
   18.16583252  337.50900269    4.90999985    2.26999998
   18.16722107  323.40301514    4.90999985    2.26999998
   18.16860962  326.59100342    4.90999985    2.28999996
   18.17000008  332.22601318    4.90999985    2.28999996
   18.17138863  300.80499268    4.90999985    2.30999994
   18.17277718  316.05599976    4.90999985    2.30999994
   18.17416573  321.96600342    4.90999985    2.30999994
   18.17555428  325.39898682    4.90999985    2.30999994
   18.17694473  335.29800415    4.90999985    2.30999994
   18.17833328  312.20800781    4.90999985    2.30999994
   18.17972183  315.73599243    4.90999985    2.30999994
   18.18111038  299.42199707    4.90999985    2.30999994
   18.18249893  311.19900513    4.90999985    2.30999994
   18.18388748  332.89801025    4.90999985    2.30999994
   18.18527603  330.52099609    4.90999985    2.28999996
   18.18666649  340.38198853    4.90999985    2.26999998
   18.18805504  313.60400391    4.90999985    2.28999996
   18.18944359  321.97698975    4.90999985    2.30999994
   18.19083214  297.99099731    4.90999985    2.30999994
   18.19222069  314.14801025    4.90999985    2.30999994
   18.19361115  325.84600830    4.90999985    2.32999992
   18.19499969  302.57199097    4.90999985    2.32999992
   18.19638824  280.22601318    4.90999985    2.34999990
   18.19777679  299.82000732    4.90999985    2.36999989
   18.19916534  308.79800415    4.90999985    2.34999990
   18.20055580  294.58801270    4.90999985    2.32999992
   18.20194435  318.14599609    4.90999985    2.30999994
   18.20333481  303.53100586    4.90999985    2.32999992
   18.20472336  326.85598755    4.90999985    2.30999994
   18.20611191  341.84698486    4.90999985    2.30999994
   18.20750046  320.87899780    4.90999985    2.30999994
   18.20888901  337.96899414    4.90999985    2.28999996
   18.21027946  232.77799988    4.90999985    2.28999996
   18.21027946  123.11199951    4.90999985    2.17000008
   18.21055603  155.74699402    4.90999985    2.23000002
   18.21055603  230.38400269    4.90999985    2.23000002
   18.21083450  185.60499573    4.90999985    2.25000000
   18.21083450  297.06600952    4.90999985    2.25000000
   18.21083450  271.32299805    4.90999985    2.25000000
   18.21111107  317.40399170    4.90999985    2.25000000
   18.21111107  108.90899658    4.90999985    2.19000006
   18.21111107  117.55699921    4.90999985    2.17000008
   18.21166801  151.53500366    4.90999985    2.21000004
   18.21500015  263.15100098    4.90999985    2.17000008
   18.21833420  119.73899841    4.90999985    2.19000006
   18.22138977  140.39199829    4.90999985    2.17000008
   18.22472191  273.05899048    4.90999985    2.21000004
   18.23111153  273.05899048    4.90999985    2.23000002
   18.23527718  309.35000610    4.90999985    2.23000002
   18.23722267  245.76899719    4.90999985    2.21000004
   18.23750114  151.53500366    4.90999985    2.21000004
   18.23750114  263.15100098    4.90999985    2.17000008
   18.23750114  119.73899841    4.90999985    2.19000006
   18.23777771  140.39199829    4.90999985    2.17000008
   18.23777771  273.05899048    4.90999985    2.21000004
   18.23805618  309.35000610    4.90999985    2.23000002
   18.23972321  239.85499573    4.90999985    2.21000004
   18.24277878  180.52900696    4.90999985    2.19000006
   18.24611092  123.56700134    4.90999985    2.15000010
   18.24916649  113.23100281    4.90999985    2.13000011
   18.25250053  108.29199982    4.90999985    2.13000011
   18.25805473  108.29199982    4.90999985    2.19000006
   18.26222229  235.16799927    4.90999985    2.25000000
   18.26555634  161.86399841    4.90999985    2.21000004
   18.26861000  149.30799866    4.90999985    2.19000006
   18.27111053  122.05699921    4.90999985    2.17000008
   18.27249908  129.28500366    4.90999985    2.17000008
   18.27583313  113.23999786    4.90999985    2.15000010
   18.27888870  123.71700287    4.90999985    2.11999989
   18.28222275  193.51600647    4.90999985    2.17000008
   18.28527641  330.52899170    4.90999985    2.23000002
   18.28750038  280.05700684    4.90999985    2.26999998
   18.28861046  226.37899780    4.90999985    2.25000000
   18.28888893  113.23999786    4.90999985    2.15000010
   18.28888893  123.71700287    4.90999985    2.11999989
   18.28916550  193.51600647    4.90999985    2.17000008
   18.28916550  330.52899170    4.90999985    2.23000002
   18.28916550  108.29199982    4.90999985    2.13000011
   18.28944397  235.16799927    4.90999985    2.25000000
   18.28944397  161.86399841    4.90999985    2.21000004
   18.28944397  149.30799866    4.90999985    2.19000006
   18.28972244  129.28500366    4.90999985    2.17000008
   18.29083252  327.41699219    4.90999985    2.23000002
   18.29277802  332.32901001    4.90999985    2.28999996
   18.29416656  336.79199219    4.90999985    2.30999994
   18.29555511  325.70901489    4.90999985    2.30999994
   18.29694366  302.63699341    4.90999985    2.30999994
   18.29833221  307.67098999    4.90999985    2.30999994
   18.29972076  254.79100037    4.90999985    2.30999994
   18.30111122  211.63900757    4.90999985    2.30999994
   18.30111122  327.41699219    4.90999985    2.23000002
   18.30166626  200.88099670    4.90999985    2.30999994
   18.30499840  163.91099548    4.90999985    2.28999996
   18.30833244  129.53900146    4.90999985    2.30999994
   18.31138802  106.73500061    4.90999985    2.28999996
   18.31472206  119.90499878    4.90999985    2.30999994
   18.31777954  114.86900330    4.90999985    2.34999990
   18.32194519  114.86900330    4.90999985    2.34999990
   18.32611275  108.68499756    4.90999985    2.34999990
   18.32944489   97.94300079    4.90999985    2.36999989
   18.33250046   58.79940033    4.90999985    2.36999989
   18.33500099   87.80529785    4.90999985    2.15000010
   18.33611107   97.42620087    4.90999985    2.28999996
   18.33944511   76.53199768    4.90999985    2.36999989
   18.34277916   41.03419876    4.90999985    2.36999989
   18.34583473   68.78130341    4.90999985    2.42000008
   18.34916687   -1.00000000   -1.00000000   -1.00000000
   18.35250092   -1.00000000    4.90999985    2.46000004
   18.35555649   -1.00000000    4.90999985    2.44000006
   18.35888863   -1.00000000    4.90999985    2.42000008
   18.36499977   -1.00000000    4.90999985    2.46000004
   18.36888885   -1.00000000    4.90999985    2.44000006
   18.37222290   -1.00000000    4.90999985    2.46000004
   18.37555504   -1.00000000    4.90999985    2.44000006
   18.37861061   -1.00000000    4.90999985    2.44000006
   18.38194466   -1.00000000    4.90999985    2.44000006
   18.38527679   -1.00000000    4.90999985    2.46000004
   18.38833237   -1.00000000    4.90999985    2.46000004
   18.39166641   -1.00000000    4.90999985    2.50000000
   18.39500046   -1.00000000    4.90999985    2.46000004
   18.39805603   -1.00000000    4.90999985    2.46000004
   18.40138817   -1.00000000    4.90999985    2.46000004
   18.41166687   -1.00000000    4.90999985    2.42000008
   18.41499901   -1.00000000    4.90999985    2.42000008
   18.41833305   -1.00000000    4.90999985    2.42000008
   18.42138863   -1.00000000    4.90999985    2.40000010
   18.42472076   -1.00000000    4.90999985    2.44000006
   18.42805481   -1.00000000    4.90999985    2.46000004
   18.43111038   -1.00000000    4.90999985    2.46000004
   18.43444443   -1.00000000    4.90999985    2.48000002
   18.43777657   -1.00000000    4.90999985    2.51999998
   18.44111061   -1.00000000    4.90999985    2.51999998
   18.44416618   -1.00000000    4.90999985    2.50000000
   18.45472336   -1.00000000    4.90999985    2.51999998
   18.45777893   -1.00000000    4.90999985    2.53999996
   18.46111107   -1.00000000    4.90999985    2.53999996
   18.46444511   -1.00000000    4.90999985    2.51999998
   18.46750069   -1.00000000    4.90999985    2.51999998
   18.47111130   -1.00000000    4.90999985    2.53999996
   18.47444534   -1.00000000    4.90999985    2.51999998
   18.47750092   -1.00000000    4.90999985    2.51999998
   18.48083305   -1.00000000    4.90999985    2.51999998
   18.48416710   -1.00000000    4.90999985    2.53999996
   18.48722267   -1.00000000    4.90999985    2.53999996
   18.49749947   -1.00000000    4.90999985    2.59999990
   18.50083351   -1.00000000    4.90999985    2.50000000
   18.50416756   -1.00000000    4.90999985    2.17000008
   18.50749969   -1.00000000    4.90999985    1.28999996
   18.51055527   -1.00000000    4.90999985    2.30999994
   18.51388931   -1.00000000    4.90999985    2.05999994
   18.51722145   -1.00000000    4.90999985    2.44000006
   18.52027702   -1.00000000    4.90999985    2.40000010
   18.52361107   -1.00000000    4.90999985    2.48000002
   18.52666664   -1.00000000    4.90999985    2.51999998
   18.55388832   -1.00000000    4.90999985    2.11999989
   18.55694389   -1.00000000    4.90999985    2.25000000
   18.56027794   -1.00000000    4.90999985    2.51999998
   18.56333351   -1.00000000    4.90999985    2.51999998
   18.56666756   -1.00000000    4.90999985    2.55999994
   18.57000160   -1.00000000    4.90999985    2.51999998
   18.57305717   -1.00000000    4.90999985    2.46000004
   18.57638931   -1.00000000    4.90999985    2.30999994
   18.57972336   -1.00000000    4.90999985    1.80999994
   18.58305550   -1.00000000    4.90999985    1.46000004
   18.58638954   -1.00000000    4.90999985    1.19000006
   18.59666824   -1.00000000    4.90999985    0.50000000
   18.59972191   -1.00000000    4.90999985    0.50000000
   18.60305595   -1.00000000    4.90999985    0.40000001
   18.60611153   -1.00000000    4.90999985    0.38000000
   18.60944557   -1.00000000    4.90999985    0.38000000
   18.61277771   -1.00000000    4.90999985    0.38000000
   18.61611176   -1.00000000    4.90999985    0.34000000
   18.61944389   -1.00000000    4.90999985    0.31999999
   18.62249947   -1.00000000    4.90999985    0.31999999
   18.62583351   -1.00000000    4.90999985    0.30000001
   18.62916756   -1.00000000    4.90999985    0.28000000
   18.63944435   -1.00000000    4.90999985    0.28000000
   18.64249992   -1.00000000    4.90999985    0.28000000
   18.64583397   -1.00000000    4.90999985    0.28000000
   18.64944458   -1.00000000    4.90999985    0.34000000
   18.65277672   -1.00000000    4.90999985    0.34000000
   18.65583229   -1.00000000    4.90999985    0.34000000
   18.65916634   -1.00000000    4.90999985    0.30000001
   18.66250038   -1.00000000    4.90999985    0.28000000
   18.66555595   -1.00000000    4.90999985    0.30000001
   18.66888809   -1.00000000    4.90999985    0.28000000
   18.67194366   -1.00000000    4.90999985    0.25999999
   18.68222237   -1.00000000    4.90999985    0.25999999
   18.68555450   -1.00000000    4.90999985    0.25000000
   18.68861008   -1.00000000    4.90999985    0.23000000
   18.69194412   -1.00000000    4.90999985    0.23000000
   18.69527626   -1.00000000    4.90999985    0.23000000
   18.69833183   -1.00000000    4.90999985    0.23000000
   18.70166779   -1.00000000    4.90999985    0.23000000
   18.70472336   -1.00000000    4.90999985    0.25000000
   18.70805550   -1.00000000    4.90999985    0.28000000
   18.71138954   -1.00000000    4.90999985    0.34000000
   18.71472359   -1.00000000    4.90999985    0.40000001
   18.72500038   -1.00000000    4.90999985    0.58999997
   18.72833443   -1.00000000    4.90999985    0.69000000
   18.73166656   -1.00000000    4.90999985    0.83999997
   18.73472214   -1.00000000    4.90999985    1.07000005
   18.73805618   -1.00000000    4.90999985    1.07000005
   18.74111176   -1.00000000    4.90999985    1.09000003
   18.74444389   -1.00000000    4.90999985    0.89999998
   18.74805641   -1.00000000    4.90999985    0.80000001
   18.75138855   -1.00000000    4.90999985    0.79000002
   18.75444412   -1.00000000    4.90999985    0.80000001
   18.75777817   -1.00000000    4.90999985    0.63000000
   18.76805496   -1.00000000    4.90999985    0.51999998
   18.77111053   -1.00000000    4.90999985    0.61000001
   18.77444458   -1.00000000    4.90999985    0.70999998
   18.77750015   -1.00000000    4.90999985    0.79000002
   18.78111076   -1.00000000    4.90999985    0.67000002
   18.78444481   -1.00000000    4.90999985    0.63000000
   18.78750038   -1.00000000    4.90999985    0.64999998
   18.79083252   -1.00000000    4.90999985    0.63000000
   18.79416656   -1.00000000    4.90999985    0.63000000
   18.79722214   -1.00000000    4.90999985    0.64999998
   18.80055428   -1.00000000    4.90999985    0.67000002
   18.81083298   -1.00000000    4.90999985    0.73000002
   18.81388855   -1.00000000    4.90999985    0.70999998
   18.81777954   -1.00000000    4.90999985    0.81999999
   18.82083511   -1.00000000    4.90999985    0.98000002
   18.82416725   -1.00000000    4.90999985    0.98000002
   18.82750130   -1.00000000    4.90999985    0.94000000
   18.83055687   -1.00000000    4.90999985    0.88000000
   18.83388901   -1.00000000    4.90999985    0.86000001
   18.83694458   -1.00000000    4.90999985    0.94000000
   18.84027863   -1.00000000    4.90999985    1.13000000
   18.84361267   -1.00000000    4.90999985    1.16999996
   18.85361099   -1.00000000    4.90999985    1.14999998
   18.85694504   -1.00000000    4.90999985    1.11000001
   18.86000061   -1.00000000    4.90999985    1.09000003
   18.86333466   -1.00000000    4.90999985    1.00000000
   18.86666679   -1.00000000    4.90999985    1.05999994
   18.86972237   -1.00000000    4.90999985    1.03999996
   18.87305641   -1.00000000    4.90999985    1.03999996
   18.87611198   -1.00000000    4.90999985    1.05999994
   18.87944412   -1.00000000    4.90999985    1.07000005
   18.88305473   -1.00000000    4.90999985    1.03999996
   18.88611031   -1.00000000    4.90999985    1.01999998
   18.89638901   -1.00000000    4.90999985    0.95999998
   18.89972115   -1.00000000    4.90999985    0.98000002
   18.90305519   -1.00000000    4.90999985    1.00000000
   18.90611076   -1.00000000    4.90999985    0.94000000
   18.90944481   -1.00000000    4.90999985    0.98000002
   18.91250038   -1.00000000    4.90999985    1.00000000
   18.91638756   -1.00000000    4.90999985    1.09000003
   18.91944313   -1.00000000    4.90999985    1.13000000
   18.92277718   -1.00000000    4.90999985    1.11000001
   18.92611122   -1.00000000    4.90999985    1.26999998
   18.92916679   -1.00000000    4.90999985    1.41999996
   18.93916512   -1.00000000    4.90999985    1.61000001
   18.94249916   -1.00000000    4.90999985    1.64999998
   18.94583321   -1.00000000    4.90999985    1.69000006
   18.94944382   -1.00000000    4.90999985    1.64999998
   18.95277786   -1.00000000    4.90999985    1.64999998
   18.95583344   -1.00000000    4.90999985    1.78999996
   18.95916748   -1.00000000    4.90999985    1.83000004
   18.96222305   -1.00000000    4.90999985    1.85000002
   18.96555710   -1.00000000    4.90999985    1.83000004
   18.96888924   -1.00000000    4.90999985    1.85000002
   18.97194481   -1.00000000    4.90999985    1.91999996
   18.98222351   -1.00000000    4.90999985    2.13000011
   18.98527718   -1.00000000    4.90999985    2.13000011
   18.98861122   -1.00000000    4.90999985    2.17000008
   18.99194527   -1.00000000    4.90999985    2.17000008
   18.99500084   -1.00000000    4.90999985    2.15000010
   18.99833298   -1.00000000    4.90999985    2.25000000
   19.00166702   -1.00000000    4.90999985    2.26999998
   19.00472260   -1.00000000    4.90999985    2.26999998
   19.00805473   -1.00000000    4.90999985    2.21000004
   19.01111031   -1.00000000    4.90999985    2.03999996
   19.01444435   -1.00000000    4.90999985    1.86000001
   19.02499962   -1.00000000    4.90999985    1.63000000
   19.02833366   -1.00000000    4.90999985    1.39999998
   19.03138924   -1.00000000    4.90999985    1.48000002
   19.03472137   -1.00000000    4.90999985    1.60000002
   19.03805542   -1.00000000    4.90999985    1.83000004
   19.04111099   -1.00000000    4.90999985    1.83000004
   19.04444313   -1.00000000    4.90999985    1.96000004
   19.04749870   -1.00000000    4.90999985    1.88000000
   19.05111122   -1.00000000    4.90999985    1.73000002
   19.05444336   -1.00000000    4.90999985    1.61000001
   19.05777740   -1.00000000    4.90999985    1.73000002
   19.06777954   -1.00000000    4.90999985    1.58000004
   19.07111168   -1.00000000    4.90999985    1.30999994
   19.07444572   -1.00000000    4.90999985    0.34000000
   19.07750130   -1.00000000    3.73000002    0.09000000
   19.08083344   -1.00000000    1.46000004    0.05000000
   19.08416748   -1.00000000    4.90999985    0.07000000
   19.08750153   -1.00000000    4.90999985    0.09000000
   19.09083366   -1.00000000    4.90999985    0.13000000
   19.09388924   -1.00000000    4.90999985    0.15000001
   19.09722328   -1.00000000    4.90999985    0.11000000
   19.10027885   -1.00000000    4.90999985    0.15000001
   19.11083412   -1.00000000    4.90999985    0.15000001
   19.11388969   -1.00000000    4.90999985    0.15000001
   19.11750031   -1.00000000    4.90999985    0.19000000
   19.12083435   -1.00000000    4.90999985    1.03999996
   19.12416649   -1.00000000    4.90999985    1.51999998
   19.12722206   -1.00000000    4.90999985    1.75000000
   19.13055611   -1.00000000    4.90999985    1.71000004
   19.13361168   -1.00000000    4.90999985    1.86000001
   19.13694382   -1.00000000    4.90999985    1.83000004
   19.14027786   -1.00000000    4.90999985    1.58000004
   19.14333344   -1.00000000    4.90999985    1.96000004
   19.15361023   -1.00000000    4.90999985    1.96000004
   19.15666580   -1.00000000    4.90999985    2.00000000
   19.15999985   -1.00000000    4.90999985    2.00000000
   19.16333389   -1.00000000    4.90999985    2.00000000
   19.16638756   -1.00000000    4.90999985    1.88000000
   19.16972160   -1.00000000    4.90999985    1.96000004
   19.17305565   -1.00000000    4.90999985    1.96000004
   19.17611122   -1.00000000    4.90999985    1.96000004
   19.17944336   -1.00000000    4.90999985    1.98000002
   19.18277740   -1.00000000    4.90999985    1.94000006
   19.18610954   -1.00000000    4.90999985    1.91999996
   19.19638824   -1.00000000    4.90999985    1.96000004
   19.19972038   -1.00000000    4.90999985    1.98000002
   19.20277786   -1.00000000    4.90999985    2.00000000
   19.20611191   -1.00000000    4.90999985    2.01999998
   19.20944595   -1.00000000    4.90999985    2.01999998
   19.21250153   -1.00000000    4.90999985    2.03999996
   19.21611214   -1.00000000    4.90999985    2.03999996
   19.21944427   -1.00000000    4.90999985    2.05999994
   19.22277832   -1.00000000    4.90999985    2.05999994
   19.22583389   -1.00000000    4.90999985    2.01999998
   19.22916794   -1.00000000    4.90999985    2.00000000
   19.23916626   -1.00000000    4.90999985    1.91999996
   19.24250031   -1.00000000    4.90999985    2.05999994
   19.24583435   -1.00000000    4.90999985    2.07999992
   19.24916649   -1.00000000    4.90999985    2.07999992
   19.25250053   -1.00000000    4.90999985    2.07999992
   19.25583267   -1.00000000    4.90999985    2.07999992
   19.25888824   -1.00000000    4.90999985    2.05999994
   19.26222229   -1.00000000    4.90999985    2.05999994
   19.26555634   -1.00000000    4.90999985    2.05999994
   19.26861000   -1.00000000    4.90999985    2.07999992
   19.27194405   -1.00000000    4.90999985    2.07999992
   19.28222275   -1.00000000    4.90999985    2.00000000
   19.28527641   -1.00000000    4.90999985    1.96000004
   19.28861046   -1.00000000    4.90999985    1.94000006
   19.29166603   -1.00000000    4.90999985    1.89999998
   19.29500008   -1.00000000    4.90999985    1.86000001
   19.29833221   -1.00000000    4.90999985    1.83000004
   19.30138779   -1.00000000    4.90999985    1.71000004
   19.30472183   -1.00000000    4.90999985    1.61000001
   19.30805397   -1.00000000    4.90999985    1.55999994
   19.31110954   -1.00000000    4.90999985    1.38000000
   19.31444359   -1.00000000    4.90999985    1.28999996
   19.32500076   -1.00000000    4.90999985    0.73000002
   19.32805634   -1.00000000    4.90999985    1.01999998
   19.33139038   -1.00000000    4.90999985    0.98000002
   19.33472252   -1.00000000    4.90999985    1.05999994
   19.33777809   -1.00000000    4.90999985    1.07000005
   19.34111214   -1.00000000    4.90999985    1.05999994
   19.34444427   -1.00000000    4.90999985    1.03999996
   19.34749985   -1.00000000    4.90999985    1.07000005
   19.35083389   -1.00000000    4.90999985    1.05999994
   19.35416794   -1.00000000    4.90999985    1.05999994
   19.35750008   -1.00000000    4.90999985    1.03999996
   19.36777878   -1.00000000    4.90999985    0.98000002
   19.37111092   -1.00000000    4.90999985    0.95999998
   19.37416649   -1.00000000    4.90999985    0.94000000
   19.37750053   -1.00000000    4.90999985    0.88000000
   19.38083267   -1.00000000    4.90999985    0.75000000
   19.38416672   -1.00000000    4.90999985    0.70999998
   19.38750076   -1.00000000    4.90999985    0.76999998
   19.39083290   -1.00000000    4.90999985    0.76999998
   19.39388847   -1.00000000    4.90999985    0.79000002
   19.39722252   -1.00000000    4.90999985    0.76999998
   19.40055466   -1.00000000    4.90999985    0.75000000
   19.41055489   -1.00000000    4.90999985    0.81999999
   19.41388893   -1.00000000    4.90999985    0.83999997
   19.41749954   -1.00000000    4.90999985    0.83999997
   19.42055511   -1.00000000    4.90999985    0.69000000
   19.42388916   -1.00000000    4.90999985    0.38000000
   19.42694473   -1.00000000    4.90999985    0.36000001
   19.43027687   -1.00000000    4.90999985    0.46000001
   19.43361092   -1.00000000    4.90999985    0.79000002
   19.43666649   -1.00000000    4.90999985    0.83999997
   19.43999863   -1.00000000    4.90999985    0.81999999
   19.44333267   -1.00000000    4.90999985    0.80000001
   19.45361137   -1.00000000    4.90999985    0.83999997
   19.45666695   -1.00000000    4.90999985    0.80000001
   19.46000099   -1.00000000    4.90999985    0.83999997
   19.46305656   -1.00000000    4.90999985    0.88000000
   19.46638870   -1.00000000    4.90999985    0.89999998
   19.46972275   -1.00000000    4.90999985    0.95999998
   19.47277832   -1.00000000    4.90999985    1.01999998
   19.47611237   -1.00000000    4.90999985    1.07000005
   19.47944450   -1.00000000    4.90999985    1.16999996
   19.48277855   -1.00000000    4.90999985    1.19000006
   19.48611069   -1.00000000    4.90999985    1.16999996
   19.49638939   -1.00000000    4.90999985    1.13000000
   19.49944496   -1.00000000    4.90999985    1.07000005
   19.50277710   -1.00000000    4.90999985    1.03999996
   19.50611115   -1.00000000    4.90999985    1.03999996
   19.50916672   -1.00000000    4.90999985    1.05999994
   19.51250076   -1.00000000    4.90999985    1.05999994
   19.51583290   -1.00000000    4.90999985    1.07000005
   19.51916695   -1.00000000    4.90999985    1.14999998
   19.52249908   -1.00000000    4.90999985    1.14999998
   19.52555466   -1.00000000    4.90999985    1.09000003
   19.52888870   -1.00000000    4.90999985    1.11000001
   19.53916550   -1.00000000    4.90999985    1.25000000
   19.54249954   -1.00000000    4.90999985    1.26999998
   19.54555511   -1.00000000    4.90999985    1.25000000
   19.56555557   -1.00000000    4.90999985    1.61000001
   19.56861115   -1.00000000    4.90999985    1.64999998
   19.57194519   -1.00000000    4.90999985    1.60000002
   19.58222389   -1.00000000    4.90999985    1.55999994
   19.58527756   -1.00000000    4.90999985    1.48000002
   19.58861160   -1.00000000    4.90999985    1.48000002
   19.59194565   -1.00000000    4.90999985    1.53999996
   19.59500122   -1.00000000    4.90999985    1.58000004
   19.59861183   -1.00000000    4.90999985    1.55999994
   19.60194397   -1.00000000    4.90999985    1.63000000
   19.60527802   -1.00000000    4.90999985    1.78999996
   19.60833359   -1.00000000    4.90999985    1.80999994
   19.61166763   -1.00000000    4.90999985    1.80999994
   19.61499977   -1.00000000    4.90999985    1.88000000
   19.62500000   -1.00000000    4.90999985    1.91999996
   19.62805557   -1.00000000    4.90999985    1.83000004
   19.63166618   -1.00000000    4.90999985    1.86000001
   19.63500023   -1.00000000    4.90999985    1.33000004
   19.63833237   -1.00000000    4.90999985    0.81999999
   19.64138794   -1.00000000    4.90999985    0.70999998
   19.64472198   -1.00000000    4.90999985    0.76999998
   19.64805603   -1.00000000    4.90999985    1.00000000
   19.65111160   -1.00000000    4.90999985    1.25000000
   19.65444374   -1.00000000    4.90999985    1.39999998
   19.65749931   -1.00000000    4.90999985    1.83000004
   19.66777802   -1.00000000    4.90999985    2.32999992
   19.67111015   -1.00000000    4.90999985    2.30999994
   19.67416573   -1.00000000    4.90999985    2.26999998
   19.67749977   -1.00000000    4.90999985    2.23000002
   19.68083191   -1.00000000    4.90999985    2.13000011
   19.68388748   -1.00000000    4.90999985    2.13000011
   19.68722153   -1.00000000    4.90999985    2.15000010
   19.69055557   -1.00000000    4.90999985    2.21000004
   19.69361115   -1.00000000    4.90999985    2.21000004
   19.69722176   -1.00000000    4.90999985    2.19000006
   19.70055580   -1.00000000    4.90999985    2.17000008
   19.71055603   -1.00000000    4.90999985    2.17000008
   19.71389008   -1.00000000    4.90999985    2.25000000
   19.71722221   -1.00000000    4.90999985    2.25000000
   19.72027779   -1.00000000    4.90999985    2.25000000
   19.72361183   -1.00000000    4.90999985    2.26999998
   19.72694588   -1.00000000    4.90999985    2.28999996
   19.73027802   -1.00000000    4.90999985    2.32999992
   19.73361206   -1.00000000    4.90999985    2.30999994
   19.73694420   -1.00000000    4.90999985    2.30999994
   19.73999977   -1.00000000    4.90999985    2.30999994
   19.74333382   -1.00000000    4.90999985    2.34999990
   19.75361061   -1.00000000    4.90999985    2.42000008
   19.75666618   -1.00000000    4.90999985    2.40000010
   19.76000023   -1.00000000    4.90999985    2.36999989
   19.76333427   -1.00000000    4.90999985    2.30999994
   19.76666641   -1.00000000    4.90999985    2.25000000
   19.77000046   -1.00000000    4.90999985    2.26999998
   19.77305603   -1.00000000    4.90999985    2.17000008
   19.77638817   -1.00000000    4.90999985    2.25000000
   19.77972221   -1.00000000    4.90999985    2.39000010
   19.78277779   -1.00000000    4.90999985    2.40000010
   19.78610992   -1.00000000    4.90999985    2.40000010
   19.79666710   -1.00000000    4.90999985    2.48000002
   19.79999924   -1.00000000    4.90999985    2.40000010
   19.80333328   -1.00000000    4.90999985    2.44000006
   19.80638885   -1.00000000    4.90999985    2.44000006
   19.80972099   -1.00000000    4.90999985    2.39000010
   19.81305504   -1.00000000    4.90999985    2.34999990
   19.81611061   -1.00000000    4.90999985    2.34999990
   19.81944466   -1.00000000    4.90999985    2.34999990
   19.82250023   -1.00000000    4.90999985    2.34999990
   19.82583427   -1.00000000    4.90999985    2.32999992
   19.82916832   -1.00000000    4.90999985    2.32999992
   19.83916664   -1.00000000    4.90999985    2.36999989
   19.84250069   -1.00000000    4.90999985    2.39000010
   19.84555626   -1.00000000    4.90999985    2.34999990
   19.84889030   -1.00000000    4.90999985    2.36999989
   19.85222244   -1.00000000    4.90999985    2.42000008
   19.85527802   -1.00000000    4.90999985    2.39000010
   19.85861206   -1.00000000    4.90999985    2.36999989
   19.86194420   -1.00000000    4.90999985    2.36999989
   19.86555672   -1.00000000    4.90999985    2.36999989
   19.86861038   -1.00000000    4.90999985    2.42000008
   19.87194443   -1.00000000    4.90999985    2.28999996
   19.88194466   -1.00000000    4.90999985    2.17000008
   19.88527679   -1.00000000    4.90999985    2.09999990
   19.88861084   -1.00000000    4.90999985    2.21000004
   19.89166641   -1.00000000    4.90999985    2.17000008
   19.89500046   -1.00000000    4.90999985    2.19000006
   19.89861107   -1.00000000    4.90999985    2.30999994
   19.90166664   -1.00000000    4.90999985    2.30999994
   19.90499878   -1.00000000    4.90999985    2.32999992
   19.90805435   -1.00000000    4.90999985    2.34999990
   19.91138840   -1.00000000    4.90999985    2.32999992
   19.91472244   -1.00000000    4.90999985    2.34999990
   19.92499924   -1.00000000    4.90999985    2.42000008
   19.92805481   -1.00000000    4.90999985    2.40000010
   19.93166542   -1.00000000    4.90999985    2.40000010
   19.93472099   -1.00000000    4.90999985    2.42000008
   19.93805504   -1.00000000    4.90999985    2.40000010
   19.94111061   -1.00000000    4.90999985    2.39000010
   19.94444275   -1.00000000    4.90999985    2.32999992
   19.94777679   -1.00000000    4.90999985    2.30999994
   19.95083427   -1.00000000    4.90999985    2.30999994
   19.95416832   -1.00000000    4.90999985    2.32999992
   19.95750046   -1.00000000    4.90999985    2.32999992
   19.96777916   -1.00000000    4.90999985    2.34999990
   19.97083473   -1.00000000    4.90999985    2.39000010
   19.97416687   -1.00000000    4.90999985    2.46000004
   19.97750092   -1.00000000    4.90999985    2.48000002
   19.98055649   -1.00000000    4.90999985    2.50000000
   19.98388863   -1.00000000    4.90999985    2.50000000
   19.98722267   -1.00000000    4.90999985    2.50000000
   19.99027824   -1.00000000    4.90999985    2.48000002
   19.99361229   -1.00000000    4.90999985    2.48000002
   19.99694443   -1.00000000    4.90999985    2.48000002
   20.00027847   -1.00000000    4.90999985    2.42000008
   20.01055527   -1.00000000    4.90999985    2.40000010
   20.01388931   -1.00000000    4.90999985    2.39000010
   20.01694489   -1.00000000    4.90999985    2.40000010
   20.02027702   -1.00000000    4.90999985    2.42000008
   20.02361107   -1.00000000    4.90999985    2.46000004
   20.02666664   -1.00000000    4.90999985    2.40000010
   20.03027725   -1.00000000    4.90999985    2.42000008
   20.03333282   -1.00000000    4.90999985    2.40000010
   20.03666687   -1.00000000    4.90999985    2.42000008
   20.03972244   -1.00000000    4.90999985    2.42000008
   20.04305458   -1.00000000    4.90999985    2.40000010
   20.05333328   -1.00000000    4.90999985    2.34999990
   20.05666542   -1.00000000    4.90999985    2.39000010
   20.05999947   -1.00000000    4.90999985    2.42000008
   20.06361008   -1.00000000    4.90999985    2.39000010
   20.06666756   -1.00000000    4.90999985    2.39000010
   20.07000160   -1.00000000    4.90999985    2.36999989
   20.07305717   -1.00000000    4.90999985    2.42000008
   20.07638931   -1.00000000    4.90999985    2.42000008
   20.07972336   -1.00000000    4.90999985    2.40000010
   20.08277893   -1.00000000    4.90999985    2.40000010
   20.08611107   -1.00000000    4.90999985    2.42000008
   20.09638977   -1.00000000    4.90999985    2.42000008
   20.10000038   -1.00000000    4.90999985    2.44000006
   20.10333443   -1.00000000    4.90999985    2.44000006
   20.10639000   -1.00000000    4.90999985    2.44000006
   20.10972214   -1.00000000    4.90999985    2.46000004
   20.11277771   -1.00000000    4.90999985    2.44000006
   20.11611176   -1.00000000    4.90999985    2.46000004
   20.11944389   -1.00000000    4.90999985    2.46000004
   20.12249947   -1.00000000    4.90999985    2.46000004
   20.12583351   -1.00000000    4.90999985    2.46000004
   20.12888908   -1.00000000    4.90999985    2.48000002
   20.13916588   -1.00000000    4.90999985    2.48000002
   20.14249992   -1.00000000    4.90999985    2.46000004
   20.14555550   -1.00000000    4.90999985    2.48000002
   20.14888954   -1.00000000    4.90999985    2.46000004
   20.15194321   -1.00000000    4.90999985    2.46000004
   20.15527725   -1.00000000    4.90999985    2.44000006
   20.15861130   -1.00000000    4.90999985    2.46000004
   20.16166687   -1.00000000    4.90999985    2.46000004
   20.16527748   -1.00000000    4.90999985    2.48000002
   20.16860962   -1.00000000    4.90999985    2.46000004
   20.17166519   -1.00000000    4.90999985    2.46000004
   20.17805481   -1.00000000    4.90999985    2.46000004
   20.18194389  164.36399841    4.90999985    2.40000010
   20.18527603  167.78900146    4.90999985    2.46000004
   20.18861008  165.42399597    4.90999985    2.46000004
   20.19166565  154.22300720    4.90999985    2.46000004
   20.19499969  165.70799255    4.90999985    2.46000004
   20.19694328  142.98599243    4.90999985    2.46000004
   20.19861031  152.50000000    4.90999985    2.46000004
   20.20194435  172.35899353    4.90999985    2.46000004
   20.20527840  168.04299927    4.90999985    2.46000004
   20.20833397  166.79699707    4.90999985    2.46000004
   20.21166801  161.79800415    4.90999985    2.46000004
   20.21472359  167.06300354    4.90999985    2.46000004
   20.22083473  167.06300354    4.90999985    2.46000004
   20.22500038  165.17999268    4.90999985    2.46000004
   20.22805595  161.42500305    4.90999985    2.46000004
   20.23027802  158.33000183    4.90999985    2.46000004
   20.23166656  157.37199402    4.90999985    2.46000004
   20.23500061  160.05799866    4.90999985    2.46000004
   20.23833275  160.02400208    4.90999985    2.46000004
   20.24138832  156.00799561    4.90999985    2.46000004
   20.24472237  160.76100159    4.90999985    2.46000004
   20.24777794  159.59199524    4.90999985    2.46000004
   20.25111198  168.61399841    4.90999985    2.46000004
   20.25444412  159.95700073    4.90999985    2.46000004
   20.25749969  160.15899658    4.90999985    2.46000004
   20.26361084  160.15899658    4.90999985    2.44000006
   20.26777840  151.69500732    4.90999985    2.42000008
   20.27111053  152.63600159    4.90999985    2.46000004
   20.27416611  166.09100342    4.90999985    2.46000004
   20.27750015  161.40100098    4.90999985    2.44000006
   20.28055573  154.46299744    4.90999985    2.46000004
   20.28388786  164.32699585    4.90999985    2.48000002
   20.28722191  164.35800171    4.90999985    2.48000002
   20.29027748  104.73899841    4.90999985    2.46000004
   20.29361153  190.67700195    4.90999985    2.00000000
   20.29694366  257.85198975    4.90999985    2.00000000
   20.29722214  313.39498901    4.90999985    2.00000000
   20.29944420  102.58100128    4.90999985    1.55999994
   20.29944420  152.63600159    4.90999985    2.46000004
   20.29944420  166.09100342    4.90999985    2.46000004
   20.29972076  161.40100098    4.90999985    2.44000006
   20.29972076  154.46299744    4.90999985    2.46000004
   20.29972076  164.32699585    4.90999985    2.48000002
   20.29999924  164.35800171    4.90999985    2.48000002
   20.29999924  104.73899841    4.90999985    2.46000004
   20.30027771  190.67700195    4.90999985    2.00000000
   20.30222130  162.37199402    4.90999985    1.55999994
   20.30527687  175.18099976    4.90999985    2.03999996
   20.30861092  163.37899780    4.90999985    2.42000008
   20.31194305  162.03599548    4.90999985    2.46000004
   20.31499863  158.82099915    4.90999985    2.46000004
   20.32027817  158.82099915    4.90999985    2.46000004
   20.32416725  154.03100586    4.90999985    2.46000004
   20.32750130  162.21499634    4.90999985    2.46000004
   20.33083344  165.59199524    4.90999985    2.46000004
   20.33333397  162.41499329    4.90999985    2.46000004
   20.33444595  151.64900208    4.90999985    2.46000004
   20.33777809  158.82699585    4.90999985    2.48000002
   20.34111214  160.88400269    4.90999985    2.46000004
   20.34416771  166.56300354    4.90999985    2.46000004
   20.34749985  164.12899780    4.90999985    2.46000004
   20.35055542  155.97500610    4.90999985    2.46000004
   20.35388947  152.89799500    4.90999985    2.46000004
   20.35722351  163.47700500    4.90999985    2.46000004
   20.36305618  163.47700500    4.90999985    2.46000004
   20.36722183  155.05700684    4.90999985    2.46000004
   20.37027740  154.71699524    4.90999985    2.46000004
   20.37361145  150.01699829    4.90999985    2.46000004
   20.37694550  160.49600220    4.90999985    2.46000004
   20.38000107  150.90100098    4.90999985    2.46000004
   20.38333321  154.36199951    4.90999985    2.46000004
   20.38638878  159.89999390    4.90999985    2.46000004
   20.38972282  159.62100220    4.90999985    2.44000006
   20.39305496  156.44500732    4.90999985    2.44000006
   20.39611053  154.57899475    4.90999985    2.44000006
   20.39944458  165.79899597    4.90999985    2.44000006
   20.39999962  152.77999878    4.90999985    2.44000006
   20.40583229  152.77999878    4.90999985    2.46000004
   20.40999985  157.06399536    4.90999985    2.46000004
   20.41333389  156.95899963    4.90999985    2.44000006
   20.41638756  163.23399353    4.90999985    2.46000004
   20.41972160  162.57499695    4.90999985    2.46000004
   20.42277718  157.81300354    4.90999985    2.46000004
   20.42611122  157.35600281    4.90999985    2.44000006
   20.42944336  152.96099854    4.90999985    2.46000004
   20.43249893  154.28300476    4.90999985    2.46000004
   20.43333244  155.36300659    4.90999985    2.46000004
   20.43638802  147.38999939    4.90999985    2.44000006
   20.43944359  154.11500549    4.90999985    2.44000006
   20.44277763  151.10600281    4.90999985    2.44000006
   20.44861031  151.10600281    4.90999985    2.42000008
   20.45277786  156.58799744    4.90999985    2.42000008
   20.45611191  154.22599792    4.90999985    2.42000008
   20.45916748  158.22000122    4.90999985    2.42000008
   20.46250153  154.29699707    4.90999985    2.42000008
   20.46583366  156.20899963    4.90999985    2.44000006
   20.46666718  161.97900391    4.90999985    2.42000008
   20.46916771  163.18499756    4.90999985    2.42000008
   20.47249985  172.12199402    4.90999985    2.40000010
   20.47583389  167.24600220    4.90999985    2.34999990
   20.47888947  200.28599548    4.90999985    2.09999990
   20.48222351  177.71899414    4.90999985    2.13000011
   20.48555565  170.67799377    4.90999985    2.28999996
   20.49166679  170.67799377    4.90999985    2.42000008
   20.49555588  163.78799438    4.90999985    2.44000006
   20.49888992  160.34899902    4.90999985    2.44000006
   20.50000000  156.03399658    4.90999985    2.44000006
   20.50277710  156.39999390    4.90999985    2.44000006
   20.50583267  169.78599548    4.90999985    2.44000006
   20.50916672  158.80200195    4.90999985    2.44000006
   20.51222229  154.67399597    4.90999985    2.46000004
   20.51555634  152.30700684    4.90999985    2.44000006
   20.51888847  153.48599243    4.90999985    2.42000008
   20.52194405  154.77099609    4.90999985    2.42000008
   20.52527809  158.85400391    4.90999985    2.44000006
   20.52861023  150.56300354    4.90999985    2.42000008
   20.53444481  150.56300354    4.90999985    2.44000006
   20.53861046  153.89500427    4.90999985    2.44000006
   20.54166603  160.55700684    4.90999985    2.44000006
   20.54500008  155.37199402    4.90999985    2.44000006
   20.54805565  158.96899414    4.90999985    2.46000004
   20.55138779  161.16900635    4.90999985    2.46000004
   20.55472183  161.36700439    4.90999985    2.46000004
   20.55777740  161.63800049    4.90999985    2.46000004
   20.56110954  184.21899414    4.90999985    2.46000004
   20.58055687  166.77600098    4.90999985    1.73000002
   20.58472252  166.77600098    4.90999985    1.83000004
   20.58889008  180.21000671    4.90999985    2.32999992
   20.59194565  165.19799805    4.90999985    2.42000008
   20.59527779  180.94500732    4.90999985    2.46000004
   20.59833336  193.41499329    4.90999985    2.40000010
   20.60166740   -1.00000000    4.90999985    1.80999994
   20.60499954   -1.00000000    4.90999985    1.03999996
   20.60805511   -1.00000000    4.90999985    0.75000000
   20.61138916   -1.00000000    4.90999985    1.01999998
   20.61499977   -1.00000000    4.90999985    0.98000002
   20.61805534  233.00399780    4.90999985    1.11000001
   20.62138939  173.96499634    4.90999985    1.78999996
   20.63138962   -1.00000000    4.90999985    0.55000001
   20.63472176   -1.00000000    4.90999985    0.51999998
   20.63805580   -1.00000000    4.90999985    0.73000002
   20.64111137   -1.00000000    4.90999985    0.63000000
   20.64444351  126.00399780    4.90999985    0.76999998
   20.64805603  251.59700012    4.90999985    1.09000003
   20.65111160  212.72999573    4.90999985    2.09999990
   20.65444374  191.75500488    4.90999985    2.36999989
   20.65777779  166.38499451    4.90999985    2.44000006
   20.66083336  178.70100403    4.90999985    2.42000008
   20.66416550  167.31799316    4.90999985    2.42000008
   20.67027664  167.31799316    4.90999985    2.40000010
   20.67444420  199.30299377    4.90999985    2.11999989
   20.67777634  220.28599548    4.90999985    2.32999992
   20.68027687  174.52799988    4.90999985    2.09999990
   20.68138885  209.97399902    4.90999985    2.01999998
   20.68472099  165.56900024    4.90999985    2.34999990
   20.68777657  173.72999573    4.90999985    2.36999989
   20.69111061  183.24699402    4.90999985    2.32999992
   20.69444275  173.13800049    4.90999985    2.23000002
   20.69749832  176.69299316    4.90999985    2.36999989
   20.70083427  171.40299988    4.90999985    2.36999989
   20.70388985  172.86000061    4.90999985    2.34999990
   20.70722389  176.13999939    4.90999985    2.36999989
   20.71305656  176.13999939    4.90999985    2.39000010
   20.71722221  186.41200256    4.90999985    2.36999989
   20.72055626  171.56599426    4.90999985    2.40000010
   20.72389030  252.13200378    4.90999985    2.11999989
   20.72694588  155.46899414    4.90999985    2.03999996
   20.73027802   -1.00000000    4.90999985    1.30999994
   20.73333359   -1.00000000    4.90999985    1.26999998
   20.73666763   -1.00000000    4.90999985    1.00000000
   20.73999977   -1.00000000    4.90999985    0.19000000
   20.74305534   -1.00000000    4.90999985    0.11000000
   20.74638939   -1.00000000    4.90999985    0.07000000
   20.75000000   -1.00000000    4.90999985    0.07000000
   20.76000023   -1.00000000    4.90999985    0.07000000
   20.76333427   -1.00000000    4.90999985    0.07000000
   20.76638794   -1.00000000    4.90999985    0.07000000
   20.76972198   -1.00000000    4.90999985    0.09000000
   20.77305603   -1.00000000    4.90999985    0.07000000
   20.77611160   -1.00000000    4.46999979    0.07000000
   20.77944374   -1.00000000    4.90999985    0.07000000
   20.78305435   -1.00000000    4.90999985    0.07000000
   20.78638840   -1.00000000    4.90999985    0.11000000
   20.78944397   -1.00000000    4.90999985    0.11000000
   20.79277802   -1.00000000    4.90999985    0.07000000
   20.80277634   -1.00000000    4.90999985    0.11000000
   20.80611038   -1.00000000    4.90999985    0.11000000
   20.80944443   -1.00000000    4.90999985    0.19000000
   20.81250000   -1.00000000    4.90999985    0.34000000
   20.81499863   84.07150269    4.90999985    0.75000000
   20.81638718  166.82000732    4.90999985    1.05999994
   20.81944466   -1.00000000    4.90999985    0.52999997
   20.82277870   -1.00000000    4.90999985    0.25000000
   20.82583427  218.91700745    4.90999985    1.34000003
   20.82916832  220.72799683    4.90999985    1.71000004
   20.83250046   -1.00000000    4.90999985    1.00000000
   20.83555603   -1.00000000    4.90999985    0.41999999
   20.84583473   -1.00000000    4.90999985    0.25000000
   20.84916687   -1.00000000    4.90999985    0.20999999
   20.85250092   -1.00000000    4.90999985    0.30000001
   20.85555649   -1.00000000    4.90999985    0.15000001
   20.85888863   -1.00000000    4.90999985    0.11000000
   20.86222267   -1.00000000    4.90999985    0.11000000
   20.86527824   -1.00000000    4.90999985    0.13000000
   20.86861038   -1.00000000    4.90999985    0.11000000
   20.87194443   -1.00000000    4.90999985    0.11000000
   20.87500000   -1.00000000    4.90999985    0.11000000
   20.87833405   -1.00000000    4.90999985    0.11000000
   20.88861084   -1.00000000    4.90999985    0.20999999
   20.89166641   -1.00000000    4.90999985    0.67000002
   20.89500046  128.57499695    4.90999985    1.03999996
   20.89833260  232.19000244    4.90999985    1.55999994
   20.90138817   -1.00000000    4.90999985    1.01999998
   20.90472221  167.08099365    4.90999985    0.94000000
   20.90805435  193.73800659    4.90999985    1.91999996
   20.91110992   87.58769989    4.90999985    1.91999996
   20.91444397   -1.00000000    4.90999985    0.98000002
   20.91805458  178.18200684    4.90999985    1.09000003
   20.92111015  200.18699646    4.90999985    2.17000008
   20.92749977  200.18699646    4.90999985    2.32999992
   20.93138885  190.99200439    4.90999985    2.32999992
   20.93472099  186.66099548    4.90999985    2.32999992
   20.93805504  200.32800293    4.90999985    2.32999992
   20.94111061  194.40800476    4.90999985    2.32999992
   20.94444275  191.33500671    4.90999985    2.32999992
   20.94749832  180.61199951    4.90999985    2.32999992
   20.94888878  184.51199341    4.90999985    2.30999994
   20.95111275  195.73800659    4.90999985    2.30999994
   20.95444489  193.76800537    4.90999985    2.30999994
   20.95750046  216.81100464    4.90999985    2.28999996
   20.96083450  209.44900513    4.90999985    2.26999998
   20.96416664  212.59700012    4.90999985    2.26999998
   20.97027779  212.59700012    4.90999985    2.23000002
   20.97444534  230.26899719    4.90999985    2.19000006
   20.97750092  264.81298828    4.90999985    2.13000011
   20.98083305  291.48098755    4.90999985    2.05999994
   20.98222351  328.77600098    4.90999985    2.05999994
   20.98444557  358.26199341    4.90999985    2.01999998
   20.98638916  343.48400879    4.90999985    1.96000004
   20.98777771  320.20498657    4.90999985    1.94000006
   20.98916626  283.00698853    4.90999985    1.91999996
   20.99055672  206.79899597    4.90999985    1.89999998
   20.99055672  195.73800659    4.90999985    2.30999994
   20.99083328  193.76800537    4.90999985    2.30999994
   20.99083328  216.81100464    4.90999985    2.28999996
   20.99083328  209.44900513    4.90999985    2.26999998
   20.99111176  212.59700012    4.90999985    2.26999998
   20.99111176  230.26899719    4.90999985    2.19000006
   20.99111176  264.81298828    4.90999985    2.13000011
   20.99138832  291.48098755    4.90999985    2.05999994
   20.99138832  358.26199341    4.90999985    2.01999998
   20.99194527  128.27600098    4.90999985    1.88000000
   20.99527740  133.51199341    4.90999985    1.78999996
   20.99833298  104.73300171    4.90999985    1.71000004
   21.00166702   -1.00000000    4.90999985    1.61000001
   21.00499916   -1.00000000    4.90999985    1.58000004
   21.01138878   -1.00000000    4.90999985    1.50000000
   21.01555634   -1.00000000    4.90999985    1.44000006
   21.01861000   -1.00000000    4.90999985    1.36000001
   21.02194405   -1.00000000    4.90999985    1.38000000
   21.02555466   -1.00000000    4.90999985    1.38000000
   21.02888870   -1.00000000    4.90999985    1.36000001
   21.03194427   -1.00000000    4.90999985    1.38000000
   21.03527641   -1.00000000    4.90999985    1.38000000
   21.03861046   -1.00000000    4.90999985    1.38000000
   21.04166603   -1.00000000    4.90999985    1.36000001
   21.04500008   -1.00000000    4.90999985    1.34000003
   21.04805565   -1.00000000    4.90999985    1.30999994
   21.05833244   -1.00000000    4.90999985    1.33000004
   21.06138802   -1.00000000    4.90999985    1.30999994
   21.06472206   -1.00000000    4.90999985    1.25000000
   21.06777954   -1.00000000    4.90999985    1.21000004
   21.07111168   -1.00000000    4.90999985    1.21000004
   21.07444572   -1.00000000    4.90999985    1.19000006
   21.07750130   -1.00000000    4.90999985    1.13000000
   21.08083344   -1.00000000    4.90999985    1.11000001
   21.08416748   -1.00000000    4.90999985    1.11000001
   21.08722305   -1.00000000    4.90999985    1.13000000
   21.09055710   -1.00000000    4.90999985    1.07000005
   21.10111237   -1.00000000    4.90999985    0.47999999
   21.10416794   -1.00000000    4.90999985    0.44000000
   21.10750008   -1.00000000    4.90999985    0.41999999
   21.11083412   -1.00000000    4.90999985    0.46000001
   21.11388969   -1.00000000    4.90999985    0.47999999
   21.11722183   -1.00000000    4.90999985    0.51999998
   21.12055588   -1.00000000    4.90999985    0.51999998
   21.12361145   -1.00000000    4.90999985    0.50000000
   21.12722206   -1.00000000    4.90999985    0.46000001
   21.13055611   -1.00000000    4.90999985    0.46000001
   21.13361168   -1.00000000    4.90999985    0.41999999
   21.14388847   -1.00000000    4.90999985    0.34000000
   21.14722252   -1.00000000    4.90999985    0.34000000
   21.15027809   -1.00000000    4.90999985    0.31999999
   21.15361023   -1.00000000    4.90999985    0.30000001
   21.15694427   -1.00000000    4.90999985    0.30000001
   21.16027832   -1.00000000    4.90999985    0.30000001
   21.16361046   -1.00000000    4.90999985    0.30000001
   21.16666603   -1.00000000    4.90999985    0.36000001
   21.17000008   -1.00000000    4.90999985    0.46000001
   21.17333221   -1.00000000    4.90999985    0.51999998
   21.17638779   -1.00000000    4.90999985    0.51999998
   21.18666649   -1.00000000    4.90999985    0.58999997
   21.18999863   -1.00000000    4.90999985    0.67000002
   21.19361115   -1.00000000    4.90999985    0.67000002
   21.19694328   -1.00000000    4.90999985    0.55000001
   21.20000076   -1.00000000    4.90999985    0.40000001
   21.20333481   -1.00000000    4.90999985    0.61000001
   21.20666695   -1.00000000    4.90999985    0.64999998
   21.20972252   -1.00000000    4.90999985    0.36000001
   21.21305656   -1.00000000    4.90999985    0.13000000
   21.21638870   -1.00000000    3.51999998    0.05000000
   21.21944427   -1.00000000    4.90999985    0.07000000
   21.22972298   -1.00000000    4.90999985    0.03000000
   21.23277855   -1.00000000    4.90999985    0.03000000
   21.23611069   -1.00000000    4.90999985    0.03000000
   21.23944473   -1.00000000    4.90999985    0.03000000
   21.24250031   -1.00000000    4.90999985    0.03000000
   21.24583435   -1.00000000    4.90999985    0.03000000
   21.24888992   -1.00000000    4.90999985    0.03000000
   21.25222206   -1.00000000    4.90999985    0.03000000
   21.25555611   -1.00000000    4.90999985    0.03000000
   21.25888824   -1.00000000    4.90999985    0.03000000
   21.26222229   -1.00000000    4.90999985    0.03000000
   21.27249908   -1.00000000    4.90999985    0.03000000
   21.27583313   -1.00000000    4.90999985    0.03000000
   21.27888870   -1.00000000    4.90999985    0.03000000
   21.28222275   -1.00000000    4.90999985    0.03000000
   21.28527641   -1.00000000    4.90999985    0.03000000
   21.28861046   -1.00000000    4.90999985    0.03000000
   21.29222107   -1.00000000    4.90999985    0.03000000
   21.29555511   -1.00000000    4.90999985    0.03000000
   21.29888916   -1.00000000    4.90999985    0.03000000
   21.30194283   -1.00000000    4.90999985    0.03000000
   21.30527687   -1.00000000    4.90999985    0.03000000
   21.31527710   -1.00000000    4.90999985    0.03000000
   21.31861115   -1.00000000    4.90999985    0.03000000
   21.32166672   -1.00000000    4.90999985    0.03000000
   21.32527924   -1.00000000    4.90999985    0.03000000
   21.32861137   -1.00000000    4.90999985    0.03000000
   21.33194542   -1.00000000    4.90999985    0.03000000
   21.33500099   -1.00000000    4.90999985    0.03000000
   21.33833313   -1.00000000    4.90999985    0.03000000
   21.34138870   -1.00000000    4.90999985    0.03000000
   21.34472275   -1.00000000    4.90999985    0.03000000
   21.34805679   -1.00000000    4.90999985    0.03000000
   21.35805511   -1.00000000    4.90999985    0.03000000
   21.36138916   -1.00000000    4.90999985    0.03000000
   21.36472321   -1.00000000    4.90999985    0.03000000
   21.36777878   -1.00000000    4.90999985    0.03000000
   21.37111092   -1.00000000    4.90999985    0.03000000
   21.37444496   -1.00000000    4.90999985    0.03000000
   21.37750053   -1.00000000    4.90999985    0.03000000
   21.38083267   -1.00000000    4.90999985    0.03000000
   21.38388824   -1.00000000    4.90999985    0.03000000
   21.38722229   -1.00000000    4.90999985    0.03000000
   21.39055634   -1.00000000    4.90999985    0.03000000
   21.40111160   -1.00000000    4.90999985    0.03000000
   21.40416718   -1.00000000    4.90999985    0.03000000
   21.40749931   -1.00000000    4.90999985    0.03000000
   21.41055489   -1.00000000    4.90999985    0.03000000
   21.41388893   -1.00000000    4.90999985    0.03000000
   21.41722107   -1.00000000    4.90999985    0.03000000
   21.42027664   -1.00000000    4.90999985    0.03000000
   21.42361069   -1.00000000    4.90999985    0.03000000
   21.42694473   -1.00000000    4.90999985    0.03000000
   21.43027687   -1.00000000    4.90999985    0.03000000
   21.43361092   -1.00000000    4.90999985    0.03000000
   21.44388771   -1.00000000    4.90999985    0.03000000
   21.44722176   -1.00000000    4.90999985    0.03000000
   21.45027924   -1.00000000    4.90999985    0.03000000
   21.45361137   -1.00000000    4.90999985    0.03000000
   21.45666695   -1.00000000    4.90999985    0.03000000
   21.46027946   -1.00000000    4.90999985    0.03000000
   21.46361160   -1.00000000    4.90999985    0.03000000
   21.46694565   -1.00000000    4.90999985    0.03000000
   21.47000122   -1.00000000    4.90999985    0.03000000
   21.47333336   -1.00000000    4.90999985    0.03000000
   21.47638893   -1.00000000    4.90999985    0.03000000
   21.48666763   -1.00000000    4.90999985    0.03000000
   21.48999977   -1.00000000    4.90999985    0.03000000
   21.49333382   -1.00000000    4.90999985    0.03000000
   21.49666786   -1.00000000    4.90999985    0.03000000
   21.50000000   -1.00000000    4.90999985    0.03000000
   21.50305557   -1.00000000    4.90999985    0.03000000
   21.50638962   -1.00000000    4.90999985    0.03000000
   21.50944519   -1.00000000    4.90999985    0.03000000
   21.51277733   -1.00000000    4.90999985    0.03000000
   21.51611137   -1.00000000    4.90999985    0.03000000
   21.51916695   -1.00000000    4.90999985    0.03000000
   21.52944374   -1.00000000    4.90999985    0.03000000
   21.53277779   -1.00000000    4.90999985    0.03000000
   21.53610992   -1.00000000    4.90999985    0.03000000
   21.53916550   -1.00000000    4.90999985    0.03000000
   21.54249954   -1.00000000    4.90999985    0.03000000
