    HOUR (UT)   FLARE FACTOR    SKY TESTER    SUN TESTER
   12.45527744   -1.00000000   -1.00000000   -1.00000000
   12.52722168  173.94799805    0.76999998    2.11999989
   12.53055573  177.72000122    0.76999998    2.11999989
   12.53388977  172.52600098    0.76999998    2.13000011
   12.53694534  184.21600342    0.76999998    2.13000011
   12.54027843  165.41799927    0.76999998    2.13000011
   12.54333401  168.28599548    0.76999998    2.13000011
   12.54750061  168.28599548    0.76999998    2.13000011
   12.55166721  161.73300171    0.76999998    2.15000010
   12.55500031  150.79100037    0.76999998    2.13000011
   12.55805588  163.81300354    0.76999998    2.13000011
   12.56055546  164.32600403    0.76999998    2.15000010
   12.56194496  170.51400757    0.76999998    2.15000010
   12.56500053  148.17300415    0.76999998    2.15000010
   12.56833363   -1.00000000    0.76999998    2.15000010
   12.57166672   -1.00000000    0.75000000    2.17000008
   12.57472229   -1.00000000    0.76999998    2.13000011
   12.57805538   -1.00000000    0.75000000    2.15000010
   12.58138847   -1.00000000    0.75000000    2.17000008
   12.58444405  153.98800659    0.75000000    2.15000010
   12.59055519  153.98800659    0.73000002    2.17000008
   12.59444427  148.00999451    0.73000002    2.17000008
   12.59777737  145.67900085    0.73000002    2.17000008
   12.60111141  139.49099731    0.73000002    2.17000008
   12.60416698  143.94099426    0.73000002    2.17000008
   12.60750008  150.83399963    0.73000002    2.17000008
   12.61083412  152.00700378    0.73000002    2.17000008
   12.61388969  167.25799561    0.73000002    2.17000008
   12.61722279  139.50900269    0.73000002    2.17000008
   12.62027836  144.40899658    0.75000000    2.17000008
   12.62361145  162.48399353    0.75000000    2.17000008
   12.62694454  144.31799316    0.75000000    2.19000006
   12.62750053  152.84500122    0.75000000    2.19000006
   12.63722229   -1.00000000    0.86000001    2.17000008
   12.64055538   -1.00000000    0.94000000    2.19000006
   12.64388847   -1.00000000    1.05999994    2.19000006
   12.64694405   -1.00000000    1.33000004    2.19000006
   12.65027714   -1.00000000    1.64999998    2.19000006
   12.65361118   -1.00000000    2.30999994    2.19000006
   12.65666676   -1.00000000    2.59999990    2.21000004
   12.65999985   -1.00000000    2.96000004    2.19000006
   12.66333294   -1.00000000    3.23000002    2.19000006
   12.66666698   -1.00000000    3.36999989    2.21000004
   12.66972256   -1.00000000    3.39000010    2.19000006
   12.68027782   -1.00000000    2.98000002    2.21000004
   12.68333340   -1.00000000    2.82999992    2.21000004
   12.68666649   -1.00000000    2.69000006    2.21000004
   12.69000053   -1.00000000    2.55999994    2.21000004
   12.69305515   -1.00000000    2.44000006    2.21000004
   12.69666672   -1.00000000    2.28999996    2.21000004
   12.69999981   -1.00000000    2.15000010    2.21000004
   12.70333290   -1.00000000    2.03999996    2.21000004
   12.70638847   -1.00000000    1.58000004    2.21000004
   12.70972157   -1.00000000    1.66999996    2.19000006
   12.71277714   -1.00000000    1.55999994    2.19000006
   12.72305489   -1.00000000    1.36000001    2.17000008
   12.72611046   -1.00000000    1.25000000    2.15000010
   12.72972202  160.37399292    1.19000006    2.15000010
   12.73305511  153.06700134    1.16999996    2.17000008
   12.73638916  157.09500122    1.16999996    2.17000008
   12.73944473  154.45500183    1.23000002    2.19000006
   12.74277782  175.23899841    1.26999998    2.19000006
   12.74583340  160.71800232    2.09999990    2.23000002
   12.74916649  148.81599426    2.96000004    2.23000002
   12.75249958  147.72900391    4.26000023    2.23000002
   12.75555515  140.68400574    4.90999985    2.25000000
   12.76194477  140.68400574    4.90999985    2.26999998
   12.76583290  146.07899475    4.90999985    2.26999998
   12.76916599  139.43099976    4.90999985    2.26999998
   12.77250004  156.18400574    4.90999985    2.26999998
   12.77555561  159.52999878    4.90999985    2.28999996
   12.77888870  146.21200562    4.90999985    2.28999996
   12.78222179  147.87699890    4.90999985    2.28999996
   12.78527832  141.94400024    4.90999985    2.28999996
   12.78861141  160.72099304    4.90999985    2.28999996
   12.79166698  144.63400269    4.90999985    2.28999996
   12.79416752  148.84800720    4.90999985    2.26999998
   12.79555607  158.30299377    4.90999985    2.26999998
   12.79861164  161.20700073    4.90999985    2.28999996
   12.80472279  161.20700073    4.90999985    2.26999998
   12.80888939  153.91600037    4.90999985    2.28999996
   12.81194496  160.88900757    4.90999985    2.26999998
   12.81527805  150.14199829    4.90999985    2.28999996
   12.81861115  161.60299683    4.90999985    2.28999996
   12.82166672  154.85000610    4.40999985    2.28999996
   12.82499981  165.64300537    3.80999994    2.26999998
   12.82750034  148.70100403    3.43000007    2.28999996
   12.82861137  149.76699829    3.25000000    2.28999996
   12.83166695  151.44799805    2.71000004    2.28999996
   12.83500004  145.55400085    2.11999989    2.28999996
   12.83833313  144.27400208    1.36000001    2.26999998
   12.84138870  147.58900452    1.14999998    2.28999996
   12.84749985  147.58900452    0.94000000    2.28999996
   12.85166740  157.21499634    0.79000002    2.28999996
   12.85500050  150.07099915    0.73000002    2.28999996
   12.85805607  145.13699341    0.69000000    2.28999996
   12.86083412  144.97000122    0.69000000    2.28999996
   12.86194515  150.57000732    0.69000000    2.28999996
   12.86500072  142.51699829    0.63000000    2.28999996
   12.86833382  142.19299316    0.63000000    2.28999996
   12.87166691  162.86099243    0.63000000    2.28999996
   12.87472248  166.08999634    0.63000000    2.28999996
   12.87805557  147.36999512    0.61000001    2.28999996
   12.88111115  155.13999939    0.63000000    2.30999994
   12.88444424  153.19599915    0.61000001    2.30999994
   12.89027786  153.19599915    0.63000000    2.30999994
   12.89444447  141.09899902    0.61000001    2.28999996
   12.89777756  149.89100647    0.61000001    2.28999996
   12.90083313  157.70399475    0.61000001    2.28999996
   12.90416622  148.31199646    0.61000001    2.30999994
   12.90749931  160.83200073    0.63000000    2.30999994
   12.91083336  163.40699768    0.61000001    2.30999994
   12.91388893  167.03700256    0.61000001    2.30999994
   12.91722298  165.28500366    0.61000001    2.28999996
   12.92027855  163.41799927    0.61000001    2.30999994
   12.92361164  163.09100342    0.61000001    2.30999994
   12.92694473  161.19700623    0.58999997    2.30999994
   12.92750072  166.01199341    0.58999997    2.30999994
   12.93333340  166.01199341    0.58999997    2.30999994
   12.93722248  158.01300049    0.61000001    2.32999992
   12.94055557  151.14100647    0.61000001    2.32999992
   12.94388866  161.90499878    0.58999997    2.30999994
   12.94694424  163.25700378    0.58999997    2.32999992
   12.95027733  144.44999695    0.61000001    2.32999992
   12.95361137  153.45199585    0.61000001    2.32999992
   12.95666695  151.55000305    0.58999997    2.32999992
   12.96000004  157.99499512    0.58999997    2.32999992
   12.96083355  161.10000610    0.58999997    2.32999992
   12.96361065  145.77499390    0.58999997    2.30999994
   12.96666622  153.72200012    0.58999997    2.32999992
   12.96999931  148.89599609    0.58999997    2.32999992
   12.97611046  148.89599609    0.58999997    2.32999992
   12.98027706  153.35099792    0.58999997    2.32999992
   12.98333359  151.63900757    0.61000001    2.34999990
   12.98666668  151.08299255    0.58999997    2.32999992
   12.99000072  154.04600525    0.61000001    2.32999992
   12.99305534  150.86900330    0.58999997    2.32999992
   12.99416733  150.73100281    0.58999997    2.32999992
   12.99694443  143.36000061    0.58999997    2.32999992
   13.00000000  148.31100464    0.58999997    2.32999992
   13.00333309  152.08500671    0.58999997    2.32999992
   13.00666714  142.73399353    0.58999997    2.32999992
   13.00972176  146.22000122    0.56999999    2.32999992
   13.01305580  144.42500305    0.58999997    2.32999992
   13.01888847  144.42500305    0.56999999    2.34999990
   13.02305508  153.16799927    0.55000001    2.34999990
   13.02638817  144.10400391    0.56999999    2.32999992
   13.02750015  141.31700134    0.55000001    2.34999990
   13.02999973  146.79899597    0.55000001    2.34999990
   13.03333378  137.48699951    0.55000001    2.34999990
   13.03638935  140.01800537    0.55000001    2.32999992
   13.03972244  144.97999573    0.55000001    2.36999989
   13.04277802  155.68499756    0.55000001    2.34999990
   13.04611111  158.59500122    0.55000001    2.34999990
   13.04944515  156.08000183    0.55000001    2.34999990
   13.05249977  145.69799805    0.55000001    2.34999990
   13.05583382  154.55700684    0.55000001    2.34999990
   13.06166649  154.55700684    0.55000001    2.36999989
   13.06583309  142.04800415    0.55000001    2.34999990
   13.06916618  136.31399536    0.55000001    2.34999990
   13.07250023  156.10000610    0.55000001    2.34999990
   13.07555580  153.33000183    0.55000001    2.34999990
   13.07888889  145.61399841    0.55000001    2.34999990
   13.08194447  139.65499878    0.55000001    2.36999989
   13.08527756  152.51300049    0.55000001    2.36999989
   13.08861065  161.08399963    0.55000001    2.36999989
   13.09166622  150.78399658    0.55000001    2.36999989
   13.09416676  170.13499451    0.55000001    2.36999989
   13.09555531  146.29400635    0.55000001    2.36999989
   13.09888840  172.88200378    0.55000001    2.36999989
   13.10472298  172.88200378    0.55000001    2.36999989
   13.10861111  157.40400696    0.52999997    2.39000010
   13.11194515  155.83099365    0.52999997    2.36999989
   13.11527824  150.41299438    0.55000001    2.36999989
   13.11833382  153.04499817    0.55000001    2.36999989
   13.12166691  146.39500427    0.52999997    2.36999989
   13.12472248  147.90499878    0.55000001    2.39000010
   13.12750053  145.43299866    0.52999997    2.39000010
   13.12861156  152.11900330    0.52999997    2.39000010
   13.13166714  164.64100647    0.55000001    2.36999989
   13.13500023  155.91999817    0.55000001    2.39000010
   13.13833332  147.50500488    0.52999997    2.39000010
   13.14138889  144.58200073    0.52999997    2.39000010
   13.14750004  144.58200073    0.52999997    2.39000010
   13.15166664  151.65400696    0.52999997    2.39000010
   13.15472221  150.34100342    0.52999997    2.39000010
   13.15805531  156.87300110    0.52999997    2.39000010
   13.16083336  156.67399597    0.52999997    2.39000010
   13.16166592  157.69999695    0.52999997    2.39000010
   13.16472149  155.56399536    0.52999997    2.39000010
   13.16805553  154.49699402    0.52999997    2.39000010
   13.17138958  168.49899292    0.51999998    2.40000010
   13.17444515  146.38699341    0.51999998    2.39000010
   13.17777824  157.47500610    0.52999997    2.39000010
   13.18111134  159.93099976    0.51999998    2.40000010
   13.18416691  154.07600403    0.51999998    2.40000010
   13.19027805  154.07600403    0.51999998    2.39000010
   13.19444466  147.98100281    0.52999997    2.39000010
   13.19750023  138.85899353    0.51999998    2.40000010
   13.20083332  150.62699890    0.51999998    2.40000010
   13.20416641  159.95100403    0.51999998    2.40000010
   13.20722198  153.23100281    0.51999998    2.39000010
   13.21055508  148.31100464    0.51999998    2.39000010
   13.21388912  146.71499634    0.51999998    2.40000010
   13.21694374  146.76800537    0.51999998    2.40000010
   13.22027779  154.79600525    0.51999998    2.40000010
   13.22333336  149.86999512    0.51999998    2.40000010
   13.22666645  152.80400085    0.51999998    2.40000010
   13.22749996  150.55999756    0.50000000    2.40000010
   13.23305511  150.55999756    0.50000000    2.40000010
   13.23722267  151.41900635    0.51999998    2.40000010
   13.24055576  148.11399841    0.50000000    2.42000008
   13.24361134  149.49699402    0.50000000    2.40000010
   13.24694443  153.76499939    0.50000000    2.40000010
   13.25027752  140.04699707    0.50000000    2.42000008
   13.25333309  168.33700562    0.50000000    2.42000008
   13.25666714  145.85800171    0.50000000    2.42000008
   13.25972176  150.99200439    0.50000000    2.40000010
   13.26083374  147.07299805    0.50000000    2.40000010
   13.26361084  148.77999878    0.50000000    2.42000008
   13.26694393  149.18800354    0.50000000    2.40000010
   13.26999950  168.63200378    0.47999999    2.42000008
   13.27583313  168.63200378    0.50000000    2.42000008
   13.27999973  144.59599304    0.50000000    2.42000008
   13.28333378  153.29899597    0.50000000    2.42000008
   13.28666687  159.98800659    0.50000000    2.42000008
   13.28972244  153.21299744    0.47999999    2.42000008
   13.29305553  151.65199280    0.47999999    2.42000008
   13.29416752  151.28100586    0.47999999    2.42000008
   13.29666710  150.05400085    0.47999999    2.42000008
   13.30000019  150.72000122    0.47999999    2.42000008
   13.30305576  153.08000183    0.47999999    2.42000008
   13.30638885  150.76699829    0.47999999    2.42000008
   13.30944443  153.92399597    0.47999999    2.42000008
   13.31277752  171.61500549    0.47999999    2.42000008
   13.31888866  171.61500549    0.46000001    2.42000008
   13.32305527  164.15600586    0.47999999    2.42000008
   13.32611084  171.82299805    0.47999999    2.42000008
   13.32750034  165.55799866    0.46000001    2.42000008
   13.32999992  164.35600281    0.46000001    2.44000006
   13.33333302  163.05499268    0.46000001    2.44000006
   13.33638859  155.58700562    0.46000001    2.42000008
   13.33972168  154.12399292    0.47999999    2.42000008
   13.34277725  162.92100525    0.46000001    2.44000006
   13.34611034  161.98300171    0.47999999    2.42000008
   13.34944439  140.43899536    0.46000001    2.42000008
   13.35249996  153.05700684    0.46000001    2.44000006
   13.35583401  149.63299561    0.46000001    2.44000006
   13.36166668  149.63299561    0.46000001    2.44000006
   13.36583328  163.95100403    0.46000001    2.44000006
   13.36888885  153.34399414    0.46000001    2.44000006
   13.37222195  153.59199524    0.46000001    2.44000006
   13.37555599  156.69999695    0.46000001    2.42000008
   13.37861156  141.84399414    0.46000001    2.44000006
   13.38194466  151.85099792    0.46000001    2.44000006
   13.38527775  153.50399780    0.46000001    2.44000006
   13.38833332  154.99200439    0.46000001    2.44000006
   13.39166641  142.54699707    0.44000000    2.46000004
   13.39416695  160.96899414    0.44000000    2.44000006
   13.39527798  165.07600403    0.44000000    2.44000006
   13.39861107  164.97200012    0.46000001    2.46000004
   13.40444374  164.97200012    0.44000000    2.46000004
   13.40861034  169.34199524    0.44000000    2.44000006
   13.41194439  194.17199707    0.46000001    2.46000004
   13.41499996  178.25999451    0.44000000    2.46000004
   13.41833401  171.10800171    0.44000000    2.46000004
   13.42166710  178.03599548    0.44000000    2.46000004
   13.42472267  178.04299927    0.44000000    2.46000004
   13.42750072  173.03399658    0.46000001    2.46000004
   13.42833328  181.86099243    0.44000000    2.46000004
   13.43166733  168.38299561    0.44000000    2.46000004
   13.43472195  182.88400269    0.44000000    2.46000004
   13.43805599  178.70599365    0.44000000    2.46000004
   13.44111156  158.69200134    0.44000000    2.46000004
   13.44722271  158.69200134    0.44000000    2.46000004
   13.45138836  161.01100159    0.44000000    2.46000004
   13.45472240  151.47099304    0.44000000    2.46000004
   13.45805550  173.55400085    0.44000000    2.46000004
   13.46083355  178.76100159    0.44000000    2.46000004
   13.46166611  166.98199463    0.41999999    2.46000004
   13.46500015  164.19999695    0.41999999    2.46000004
   13.46805477  174.37100220    0.44000000    2.46000004
   13.47138882  172.65699768    0.44000000    2.46000004
   13.47444439  173.64599609    0.41999999    2.48000002
   13.47777748  168.00799561    0.41999999    2.48000002
   13.48111057  158.33200073    0.44000000    2.46000004
   13.48416710  145.03199768    0.41999999    2.48000002
   13.49027824  145.03199768    0.44000000    2.46000004
   13.49444485  159.55400085    0.41999999    2.46000004
   13.49750042  165.12300110    0.41999999    2.48000002
   13.50083351  154.98199463    0.41999999    2.48000002
   13.50388908  158.09700012    0.41999999    2.48000002
   13.50722218  157.38600159    0.41999999    2.46000004
   13.51055527  159.77200317    0.41999999    2.46000004
   13.51388931  171.34700012    0.41999999    2.46000004
   13.51694393  152.15100098    0.41999999    2.48000002
   13.52027798  158.42900085    0.41999999    2.46000004
   13.52361107  166.96099854    0.41999999    2.48000002
   13.52666664  172.00999451    0.41999999    2.48000002
   13.52750015  162.01600647    0.41999999    2.48000002
   13.54833412  162.01600647    0.41999999    2.48000002
   13.55249977  160.93400574    0.41999999    2.48000002
   13.55555534  153.27600098    0.40000001    2.50000000
   13.55888939  162.44900513    0.40000001    2.48000002
   13.56083393  172.65699768    0.40000001    2.50000000
   13.56250000  169.51199341    0.40000001    2.50000000
   13.56583309  143.81300354    0.40000001    2.48000002
   13.56888866  151.03500366    0.40000001    2.50000000
   13.57222176  164.36799622    0.40000001    2.48000002
   13.57555580  169.67500305    0.40000001    2.48000002
   13.57861137  162.85099792    0.40000001    2.48000002
   13.58194447  159.85400391    0.41999999    2.48000002
   13.58500004  162.62699890    0.40000001    2.50000000
   13.59111118  162.62699890    0.40000001    2.48000002
   13.59499931  143.72799683    0.40000001    2.50000000
   13.59833336  154.16799927    0.40000001    2.50000000
   13.60166740  139.89100647    0.40000001    2.48000002
   13.60472298  154.91999817    0.40000001    2.48000002
   13.60805607  157.78399658    0.41999999    2.50000000
   13.61138916  149.03599548    0.40000001    2.48000002
   13.61444473  153.60699463    0.41999999    2.48000002
   13.61777782  164.67300415    0.41999999    2.50000000
   13.62111092  158.11300659    0.40000001    2.50000000
   13.62416649  160.32600403    0.40000001    2.50000000
   13.62750053  156.91600037    0.41999999    2.50000000
   13.62805557  159.99499512    0.40000001    2.50000000
   13.63388920  159.99499512    0.41999999    2.50000000
   13.63805580  159.64300537    0.41999999    2.50000000
   13.64111137  156.41299438    0.41999999    2.50000000
   13.64444447  152.63099670    0.41999999    2.50000000
   13.64777756  167.17100525    0.41999999    2.50000000
   13.65083313  147.12899780    0.41999999    2.50000000
   13.65416622  164.18800354    0.41999999    2.50000000
   13.65722179  166.21699524    0.41999999    2.50000000
   13.66055489  147.19099426    0.41999999    2.50000000
   13.66138840  158.91999817    0.41999999    2.50000000
   13.66416645  155.66299438    0.41999999    2.50000000
   13.66750050  166.94599915    0.41999999    2.51999998
   13.67083359  150.76199341    0.41999999    2.51999998
   13.67666721  150.76199341    0.40000001    2.50000000
   13.68083382  165.77299500    0.40000001    2.51999998
   13.68416691  169.57600403    0.40000001    2.51999998
   13.68722248  168.60099792    0.40000001    2.51999998
   13.69055557  159.90199280    0.40000001    2.51999998
   13.69361115  162.45599365    0.40000001    2.51999998
   13.69472218  158.76100159    0.40000001    2.51999998
   13.69722271  159.74899292    0.40000001    2.50000000
   13.70055580  173.94000244    0.41999999    2.50000000
   13.70388889  170.02299500    0.40000001    2.51999998
   13.70694447  165.46200562    0.40000001    2.51999998
   13.71027756  166.28100586    0.40000001    2.50000000
   13.71361065  159.60400391    0.40000001    2.51999998
   13.71944427  159.60400391    0.40000001    2.51999998
   13.72361088  178.53399658    0.40000001    2.51999998
   13.72694397  172.46899414    0.40000001    2.51999998
   13.72805500  168.38200378    0.40000001    2.51999998
   13.73027706  172.48699951    0.40000001    2.50000000
   13.73361111  156.66200256    0.40000001    2.50000000
   13.73694515  165.83000183    0.40000001    2.50000000
   13.74000072  158.49000549    0.40000001    2.50000000
   13.74333382  150.81500244    0.40000001    2.51999998
   13.74666691  153.28599548    0.40000001    2.51999998
   13.74972248  160.87100220    0.38000000    2.51999998
   13.75305557  153.82000732    0.38000000    2.51999998
   13.75611115  148.67999268    0.40000001    2.53999996
   13.76249981  148.67999268    0.38000000    2.51999998
   13.76638889  157.51499939    0.38000000    2.51999998
   13.76972198  154.99299622    0.38000000    2.51999998
   13.77305508  157.31300354    0.38000000    2.51999998
   13.77611065  164.07099915    0.40000001    2.51999998
   13.77944374  152.84300232    0.38000000    2.51999998
   13.78277779  157.60299683    0.40000001    2.51999998
   13.78583336  151.09199524    0.40000001    2.51999998
   13.78916740  152.96800232    0.38000000    2.51999998
   13.79222298  159.05799866    0.40000001    2.51999998
   13.79472256  144.92199707    0.40000001    2.51999998
   13.79583359  146.53900146    0.40000001    2.51999998
   13.79916668  143.09300232    0.40000001    2.51999998
   13.80527782  143.09300232    0.40000001    2.51999998
   13.80944443  163.07000732    0.40000001    2.51999998
   13.81250000  151.88499451    0.40000001    2.53999996
   13.81583309  152.49800110    0.40000001    2.53999996
   13.81916618  148.21899414    0.40000001    2.53999996
   13.82222176  154.76499939    0.40000001    2.51999998
   13.82555580  151.39100647    0.40000001    2.51999998
   13.82805538  155.10499573    0.40000001    2.53999996
   13.82888889  164.84100342    0.40000001    2.51999998
   13.83222198  157.94799805    0.40000001    2.53999996
   13.83555508  150.50999451    0.40000001    2.51999998
   13.83861065  154.96600342    0.40000001    2.53999996
   13.84194374  145.72999573    0.38000000    2.53999996
   13.84805489  145.72999573    0.38000000    2.53999996
   13.85222244  149.72999573    0.38000000    2.53999996
   13.85555553  156.55999756    0.38000000    2.53999996
   13.85861111  146.63400269    0.38000000    2.53999996
   13.86138916  145.22099304    0.38000000    2.53999996
   13.86250019  150.85200500    0.38000000    2.55999994
   13.86555576  153.07800293    0.38000000    2.55999994
   13.86888885  151.94900513    0.38000000    2.53999996
   13.87194443  144.28700256    0.40000001    2.53999996
   13.87527752  142.78500366    0.38000000    2.53999996
   13.87861156  150.78900146    0.40000001    2.53999996
   13.88166714  152.60800171    0.40000001    2.53999996
   13.88500023  147.09199524    0.40000001    2.53999996
   13.89083290  147.09199524    0.38000000    2.53999996
   13.89499950  149.29499817    0.38000000    2.53999996
   13.89833355  156.27799988    0.38000000    2.55999994
   13.90138817  153.35099792    0.38000000    2.53999996
   13.90472221  157.00700378    0.38000000    2.53999996
   13.90805531  158.28399658    0.40000001    2.53999996
   13.91111088  160.11700439    0.38000000    2.53999996
   13.91444397  152.32699585    0.40000001    2.55999994
   13.91777802  146.48500061    0.38000000    2.55999994
   13.92083359  158.24600220    0.38000000    2.55999994
   13.92416668  155.10899353    0.40000001    2.53999996
   13.92722225  158.04100037    0.40000001    2.55999994
   13.92805576  156.98599243    0.40000001    2.55999994
   13.93388939  156.98599243    0.40000001    2.53999996
   13.93805599  145.68800354    0.38000000    2.53999996
   13.94138908  153.57000732    0.40000001    2.53999996
   13.94444466  128.14300537    0.40000001    2.53999996
   13.94777775  142.55799866    0.38000000    2.53999996
   13.95111084  136.62699890    0.38000000    2.55999994
   13.95416641  147.15600586    0.38000000    2.55999994
   13.95749950  135.18200684    0.38000000    2.55999994
   13.96055508  148.15199280    0.38000000    2.55999994
   13.96138859  143.53799438    0.38000000    2.55999994
   13.96444416  138.53399658    0.40000001    2.57999992
   13.96749973  150.71200562    0.40000001    2.55999994
   13.97083282  146.41299438    0.40000001    2.55999994
   13.97666645  146.41299438    0.41999999    2.53999996
   13.98083305  128.81500244    0.75000000    2.55999994
   13.98388958  138.33200073    4.78000021    2.55999994
   13.98722267  153.41499329    4.90999985    2.57999992
   13.99055576  150.99400330    4.90999985    2.34999990
   13.99361134  148.93699646    4.90999985    2.51999998
   13.99472237  147.97999573    3.28999996    2.51999998
   13.99750042  136.46699524    0.41999999    2.55999994
   14.00055599  150.01400757    0.40000001    2.55999994
   14.00388908  150.36300659    0.40000001    2.55999994
   14.00722218  142.03500366    0.40000001    2.55999994
   14.01027775  153.94999695    0.40000001    2.55999994
   14.01361084  138.26300049    0.40000001    2.55999994
   14.01944447  138.26300049    0.38000000    2.57999992
   14.02361107  145.36399841    0.40000001    2.55999994
   14.02694416  145.89799500    0.38000000    2.55999994
   14.02805519  146.20899963    0.38000000    2.55999994
   14.03055573  143.71000671    0.40000001    2.55999994
   14.03361130  127.88400269    0.38000000    2.55999994
   14.03694534  132.85400391    0.38000000    2.57999992
   14.04000092  133.03900146    0.40000001    2.57999992
   14.04333401  142.40199280    0.38000000    2.55999994
   14.04666710  142.75599670    0.38000000    2.57999992
   14.04972267  147.18699646    0.38000000    2.57999992
   14.05305576  137.38600159    0.38000000    2.55999994
   14.05638885  142.85000610    0.38000000    2.55999994
   14.06222248  142.85000610    0.38000000    2.55999994
   14.06638908  155.72399902    0.40000001    2.55999994
   14.06972218  149.35400391    0.38000000    2.57999992
   14.07277775  143.69000244    0.38000000    2.57999992
   14.07611084  151.03199768    0.38000000    2.59999990
   14.07944393  147.46899414    0.41999999    2.57999992
   14.08249950  148.08000183    1.34000003    2.57999992
   14.08583260  141.85600281    1.91999996    2.57999992
   14.08916664  140.10400391    0.44000000    2.57999992
   14.09222221  141.84100342    0.41999999    2.57999992
   14.09472179  135.04200745    0.41999999    2.57999992
   14.09611034  141.62300110    0.41999999    2.57999992
   14.09916592  147.78399658    0.41999999    2.57999992
   14.10527802  147.78399658    0.40000001    2.57999992
   14.10916710  143.66099548    0.40000001    2.57999992
   14.11250019  138.88999939    0.36000001    2.57999992
   14.11583328  142.99000549    0.36000001    2.57999992
   14.11888885  147.94700623    0.38000000    2.57999992
   14.12222195  146.35699463    0.38000000    2.57999992
   14.12555599  126.32299805    0.38000000    2.57999992
   14.12805557  121.88899994    0.38000000    2.57999992
   14.12916660  139.78900146    0.38000000    2.57999992
   14.13249969  144.90100098    0.38000000    2.57999992
   14.13583279  136.52099609    0.38000000    2.57999992
   14.13888836  140.03700256    0.40000001    2.59999990
   14.14222240  138.36199951    0.40000001    2.59999990
   14.14805508  138.36199951    0.40000001    2.57999992
   14.15222168  138.30700684    0.40000001    2.57999992
   14.15527725  137.14100647    0.38000000    2.57999992
   14.15861034  141.82299805    0.38000000    2.57999992
   14.16138840  142.18699646    0.40000001    2.57999992
   14.16222191  143.77299500    0.38000000    2.57999992
   14.16527748  133.59500122    0.38000000    2.57999992
   14.16861153  146.58200073    0.38000000    2.57999992
   14.17194462  142.35600281    0.36000001    2.57999992
   14.17500019  130.28500366    0.38000000    2.59999990
   14.17833328  138.19099426    0.38000000    2.57999992
   14.18138885  138.38999939    0.38000000    2.57999992
   14.18472195  141.80499268    0.38000000    2.57999992
   14.19083309  141.80499268    0.40000001    2.57999992
   14.19499969  138.83299255    0.40000001    2.59999990
   14.19833374  138.80099487    0.40000001    2.59999990
   14.20138836  135.00599670    0.40000001    2.57999992
   14.20472240  154.93600464    0.40000001    2.59999990
   14.20777798  146.60699463    0.40000001    2.57999992
   14.21111107  143.50900269    0.40000001    2.57999992
   14.21444416  144.03900146    0.40000001    2.57999992
   14.21749973  153.58999634    0.40000001    2.57999992
   14.22083282  148.50399780    0.40000001    2.57999992
   14.22416592  146.20500183    0.40000001    2.59999990
   14.22722149  150.40299988    0.38000000    2.59999990
   14.22805500  154.12399292    0.38000000    2.59999990
   14.23361111  154.12399292    0.38000000    2.59999990
   14.23777771  143.30799866    0.38000000    2.61999989
   14.24111176  149.04400635    0.38000000    2.61999989
   14.24416733  136.63400269    0.40000001    2.59999990
   14.24750042  137.54899597    0.38000000    2.57999992
   14.25083351  147.27900696    0.36000001    2.57999992
   14.25416660  147.53700256    0.38000000    2.57999992
   14.25722218  150.50000000    0.38000000    2.59999990
   14.26055527  144.92100525    0.38000000    2.57999992
   14.26138878  143.16400146    0.38000000    2.59999990
   14.26416683  149.80799866    0.38000000    2.59999990
   14.26722240  152.37699890    0.38000000    2.59999990
   14.27055550  150.33500671    0.40000001    2.57999992
   14.27666664  150.33500671    0.40000001    2.59999990
   14.28055573  146.53100586    0.40000001    2.59999990
   14.28388977  146.76600647    0.41999999    2.59999990
   14.28722286  155.04400635    0.40000001    2.59999990
   14.29027843  162.30799866    0.41999999    2.59999990
   14.29361153  158.16999817    0.40000001    2.59999990
   14.29472256  163.67500305    0.40000001    2.59999990
   14.29722309  148.89300537    0.40000001    2.59999990
   14.30027771  154.16700745    0.38000000    2.59999990
   14.30361176  150.24299622    0.38000000    2.59999990
   14.30694485  170.06100464    0.36000001    2.59999990
   14.31000042  173.24899292    0.38000000    2.59999990
   14.31333351  159.97799683    0.38000000    2.59999990
   14.31944466  159.97799683    0.36000001    2.59999990
   14.32361126  164.93099976    0.36000001    2.59999990
   14.32666683  161.88600159    0.36000001    2.59999990
   14.32805538  155.65100098    0.36000001    2.59999990
   14.33055592  159.80799866    0.34000000    2.59999990
   14.33361053  154.78599548    0.34000000    2.61999989
   14.33694458  160.85800171    0.34000000    2.59999990
   14.34027767  162.57600403    0.36000001    2.61999989
   14.34333324  168.37100220    0.34000000    2.59999990
   14.34666634  149.36599731    0.34000000    2.61999989
   14.35000038  152.25399780    0.36000001    2.59999990
   14.35305595  149.98500061    0.34000000    2.59999990
   14.35638905  159.97999573    0.36000001    2.59999990
   14.36222267  159.97999573    0.36000001    2.59999990
   14.36638927  149.90299988    0.38000000    2.59999990
   14.36972237  168.09100342    0.38000000    2.59999990
   14.37277794  154.20599365    0.36000001    2.59999990
   14.37611103  151.19599915    0.36000001    2.61999989
   14.37916660  157.06900024    0.36000001    2.59999990
   14.38249969  155.24899292    0.36000001    2.59999990
   14.38583279  174.50199890    0.36000001    2.59999990
   14.38888836  165.10699463    0.36000001    2.59999990
   14.39222240  173.58000183    0.36000001    2.59999990
   14.39472198  180.13400269    0.34000000    2.59999990
   14.39583302  168.65699768    0.34000000    2.59999990
   14.39888859  170.61099243    0.36000001    2.59999990
   14.40499973  170.61099243    0.36000001    2.59999990
   14.40916634  165.25500488    0.34000000    2.61999989
   14.41249943  151.67100525    0.36000001    2.61999989
   14.41555500  162.96600342    0.36000001    2.61999989
   14.41888905  181.34899902    0.36000001    2.59999990
   14.42222214  165.73500061    0.36000001    2.59999990
   14.42527771  158.04899597    0.36000001    2.61999989
   14.42805576  186.36700439    0.36000001    2.61999989
   14.42916679  150.07400513    0.38000000    2.61999989
   14.43249989  172.65600586    0.36000001    2.61999989
   14.43583298  151.82299805    0.36000001    2.61999989
   14.43888855  154.59700012    0.36000001    2.61999989
   14.44222260  175.78100586    0.36000001    2.61999989
   14.44805527  175.78100586    0.36000001    2.61999989
   14.45194435  168.82299805    0.36000001    2.59999990
   14.45527744  149.62500000    0.36000001    2.61999989
   14.45861053  179.96699524    0.36000001    2.61999989
   14.46138859  172.30299377    0.36000001    2.61999989
   14.46222210  163.41299438    0.36000001    2.61999989
   14.46527767  159.42500305    0.36000001    2.61999989
   14.46861076  163.33200073    0.34000000    2.61999989
   14.47194386  182.07600403    0.36000001    2.59999990
   14.47499943  194.45799255    0.36000001    2.59999990
   14.47833252  171.08900452    0.36000001    2.59999990
   14.48166656  164.80999756    0.36000001    2.61999989
   14.48472214  161.29200745    0.36000001    2.61999989
   14.49083328  161.29200745    0.36000001    2.61999989
   14.49499989  160.14500427    0.36000001    2.61999989
   14.49805546  159.02200317    0.34000000    2.64000010
   14.50138855  162.54499817    0.34000000    2.64000010
   14.50472260  141.28799438    0.36000001    2.64000010
   14.50777817  157.61300659    0.34000000    2.61999989
   14.51111126  149.67199707    0.34000000    2.64000010
   14.51416683  137.29200745    0.34000000    2.61999989
   14.51749992  150.15499878    0.34000000    2.61999989
   14.52083302  133.46400452    0.34000000    2.61999989
   14.52388859  143.91499329    0.36000001    2.61999989
   14.52722168  160.00500488    0.34000000    2.61999989
   14.52805519  146.07200623    0.34000000    2.61999989
   14.53361130  146.07200623    0.36000001    2.64000010
   14.53777790  156.68600464    0.34000000    2.61999989
   14.54111195  132.39399719    0.34000000    2.61999989
   14.54416752  171.30299377    0.36000001    2.64000010
   14.56166649  147.22000122    0.36000001    2.64000010
   14.56416702  142.43200684    0.36000001    2.64000010
   14.56750011  135.89700317    0.36000001    2.61999989
   14.57055569  137.35800171    0.36000001    2.61999989
   14.57666683  137.35800171    0.36000001    2.61999989
   14.58083344  142.44999695    0.36000001    2.64000010
   14.58388901  145.24299622    0.34000000    2.64000010
   14.58722210  141.87500000    0.34000000    2.64000010
   14.59055519  141.48100281    0.36000001    2.64000010
   14.59361076  126.23600006    0.34000000    2.64000010
   14.59499931  126.49199677    0.36000001    2.64000010
   14.59749985  132.41400146    0.34000000    2.61999989
   14.60055637  130.88200378    0.34000000    2.61999989
   14.60388947  129.50900269    0.36000001    2.61999989
   14.60722256  135.63000488    0.34000000    2.61999989
   14.61027813  136.23300171    0.34000000    2.61999989
   14.61361122  120.06500244    0.36000001    2.61999989
   14.61944485  120.06500244    0.36000001    2.61999989
   14.62361145  124.68099976    0.38000000    2.64000010
   14.62694454  122.51100159    0.38000000    2.61999989
   14.62833309  129.92399597    0.38000000    2.61999989
   14.63055611  132.89500427    0.40000001    2.61999989
   14.63361073  133.10400391    0.40000001    2.61999989
   14.63694477  140.74600220    0.38000000    2.61999989
   14.64027786  130.22000122    0.38000000    2.64000010
   14.64333344  123.50399780    0.38000000    2.61999989
   14.64666653  133.36599731    0.38000000    2.64000010
   14.64972210  121.99700165    0.38000000    2.61999989
   14.65305519  134.53199768    0.38000000    2.61999989
   14.65638828  137.89100647    0.40000001    2.61999989
   14.66222191  137.89100647    0.40000001    2.64000010
   14.66638851  132.90699768    0.41999999    2.64000010
   14.66972256  135.45899963    0.41999999    2.64000010
   14.67305565  152.37800598    0.41999999    2.64000010
   14.67611122  133.43099976    0.44000000    2.64000010
   14.67944431  120.28099823    0.44000000    2.64000010
   14.68277836  127.57099915    0.44000000    2.64000010
   14.68583298  130.51199341    0.46000001    2.66000009
   14.68916702  113.16300201    0.46000001    2.64000010
   14.69250011  135.60400391    0.46000001    2.64000010
   14.69499969  121.77400208    0.47999999    2.64000010
   14.69611073  136.18099976    0.47999999    2.66000009
   14.69916630  127.70500183    0.47999999    2.64000010
   14.70527744  127.70500183    0.47999999    2.64000010
   14.70944405  134.26400757    0.47999999    2.64000010
   14.71249962  131.10200500    0.50000000    2.64000010
   14.71583271  132.99099731    0.50000000    2.64000010
   14.71916580  134.24200439    0.50000000    2.64000010
   14.72222137  126.64600372    0.50000000    2.64000010
   14.72555542  123.61799622    0.47999999    2.64000010
   14.72833252  135.42300415    0.46000001    2.64000010
   14.72916603  137.76699829    0.46000001    2.64000010
   14.73222160  142.45399475    0.44000000    2.64000010
   14.73555565  137.42100525    0.46000001    2.64000010
   14.73888874  133.64399719    0.50000000    2.64000010
   14.74194431  129.47999573    0.50000000    2.64000010
   14.74805546  129.47999573    0.47999999    2.64000010
   14.75222206  143.80200195    0.46000001    2.64000010
   14.75527763  136.66700745    0.46000001    2.66000009
   14.75861073  127.31099701    0.46000001    2.64000010
   14.76166630  133.18099976    0.47999999    2.66000009
   14.76222229  133.46499634    0.47999999    2.66000009
   14.76555538  140.74099731    0.46000001    2.64000010
   14.76861095  141.33700562    0.46000001    2.64000010
   14.77194405  134.10699463    0.46000001    2.64000010
   14.77499962  131.22500610    0.46000001    2.64000010
   14.77833271  136.67399597    0.46000001    2.64000010
   14.78166676  148.46299744    0.46000001    2.64000010
   14.78472233  133.99600220    0.47999999    2.64000010
   14.79083347  133.99600220    0.44000000    2.64000010
   14.79500008  129.66000366    0.46000001    2.64000010
   14.79833412  141.02799988    0.46000001    2.64000010
   14.80138874  143.68400574    0.46000001    2.64000010
   14.80472279  134.29699707    0.46000001    2.64000010
   14.80805588  139.31599426    0.44000000    2.66000009
   14.81111145  129.62899780    0.44000000    2.64000010
   14.81444454  135.81599426    0.40000001    2.66000009
   14.81750011  125.91200256    0.47999999    2.66000009
   14.82083321  134.13299561    0.50000000    2.66000009
   14.82416630  134.92900085    0.47999999    2.64000010
   14.82722187  134.83200073    0.51999998    2.64000010
   14.82833290  130.69999695    0.52999997    2.66000009
   14.83361053  130.69999695    0.55000001    2.66000009
   14.83777714  131.08000183    1.25000000    2.64000010
   14.84111118  130.36799622    1.38000000    2.66000009
   14.84444427  135.20599365    3.01999998    2.66000009
   14.84749985  132.55099487    3.75000000    2.66000009
   14.85083389  134.13900757    3.32999992    2.66000009
   14.85388947  128.77000427    3.25000000    2.66000009
   14.85722256  131.88600159    2.75000000    2.66000009
   14.86055565  133.46600342    1.91999996    2.66000009
   14.86166668  140.52900696    1.78999996    2.66000009
   14.86416721  148.78700256    2.51999998    2.66000009
   14.86722279  142.82899475    3.80999994    2.64000010
   14.87055588  144.56199646    3.36999989    2.64000010
   14.87666702  144.56199646    2.28999996    2.64000010
   14.88083363  143.52400208    3.00000000    2.64000010
   14.88388920  139.22200012    3.89000010    2.64000010
   14.88722229  139.89500427    4.90999985    2.64000010
   14.89027786  138.15600586    4.90999985    2.61999989
   14.89361095  125.81500244    4.90999985    2.59999990
   14.89499950  142.13099670    4.90999985    2.61999989
   14.89722252  140.44200134    4.90999985    2.59999990
   14.90027714  128.60400391    3.32999992    2.48000002
   14.90361118  135.53900146    4.90999985    2.66000009
   14.90694427  141.12800598    4.90999985    2.61999989
   14.90999985  134.05400085    4.90999985    2.57999992
   14.91333294  129.95399475    4.90999985    2.59999990
   14.91944504  129.95399475    3.45000005    2.59999990
   14.92361164  128.51199341    2.55999994    2.64000010
   14.92666721  134.97399902    1.01999998    2.64000010
   14.92833328  136.32299805    0.92000002    2.64000010
   14.93055630  131.20500183    0.80000001    2.64000010
   14.93361092  135.63000488    0.76999998    2.64000010
   14.93694496  136.20799255    0.63000000    2.66000009
   14.94027805  133.33399963    0.63000000    2.66000009
   14.94333363  131.07800293    0.79000002    2.64000010
   14.94666672  134.37199402    1.16999996    2.66000009
   14.94999981  129.28999329    1.25000000    2.66000009
   14.95305538  122.70899963    1.39999998    2.66000009
   14.95638847  135.74899292    1.41999996    2.64000010
   14.96222210  135.74899292    2.64000010    2.57999992
   14.96638870  133.88600159    1.64999998    2.66000009
   14.96972179  131.25100708    1.51999998    2.66000009
   14.97277737  127.59300232    1.53999996    2.66000009
   14.97611046  140.00199890    2.03999996    2.64000010
   14.97916603  132.50000000    2.98000002    2.66000009
   14.98249912  138.84700012    3.73000002    2.66000009
   14.98583317  120.77600098    4.53000021    2.66000009
   14.98888874  142.11500549    4.90999985    2.66000009
   14.99222279  134.69099426    4.90999985    2.64000010
   14.99499989  131.94799805    4.67999983    2.59999990
   14.99583340  129.20300293    4.67999983    2.59999990
   14.99888897  119.94200134    4.90999985    2.59999990
   15.00500011  119.94200134    4.90999985    2.55999994
   15.00916672  123.36299896    4.90999985    2.53999996
   15.01249981  123.51599884    4.90999985    2.61999989
   15.01555538  162.96499634    4.90999985    2.61999989
   15.01888847  147.36700439    4.90999985    2.34999990
   15.02222157  155.35899353    4.90999985    2.55999994
   15.02527714  133.79100037    4.90999985    2.51999998
   15.02833271  135.09300232    4.90999985    2.64000010
   15.02916622  127.91899872    4.90999985    2.55999994
   15.03222179  141.59100342    4.90999985    2.59999990
   15.03555584  134.66400146    4.90999985    2.64000010
   15.03888893  128.25999451    4.90999985    2.64000010
   15.04194450  146.21099854    4.90999985    2.61999989
   15.04805565  146.21099854    4.90999985    2.59999990
   15.05194473  147.68499756    4.03999996    2.66000009
   15.05527782  149.59599304    2.51999998    2.67000008
   15.05861092  139.16400146    1.16999996    2.64000010
   15.06166649  135.64999390    1.03999996    2.66000009
   15.06222248  135.63400269    0.98000002    2.66000009
   15.06527805  132.71299744    0.64999998    2.64000010
   15.06861115  130.52600098    0.55000001    2.66000009
   15.07194424  130.66999817    0.52999997    2.66000009
   15.07499981  113.42099762    0.61000001    2.66000009
   15.07833290  134.33299255    0.69000000    2.66000009
   15.08166695  138.02400208    0.83999997    2.66000009
   15.08472157  150.05900574    0.83999997    2.66000009
   15.09083271  150.05900574    0.86000001    2.67000008
   15.09499931  135.59899902    0.70999998    2.66000009
   15.09555531  139.46400452    0.70999998    2.66000009
   15.09861088  133.91299438    0.50000000    2.67000008
   15.10194492  128.08799744    0.44000000    2.66000009
   15.10527802  129.71099854    0.44000000    2.66000009
   15.10833359  145.16299438    0.41999999    2.67000008
   15.11166668  138.52099609    0.40000001    2.67000008
   15.11500072  136.78100586    0.40000001    2.67000008
   15.11805534  137.67999268    0.41999999    2.66000009
   15.12138939  121.01599884    0.41999999    2.67000008
   15.12444496  134.37899780    0.44000000    2.67000008
   15.12777805  145.14799500    0.46000001    2.67000008
   15.12888908  148.85699463    0.46000001    2.67000008
   15.13361073  148.85699463    0.46000001    2.67000008
   15.13777733  156.73500061    1.30999994    2.67000008
   15.14111137  150.25999451    2.00000000    2.67000008
   15.14416695  159.46699524    3.76999998    2.66000009
   15.14750004  154.57800293    3.84999990    2.61999989
   15.15055561  140.57200623    4.84999990    2.66000009
   15.15388870  161.52299500    4.90999985    2.61999989
   15.15722179  159.64799500    4.90999985    2.67000008
   15.16027737  165.69200134    4.90999985    2.57999992
   15.16222191  145.11500549    4.61999989    2.64000010
   15.16388893  145.11000061    4.19999981    2.64000010
   15.16722298  160.21899414    3.14000010    2.66000009
   15.17055607  143.22099304    2.51999998    2.67000008
   15.17638874  143.22099304    2.76999998    2.66000009
   15.18055630  152.73899841    2.44000006    2.61999989
   15.18388939  162.42900085    1.66999996    2.66000009
   15.18694496  162.12500000    1.41999996    2.67000008
   15.19027805  168.45899963    1.53999996    2.66000009
   15.19361115  179.58500671    4.23999977    2.66000009
   15.19555569  170.76499939    4.90999985    2.66000009
   15.19694424  169.10200500    4.90999985    2.64000010
   15.20027733  186.74200439    4.90999985    2.64000010
   15.20361137  194.36799622    4.90999985    2.64000010
   15.20666695  171.69200134    4.90999985    2.61999989
   15.21000004  197.44599915    4.90999985    2.61999989
   15.21305561  194.97799683    4.90999985    2.64000010
   15.21944427  194.97799683    4.90999985    2.61999989
   15.22361088  156.13000488    4.90999985    2.50000000
   15.22666645  174.10499573    4.11999989    2.64000010
   15.22888851  186.27400208    3.26999998    2.67000008
   15.23027706  173.82400513    2.19000006    2.66000009
   15.23361111  164.38400269    0.79000002    2.67000008
   15.23694515  173.09899902    0.73000002    2.67000008
   15.24000072  169.49899292    0.67000002    2.66000009
   15.24333382  185.89300537    0.61000001    2.66000009
   15.24666691  168.75399780    0.38000000    2.67000008
   15.24972248  180.35899353    0.36000001    2.66000009
   15.25305557  156.76199341    0.36000001    2.69000006
   15.25611115  182.87600708    0.36000001    2.66000009
   15.26222229  182.87600708    0.36000001    2.66000009
   15.26638889  157.22700500    0.34000000    2.67000008
   15.26944447  178.11599731    0.34000000    2.67000008
   15.27277756  154.31700134    0.34000000    2.69000006
   15.27611065  150.54600525    0.34000000    2.67000008
   15.27916622  147.09500122    0.34000000    2.67000008
   15.28249931  159.23599243    0.34000000    2.67000008
   15.28583336  168.13900757    0.34000000    2.67000008
   15.28888893  143.02400208    0.36000001    2.67000008
   15.29222298  132.90299988    0.41999999    2.67000008
   15.29527855  151.25599670    0.41999999    2.67000008
   15.29722309  152.89999390    0.47999999    2.67000008
   15.29916668  159.26100159    0.40000001    2.67000008
   15.30500031  159.26100159    0.34000000    2.67000008
   15.30916691  159.86900330    0.31999999    2.67000008
   15.31250000  148.90299988    0.34000000    2.67000008
   15.31555557  168.41799927    0.31999999    2.67000008
   15.31888866  126.22200012    0.31999999    2.67000008
   15.32194424  156.11900330    0.31999999    2.67000008
   15.32527733  148.11500549    0.31999999    2.67000008
   15.32861137  144.75500488    0.34000000    2.67000008
   15.33055592  137.95500183    0.34000000    2.67000008
   15.33222198  148.36399841    0.34000000    2.69000006
   15.33527756  116.71800232    0.34000000    2.67000008
   15.33861065  132.46000671    0.34000000    2.67000008
   15.34194374  150.73199463    0.34000000    2.69000006
   15.34777737  150.73199463    0.34000000    2.69000006
   15.35194492  144.40299988    0.34000000    2.67000008
   15.35527802  136.76199341    0.36000001    2.67000008
   15.35833359  144.37899780    0.36000001    2.67000008
   15.36166668  137.91299438    0.58999997    2.67000008
   15.36527824   -1.00000000    0.50000000    2.69000006
   15.36861134   -1.00000000    0.41999999    2.69000006
   15.37166691   -1.00000000    0.41999999    2.69000006
   15.45916653   -1.00000000   -1.00000000   -1.00000000
   15.55805588   -1.00000000   -1.00000000   -1.00000000
   15.68555546   -1.00000000   -1.00000000   -1.00000000
   15.88805580   90.40339661    0.31999999    2.69000006
   15.89138889  126.30200195    0.34000000    2.71000004
   15.89444447  137.77299500    0.34000000    2.71000004
   15.89777756  127.49099731    0.34000000    2.71000004
   15.90111065  136.29699707    0.34000000    2.71000004
   15.90416622  134.66200256    0.34000000    2.69000006
   15.90833282  134.66200256    0.31999999    2.69000006
   15.91249943  127.16400146    0.31999999    2.69000006
   15.91583252  146.75599670    0.31999999    2.69000006
   15.91888905  133.27299500    0.31999999    2.69000006
   15.92138958  145.54299927    0.30000001    2.69000006
   15.92277813  144.66200256    0.30000001    2.69000006
   15.92583370  139.52400208    0.30000001    2.71000004
   15.92916679  123.72599792    0.31999999    2.69000006
   15.93249989  143.24499512    0.31999999    2.69000006
   15.93555546  149.57800293    0.31999999    2.71000004
   15.93888855  139.83500671    0.31999999    2.71000004
   15.94222260  150.93699646    0.31999999    2.69000006
   15.94527817  149.74099731    0.31999999    2.69000006
   15.95138836  149.74099731    0.31999999    2.71000004
   15.95527744  159.62800598    0.31999999    2.71000004
   15.95861053  152.96499634    0.31999999    2.71000004
   15.96194458  158.44099426    0.31999999    2.69000006
   15.96500015  150.93699646    0.31999999    2.71000004
   15.96833324  145.76800537    0.31999999    2.69000006
   15.97166634  139.10699463    0.30000001    2.71000004
   15.97472191  145.17500305    0.30000001    2.71000004
   15.97805500  143.11099243    0.30000001    2.69000006
   15.98138809  138.89900208    0.31999999    2.71000004
   15.98444462  137.87899780    0.31999999    2.71000004
   15.98777771  137.83000183    0.31999999    2.71000004
   15.98833370  138.36999512    0.31999999    2.71000004
   15.99416733  138.36999512    0.31999999    2.71000004
   15.99833393  121.60800171    0.34000000    2.71000004
   16.00138855  142.76199341    0.34000000    2.71000004
   16.00472260  130.96000671    0.34000000    2.71000004
   16.00805473  131.08399963    0.51999998    2.69000006
   16.01111031  122.08300018    0.55000001    2.71000004
   16.01444435  122.91100311    0.47999999    2.69000006
   16.01749992  132.14300537    0.44000000    2.71000004
   16.02083397  142.94599915    0.38000000    2.69000006
   16.02166557  124.93900299    0.38000000    2.71000004
   16.02444458  131.19999695    0.38000000    2.71000004
   16.02777672  143.04699707    0.36000001    2.71000004
   16.03111076  138.33200073    0.36000001    2.71000004
   16.03694344  138.33200073    0.36000001    2.69000006
   16.04111099  133.73300171    0.36000001    2.69000006
   16.04416656  138.49800110    0.36000001    2.69000006
   16.04749870  141.22900391    0.34000000    2.71000004
   16.05083275  131.23399353    0.36000001    2.71000004
   16.05388832  129.50599670    0.36000001    2.71000004
   16.05499840  133.82699585    0.34000000    2.71000004
   16.05749893  130.97399902    0.34000000    2.71000004
   16.06083298  131.59100342    0.34000000    2.71000004
   16.06416512  140.80200195    0.34000000    2.71000004
   16.06722260  128.28300476    0.34000000    2.69000006
   16.07055664  127.21700287    0.31999999    2.69000006
   16.07389069  123.49299622    0.31999999    2.69000006
   16.07972336  123.49299622    0.34000000    2.71000004
   16.08388901  130.48399353    0.34000000    2.71000004
   16.08722305  134.94500732    0.34000000    2.71000004
   16.08833313  130.63000488    0.31999999    2.71000004
   16.09083366  119.83899689    0.34000000    2.69000006
   16.09416771  123.88200378    0.34000000    2.71000004
   16.09749985  125.35500336    0.31999999    2.69000006
   16.10055542  126.17199707    0.31999999    2.71000004
   16.10388947  130.75300598    0.31999999    2.71000004
   16.10694504  137.42199707    0.34000000    2.69000006
   16.11027908  135.92300415    0.31999999    2.71000004
   16.11361122  136.38900757    0.31999999    2.71000004
   16.11666679  118.94400024    0.31999999    2.69000006
   16.12249947  118.94400024    0.31999999    2.71000004
   16.12666702  120.43699646    0.31999999    2.71000004
   16.13000107  118.41999817    0.31999999    2.71000004
   16.13333321  121.72299957    0.31999999    2.71000004
   16.13638878  126.55999756    0.31999999    2.71000004
   16.13972282  119.06300354    0.31999999    2.71000004
   16.14277840  115.19599915    0.31999999    2.69000006
   16.14611053  120.95999908    0.31999999    2.69000006
   16.14944458  125.09200287    0.31999999    2.69000006
   16.15250015  115.14800262    0.31999999    2.71000004
   16.15499878  125.19000244    0.31999999    2.69000006
   16.15611076  122.50499725    0.31999999    2.69000006
   16.15944481  109.83000183    0.30000001    2.69000006
   16.16555595  109.83000183    0.30000001    2.69000006
   16.16972160  126.57800293    0.31999999    2.71000004
   16.17277718  115.93399811    0.30000001    2.71000004
   16.17611122  103.48999786    0.31999999    2.71000004
   16.17916679  108.16000366    0.31999999    2.69000006
   16.18249893  104.79100037    0.31999999    2.69000006
   16.18583298  119.77999878    0.31999999    2.69000006
   16.18833160  106.41300201    0.31999999    2.69000006
   16.18916512  108.07700348    0.31999999    2.71000004
   16.19249916  112.35299683    0.31999999    2.71000004
   16.19583321  112.71199799    0.34000000    2.69000006
   16.19888878  115.36100006    0.36000001    2.71000004
   16.20222282  120.81800079    0.38000000    2.71000004
   16.20833397  120.81800079    0.38000000    2.73000002
   16.21250153  104.90200043    0.41999999    2.71000004
   16.21555710  119.80400085    1.63000000    2.71000004
   16.21888924  111.48999786    0.36000001    2.71000004
   16.22166634  121.06700134    0.36000001    2.69000006
   16.22249985  123.37300110    0.36000001    2.69000006
   16.22583389  116.80100250    0.36000001    2.71000004
   16.22916794  125.87500000    0.36000001    2.71000004
   16.23222351  117.51399994    0.34000000    2.69000006
   16.23555565  114.13500214    0.34000000    2.71000004
   16.23888969  109.44000244    0.34000000    2.71000004
   16.24194527  119.19999695    0.31999999    2.71000004
   16.24527740  123.45200348    0.31999999    2.71000004
   16.25111198  123.45200348    0.31999999    2.71000004
   16.25527763  114.65299988    0.31999999    2.71000004
   16.25861168  121.66300201    0.31999999    2.71000004
   16.26166725  118.72899628    0.31999999    2.71000004
   16.26499939  121.09100342    0.30000001    2.71000004
   16.26833344  113.74199677    0.31999999    2.71000004
   16.27138901  111.25299835    0.30000001    2.69000006
   16.27472115  116.95999908    0.30000001    2.71000004
   16.27777672  108.83499908    0.30000001    2.71000004
   16.28111076  114.16600037    0.30000001    2.71000004
   16.28444481  111.73400116    0.30000001    2.71000004
   16.28750038  127.34100342    0.30000001    2.71000004
   16.28833199  121.62999725    0.30000001    2.71000004
   16.29416656  121.62999725    0.30000001    2.71000004
   16.29805565  133.78999329    0.30000001    2.69000006
   16.30138779  114.48100281    0.30000001    2.71000004
   16.30472183  130.47300720    0.30000001    2.71000004
   16.30777740  123.49800110    0.30000001    2.71000004
   16.31110954  122.61599731    0.30000001    2.69000006
   16.31444359  126.01799774    0.30000001    2.69000006
   16.31750107  120.54100037    0.30000001    2.71000004
   16.32083511  133.67100525    0.30000001    2.71000004
   16.32166672  126.36799622    0.31999999    2.73000002
   16.32416725  126.30599976    0.30000001    2.71000004
   16.32750130  130.59500122    0.30000001    2.71000004
   16.33083344  132.44099426    0.31999999    2.71000004
   16.33694458  132.44099426    0.30000001    2.71000004
   16.34111214  122.11900330    0.30000001    2.71000004
   16.34416771  125.46299744    0.30000001    2.71000004
   16.34749985  122.68599701    0.30000001    2.71000004
   16.35055542  123.15599823    0.30000001    2.71000004
   16.35388947  129.90199280    0.30000001    2.71000004
   16.35499954  127.19200134    0.30000001    2.71000004
   16.35750008  126.64199829    0.30000001    2.71000004
   16.36083412  127.74800110    0.30000001    2.71000004
   16.36416626  122.88300323    0.30000001    2.69000006
   16.36722183  132.13499451    0.30000001    2.71000004
   16.37055588  129.83299255    0.30000001    2.71000004
   16.37388992  128.58200073    0.30000001    2.71000004
   16.37972260  128.58200073    0.31999999    2.71000004
   16.38388824  123.37699890    0.31999999    2.71000004
   16.38722229  115.48799896    0.30000001    2.69000006
   16.38833237  118.71600342    0.30000001    2.69000006
   16.39055634  123.10900116    0.30000001    2.71000004
   16.39388847  124.36599731    0.30000001    2.71000004
   16.39722252  129.57600403    0.30000001    2.69000006
   16.40027809  118.35199738    0.31999999    2.71000004
   16.40361023  123.66200256    0.30000001    2.71000004
   16.40694427  121.70400238    0.30000001    2.71000004
   16.40999985  119.98799896    0.30000001    2.71000004
   16.41333389  119.62100220    0.31999999    2.71000004
   16.41666603  111.49199677    0.31999999    2.69000006
   16.42249870  111.49199677    0.31999999    2.71000004
   16.42666626  125.11799622    0.31999999    2.71000004
   16.43000031  125.11900330    0.31999999    2.71000004
   16.43305397  120.11100006    0.31999999    2.71000004
   16.43638802  122.34700012    0.31999999    2.71000004
   16.43972206  123.06900024    0.31999999    2.71000004
   16.44277763  122.65699768    0.31999999    2.71000004
   16.44610977  131.16799927    0.31999999    2.69000006
   16.44916534  124.42400360    0.31999999    2.69000006
   16.45250130  118.61199951    0.31999999    2.71000004
   16.45499992  123.04399872    0.31999999    2.71000004
   16.45639038  127.25099945    0.31999999    2.71000004
   16.45944595  127.44000244    0.31999999    2.71000004
   16.46527863  127.44000244    0.31999999    2.69000006
   16.46944427  108.50700378    0.31999999    2.71000004
   16.47277832  121.07199860    0.31999999    2.71000004
   16.47611237  121.92700195    0.31999999    2.71000004
   16.47944450  118.26899719    0.31999999    2.71000004
   16.48277855  120.00800323    0.31999999    2.69000006
   16.48583412  131.89100647    0.31999999    2.73000002
   16.48833275  134.42199707    0.31999999    2.71000004
   16.48972321  128.99400330    0.31999999    2.71000004
   16.49277878  125.32599640    0.31999999    2.71000004
   16.49611092  131.39100647    0.31999999    2.71000004
   16.49916649  121.07599640    0.31999999    2.71000004
   16.50250053  118.11599731    0.31999999    2.71000004
   16.50833321  118.11599731    0.31999999    2.71000004
   16.51250076  107.23899841    0.31999999    2.71000004
   16.51555634  121.86900330    0.31999999    2.71000004
   16.51888847  114.39900208    0.31999999    2.71000004
   16.52166557  118.86699677    0.31999999    2.71000004
   16.52249908  108.02700043    0.31999999    2.71000004
   16.52555466  117.87300110    0.31999999    2.71000004
   16.52888870  116.25199890    0.31999999    2.71000004
   16.53194427  110.89199829    0.31999999    2.69000006
   16.53527641  115.87999725    0.31999999    2.69000006
   16.53861046  114.53399658    0.31999999    2.71000004
   16.54166603  111.69000244    0.31999999    2.71000004
   16.54500008  109.77899933    0.34000000    2.71000004
   16.55111122  109.77899933    0.31999999    2.71000004
   16.55527687  117.87300110    0.31999999    2.71000004
   16.55861092  122.65799713    0.31999999    2.71000004
   16.56166649  115.48799896    0.31999999    2.71000004
   16.56499863  109.06600189    0.34000000    2.71000004
   16.56833458  122.74800110    0.34000000    2.73000002
   16.57139015  122.03199768    0.34000000    2.69000006
   16.57472229  117.92900085    0.34000000    2.71000004
   16.57777786  114.94000244    0.34000000    2.71000004
   16.58111191  116.22599792    0.34000000    2.71000004
   16.58444595  119.17800140    0.34000000    2.71000004
   16.58750153  121.10299683    0.31999999    2.71000004
   16.58833313  115.18399811    0.34000000    2.73000002
   16.59388924  115.18399811    0.34000000    2.71000004
   16.59805679  114.12999725    0.31999999    2.71000004
   16.60138893  120.60900116    0.34000000    2.71000004
   16.60444450  117.61100006    0.31999999    2.71000004
   16.60777855  109.02899933    0.34000000    2.71000004
   16.61111069  124.76100159    0.34000000    2.71000004
   16.61416626  123.17299652    0.34000000    2.71000004
   16.61750031  110.12300110    0.31999999    2.71000004
   16.62083435  126.76399994    0.31999999    2.69000006
   16.62166595  123.46399689    0.31999999    2.69000006
   16.62444496  110.79699707    0.34000000    2.71000004
   16.62750053  124.26799774    0.31999999    2.71000004
   16.63083267  116.43399811    0.31999999    2.71000004
   16.63666725  116.43399811    0.31999999    2.71000004
   16.64083290  120.30400085    0.31999999    2.71000004
   16.64416695  113.76300049    0.31999999    2.71000004
   16.64749908  115.89499664    0.31999999    2.71000004
   16.65083313  117.80899811    0.31999999    2.71000004
   16.65416718  118.18099976    0.31999999    2.71000004
   16.65499878  119.91400146    0.31999999    2.71000004
   16.65777779  110.29499817    0.31999999    2.69000006
   16.66083336  112.75099945    0.31999999    2.71000004
   16.66416550  115.60299683    0.34000000    2.71000004
   16.66749954  119.65299988    0.34000000    2.71000004
   16.67055511  122.34300232    0.31999999    2.71000004
   16.67388916  112.83399963    0.31999999    2.69000006
   16.67972183  112.83399963    0.34000000    2.71000004
   16.68388748  113.33399963    0.31999999    2.71000004
   16.68694305  116.25700378    0.31999999    2.71000004
   16.68833160  117.13600159    0.34000000    2.71000004
   16.69083214  121.35900116    0.34000000    2.71000004
   16.69388771  111.45300293    0.36000001    2.71000004
   16.69722176  107.86699677    0.36000001    2.71000004
   16.70055580  107.61000061    0.34000000    2.71000004
   16.70361137  112.55400085    0.31999999    2.71000004
   16.70694542  104.65000153    0.31999999    2.71000004
   16.71000099  106.87599945    0.31999999    2.71000004
   16.71333504  115.34400177    0.31999999    2.71000004
   16.71666718  111.03199768    0.30000001    2.71000004
   16.72249985  111.03199768    0.30000001    2.71000004
   16.72666740  106.59100342    0.31999999    2.71000004
   16.72972298  111.18399811    0.30000001    2.71000004
   16.73305511  109.73999786    0.30000001    2.71000004
   16.73638916  107.19400024    0.30000001    2.71000004
   16.73944473  114.28500366    0.30000001    2.71000004
   16.74277878  106.76899719    0.31999999    2.69000006
   16.74611092  109.00499725    0.30000001    2.71000004
   16.74916649  111.80699921    0.30000001    2.71000004
   16.75250053  111.01000214    0.30000001    2.71000004
   16.75499916  113.05000305    0.30000001    2.71000004
   16.75611115  105.40899658    0.30000001    2.71000004
   16.75916672  105.15699768    0.30000001    2.71000004
   16.76527786  105.15699768    0.30000001    2.71000004
   16.76944351   99.24289703    0.30000001    2.71000004
   16.77277756   95.89240265    0.30000001    2.69000006
   16.77583313   96.92060089    0.30000001    2.69000006
   16.77916718  106.66500092    0.30000001    2.71000004
   16.78249931  103.92299652    0.30000001    2.71000004
   16.78555489  107.13800049    0.28000000    2.71000004
   16.78833199  103.42099762    0.28000000    2.71000004
   16.78944397  113.35900116    0.28000000    2.71000004
   16.79249954   99.21749878    0.28000000    2.71000004
   16.79583359  105.43800354    0.30000001    2.71000004
   16.79916573   95.64689636    0.30000001    2.69000006
   16.80222130  101.90299988    0.30000001    2.71000004
   16.80805397  101.90299988    0.30000001    2.71000004
   16.81222153   96.23500061    0.30000001    2.71000004
   16.81555557  104.19000244    0.28000000    2.71000004
   16.81888962  105.32399750    0.28000000    2.71000004
   16.82166672  100.12799835    0.28000000    2.71000004
   16.82250023  102.21199799    0.28000000    2.71000004
   16.82555580  109.95300293    0.28000000    2.71000004
   16.82888985  110.50199890    0.28000000    2.71000004
   16.83222389  108.33399963    0.30000001    2.71000004
   16.83527756  102.40000153    0.28000000    2.71000004
   16.83861160  103.84100342    0.28000000    2.71000004
   16.84194565  102.54100037    0.28000000    2.69000006
   16.84500122  101.37000275    0.28000000    2.71000004
   16.85111237  101.37000275    0.28000000    2.73000002
   16.85527802  108.32399750    0.28000000    2.71000004
   16.85833359   98.66739655    0.28000000    2.73000002
   16.86166763  104.31600189    0.28000000    2.71000004
   16.86472321  106.43000031    0.28000000    2.71000004
   16.86805534  106.07199860    0.28000000    2.71000004
   16.87138939  109.03900146    0.28000000    2.71000004
   16.87444496  101.18399811    0.28000000    2.71000004
   16.87777710  106.46099854    0.28000000    2.71000004
   16.88111115   96.06159973    0.28000000    2.71000004
   16.88416672  104.43000031    0.28000000    2.71000004
   16.88750076  106.37100220    0.28000000    2.71000004
   16.88833237  104.99099731    0.28000000    2.71000004
   16.90916634  104.99099731    0.28000000    2.71000004
   16.91305542  117.12400055    0.28000000    2.71000004
   16.91638756  119.57099915    0.28000000    2.69000006
   16.91972160  121.61299896    0.28000000    2.71000004
   16.92166519  120.56500244    0.28000000    2.71000004
   16.92333221  123.22100067    0.28000000    2.71000004
   16.92638779  123.96299744    0.28000000    2.73000002
   16.92972183  121.80999756    0.28000000    2.71000004
   16.93305397  130.90100098    0.30000001    2.71000004
   16.93610954  130.41099548    0.28000000    2.71000004
   16.93944359  121.91699982    0.28000000    2.71000004
   16.94277763  128.93499756    0.28000000    2.71000004
   16.94583321  124.29699707    0.28000000    2.71000004
   16.95166779  124.29699707    0.30000001    2.71000004
   16.95583344  129.86799622    0.28000000    2.71000004
   16.95916748  122.24500275    0.28000000    2.71000004
   16.96250153  132.08399963    0.28000000    2.71000004
   16.96555710  109.64199829    0.28000000    2.73000002
   16.96888924  126.74400330    0.28000000    2.71000004
   16.97194481  110.84300232    0.28000000    2.71000004
   16.97527885  128.05900574    0.28000000    2.71000004
   16.97861099  133.50999451    0.28000000    2.71000004
   16.98166656  128.71600342    0.28000000    2.71000004
   16.98500061  119.32700348    0.28000000    2.71000004
   16.98833275  110.77700043    0.28000000    2.71000004
   16.98861122  124.90399933    0.28000000    2.71000004
   16.99472237  124.90399933    0.28000000    2.71000004
   16.99888992  121.65799713    0.30000001    2.71000004
   17.00194359  121.55899811    0.28000000    2.71000004
   17.00527763  133.71600342    0.28000000    2.71000004
   17.00861168  132.55499268    0.28000000    2.71000004
   17.01194382  128.84700012    0.30000001    2.71000004
   17.01527786  120.29499817    0.28000000    2.71000004
   17.01833344  141.39900208    0.28000000    2.71000004
   17.02166557  120.37899780    0.28000000    2.71000004
   17.02222252  144.35699463    0.28000000    2.71000004
   17.02499962  133.22500610    0.28000000    2.71000004
   17.02833366  120.10299683    0.28000000    2.73000002
   17.03166580  140.48300171    0.28000000    2.73000002
   17.03750038  140.48300171    0.28000000    2.71000004
   17.04166603  125.07900238    0.28000000    2.71000004
   17.04472160  127.58200073    0.28000000    2.71000004
   17.04805565  111.95500183    0.28000000    2.71000004
   17.05138779  121.21700287    0.28000000    2.71000004
   17.05444336  129.04899597    0.28000000    2.71000004
   17.05555534  120.05300140    0.28000000    2.71000004
   17.05805397  119.95999908    0.28000000    2.71000004
   17.06138802  133.94700623    0.28000000    2.71000004
   17.06472206  116.16500092    0.28000000    2.71000004
   17.06777954  126.51599884    0.28000000    2.71000004
   17.07111168  129.65199280    0.28000000    2.71000004
   17.07444572  134.85299683    0.28000000    2.71000004
   17.08027840  134.85299683    0.28000000    2.71000004
   17.08444595  135.37699890    0.28000000    2.71000004
   17.08777809  134.66099548    0.28000000    2.71000004
   17.08889008  120.30699921    0.28000000    2.71000004
   17.09111214  128.19500732    0.28000000    2.71000004
   17.09444427  140.67700195    0.28000000    2.71000004
   17.09777832  125.09799957    0.28000000    2.73000002
   17.10083389  143.78100586    0.28000000    2.73000002
   17.10416794  133.19299316    0.41999999    2.71000004
   17.10750008  137.93299866    0.31999999    2.73000002
   17.11055565  132.09500122    0.50000000    2.71000004
   17.11388969  118.60299683    0.36000001    2.71000004
   17.11694527  129.16099548    0.30000001    2.71000004
   17.12305641  129.16099548    0.30000001    2.71000004
   17.12722206  116.20300293    0.30000001    2.71000004
   17.13055611  149.52699280    0.31999999    2.71000004
   17.13388824  142.09800720    0.30000001    2.73000002
   17.13694382  139.23399353    0.30000001    2.71000004
   17.14027786  143.63699341    0.30000001    2.71000004
   17.14333344  153.95300293    0.30000001    2.71000004
   17.14666748  145.52699280    0.30000001    2.71000004
   17.14999962  134.68099976    0.30000001    2.71000004
   17.15305519  154.31500244    0.30000001    2.71000004
   17.15555573  126.77400208    0.30000001    2.71000004
   17.15666580  140.11500549    0.30000001    2.71000004
   17.15999985  145.03700256    0.30000001    2.71000004
   17.16611099  145.03700256    0.30000001    2.71000004
   17.17027664  142.12600708    0.30000001    2.71000004
   17.17333221  159.64599609    0.30000001    2.71000004
   17.17666626  156.42399597    0.31999999    2.71000004
   17.18000031  153.16999817    0.31999999    2.71000004
   17.18305397  147.33399963    0.31999999    2.69000006
   17.18638802  130.22200012    0.30000001    2.73000002
   17.18888855  137.96699524    0.31999999    2.71000004
   17.18972206  141.15299988    0.30000001    2.71000004
   17.19305420  139.97099304    0.31999999    2.71000004
   17.19638824  126.22299957    0.30000001    2.71000004
   17.19944382  147.02999878    0.31999999    2.71000004
   17.20277786  131.07699585    0.30000001    2.71000004
   17.20888901  131.07699585    0.30000001    2.73000002
   17.21305656  160.26699829    0.30000001    2.71000004
   17.21611214  147.19099426    0.30000001    2.71000004
   17.21944427  130.08799744    0.30000001    2.71000004
   17.22222328  124.15899658    0.30000001    2.71000004
   17.22333336  130.93200684    0.30000001    2.71000004
   17.22638893  142.06700134    0.30000001    2.73000002
   17.22972298  148.41799927    0.30000001    2.71000004
   17.23277855  152.47799683    0.28000000    2.71000004
   17.23611069  140.94700623    0.28000000    2.71000004
   17.23944473  163.92399597    0.30000001    2.71000004
   17.24277878  127.35500336    0.30000001    2.71000004
   17.24583435  136.47300720    0.30000001    2.71000004
   17.25166702  136.47300720    0.31999999    2.71000004
   17.25583267  126.33200073    0.31999999    2.71000004
   17.25916672  131.43200684    0.31999999    2.71000004
   17.26222229  147.45599365    0.31999999    2.71000004
   17.26555634  146.82299805    0.34000000    2.71000004
   17.26888847  147.28199768    0.34000000    2.71000004
   17.27194405  150.20199585    0.34000000    2.71000004
   17.27555466  139.93899536    0.34000000    2.73000002
   17.27888870  129.21200562    0.36000001    2.71000004
   17.28194427  125.34300232    0.36000001    2.71000004
   17.28527641  148.76899719    0.36000001    2.71000004
   17.28833199  141.13499451    0.36000001    2.71000004
   17.28944397  132.87199402    0.36000001    2.71000004
   17.29444313  132.87199402    0.34000000    2.71000004
   17.29861069  133.26699829    0.36000001    2.71000004
   17.30194283  134.25100708    0.34000000    2.71000004
   17.30527687  132.19799805    0.34000000    2.71000004
   17.30861092  142.54600525    0.36000001    2.71000004
   17.31166649  137.48300171    0.34000000    2.71000004
   17.31499863  137.91299438    0.34000000    2.71000004
   17.31833458  130.06199646    0.36000001    2.71000004
   17.32139015  115.68399811    0.36000001    2.69000006
   17.32222366  113.76599884    0.36000001    2.69000006
   17.32500076  136.59800720    0.36000001    2.71000004
   17.32833481  144.21200562    0.36000001    2.71000004
   17.33139038  135.45700073    0.34000000    2.71000004
   17.33750153  135.45700073    0.34000000    2.71000004
   17.34166718  125.81900024    0.36000001    2.71000004
   17.34472275  146.11199951    0.34000000    2.71000004
   17.34805679  128.57800293    0.34000000    2.71000004
   17.35111237  134.34199524    0.36000001    2.71000004
   17.35444450  134.09599304    0.34000000    2.71000004
   17.35583305  145.48399353    0.34000000    2.71000004
   17.35805511  149.46699524    0.36000001    2.71000004
   17.36138916  132.05000305    0.36000001    2.71000004
   17.36444473  148.54400635    0.36000001    2.69000006
   17.36777878  150.94500732    0.36000001    2.71000004
   17.37111092  152.11999512    0.36000001    2.71000004
   17.37416649  150.87100220    0.36000001    2.71000004
   17.38027763  150.87100220    0.38000000    2.71000004
   17.38444519  131.62899780    0.36000001    2.71000004
   17.38750076  121.53399658    0.36000001    2.71000004
   17.38888931  130.59700012    0.38000000    2.71000004
   17.39111137  141.10800171    0.38000000    2.71000004
   17.39444351  132.00199890    0.36000001    2.71000004
   17.39749908  144.75999451    0.36000001    2.71000004
   17.40083313  139.94000244    0.40000001    2.71000004
   17.40416718  131.73699951    0.40000001    2.71000004
   17.40722275  145.78199768    0.40000001    2.71000004
   17.41055489  121.11299896    0.40000001    2.71000004
   17.41388893  115.86199951    0.40000001    2.71000004
   17.41694450  127.80799866    0.44000000    2.71000004
   17.42305565  127.80799866    0.46000001    2.71000004
   17.42722130  141.89700317    0.41999999    2.71000004
   17.43055534  140.87800598    0.41999999    2.71000004
   17.43361092  122.39199829    0.41999999    2.69000006
   17.43694305  118.68299866    0.41999999    2.69000006
   17.44027710  117.28700256    0.41999999    2.71000004
   17.44333267  133.17599487    0.41999999    2.71000004
   17.44666672  137.69299316    0.41999999    2.71000004
   17.44972038  122.50000000    0.44000000    2.69000006
   17.45305634  119.36399841    0.47999999    2.71000004
   17.45555687  127.13500214    0.47999999    2.71000004
   17.45666695  131.68499756    0.47999999    2.71000004
   17.46000099  122.39099884    0.47999999    2.71000004
   17.46583366  122.39099884    0.44000000    2.71000004
   17.47000122  127.22599792    0.44000000    2.69000006
   17.47333336  130.13299561    0.40000001    2.71000004
   17.47666740  122.55300140    0.40000001    2.71000004
   17.47972298  135.60400391    0.40000001    2.69000006
   17.48305511  130.99299622    0.40000001    2.69000006
   17.48611069  127.59700012    0.40000001    2.71000004
   17.48916626  129.20799255    0.40000001    2.71000004
   17.48972321  120.53800201    0.40000001    2.71000004
   17.49305534  131.07699585    0.40000001    2.69000006
   17.49611092  118.68699646    0.41999999    2.71000004
   17.49944496  122.04499817    0.41999999    2.71000004
   17.50277710  126.08499908    0.40000001    2.71000004
   17.50888824  126.08499908    0.40000001    2.69000006
   17.51305580  118.50199890    0.40000001    2.71000004
   17.51611137  134.88600159    0.40000001    2.71000004
   17.51944351  123.74400330    0.40000001    2.69000006
   17.52249908  129.08799744    0.40000001    2.69000006
   17.52305603  114.03600311    0.40000001    2.69000006
   17.52638817  118.77500153    0.40000001    2.71000004
   17.52944374  120.23200226    0.38000000    2.69000006
   17.53277779  125.42600250    0.38000000    2.71000004
   17.53610992  120.35199738    0.38000000    2.71000004
   17.53916550  124.66000366    0.38000000    2.71000004
   17.54249954  126.00800323    0.38000000    2.71000004
   17.54583359  120.87799835    0.38000000    2.71000004
   17.55166626  120.87799835    0.38000000    2.71000004
   17.55583191  125.24099731    0.38000000    2.71000004
   17.55888748  132.68499756    0.40000001    2.71000004
   17.56222153  138.63499451    0.40000001    2.71000004
   17.56555557  130.61700439    0.38000000    2.69000006
   17.56861115  136.18499756    0.40000001    2.69000006
   17.57194519  136.92999268    0.38000000    2.71000004
   17.57527924  131.71299744    0.40000001    2.71000004
   17.57833481  142.81700134    0.40000001    2.71000004
   17.58166695  128.61500549    0.40000001    2.69000006
   17.58472252  134.61500549    0.41999999    2.69000006
   17.58805656  135.02799988    0.41999999    2.71000004
   17.58916664  124.71800232    0.41999999    2.71000004
   17.59444427  124.71800232    0.41999999    2.69000006
   17.59861183  141.04400635    0.41999999    2.71000004
   17.60194397  142.34199524    0.41999999    2.69000006
   17.60499954  130.13999939    0.41999999    2.69000006
   17.60833359  133.59199524    0.41999999    2.71000004
   17.61138916  135.74800110    0.41999999    2.69000006
   17.61472321  131.52699280    0.41999999    2.69000006
   17.61805534  133.88800049    0.41999999    2.71000004
   17.62111092  141.79600525    0.41999999    2.69000006
   17.62249947  129.06900024    0.41999999    2.69000006
   17.62472153  132.99299622    0.41999999    2.69000006
   17.62805557  127.16999817    0.41999999    2.69000006
   17.63138962  128.64199829    0.44000000    2.69000006
   17.63722229  128.64199829    0.44000000    2.71000004
   17.64138794  142.07800293    0.44000000    2.69000006
   17.64472198  129.59800720    0.41999999    2.71000004
   17.64777756  139.77200317    0.41999999    2.71000004
   17.65111160  132.40899658    0.41999999    2.71000004
   17.65444374  123.65200043    0.41999999    2.69000006
   17.65583229  137.51899719    0.41999999    2.71000004
   17.65805435  123.71399689    0.41999999    2.71000004
   17.66138840  127.93299866    0.41999999    2.69000006
   17.66472244  126.22499847    0.44000000    2.69000006
   17.66777802  131.93400574    0.41999999    2.69000006
   17.67111015  128.37600708    0.41999999    2.71000004
   17.67444420  124.44200134    0.41999999    2.71000004
   17.68027687  124.44200134    0.41999999    2.69000006
   17.68416595  122.45099640    0.41999999    2.71000004
   17.68750000  125.52500153    0.41999999    2.71000004
   17.68916512  126.90899658    0.41999999    2.71000004
   17.69111061  127.32800293    0.41999999    2.69000006
   17.69444275  125.14399719    0.41999999    2.71000004
   17.69777679  121.40399933    0.41999999    2.69000006
   17.70083427  122.29799652    0.41999999    2.69000006
   17.70416832  111.91699982    0.41999999    2.71000004
   17.70750046  119.06600189    0.41999999    2.69000006
   17.71055603  115.50399780    0.41999999    2.69000006
   17.71389008  122.35199738    0.41999999    2.71000004
   17.71694565  116.58899689    0.41999999    2.69000006
   17.72305679  116.58899689    0.41999999    2.69000006
   17.72722244  120.87300110    0.41999999    2.71000004
   17.73027802  124.88500214    0.41999999    2.69000006
   17.73361206  119.22399902    0.41999999    2.69000006
   17.73694420  108.94899750    0.41999999    2.69000006
   17.73999977  116.50099945    0.41999999    2.69000006
   17.74333382  119.22399902    0.41999999    2.71000004
   17.74666786  120.23100281    0.44000000    2.71000004
   17.74972153  117.47599792    0.44000000    2.71000004
   17.75305557  121.55400085    0.44000000    2.71000004
   17.75583267  115.03800201    0.44000000    2.69000006
   17.75666618  115.98500061    0.44000000    2.69000006
   17.76000023  124.73100281    0.41999999    2.69000006
   17.76583290  124.73100281    0.44000000    2.71000004
   17.77000046  114.86699677    0.41999999    2.69000006
   17.77333260  114.58499908    0.41999999    2.69000006
   17.77638817  123.32599640    0.44000000    2.71000004
   17.77972221  112.49700165    0.46000001    2.69000006
   17.78277779  111.85900116    0.44000000    2.71000004
   17.78610992  119.75299835    0.44000000    2.71000004
   17.78916550  115.62599945    0.44000000    2.69000006
   17.78972244  119.55300140    0.44000000    2.71000004
   17.79305458  118.85199738    0.44000000    2.69000006
   17.79638863  112.25700378    0.44000000    2.69000006
   17.79944420  117.15599823    0.44000000    2.71000004
   17.80277634  117.56300354    0.41999999    2.71000004
   17.80861092  117.56300354    0.44000000    2.71000004
   17.81277657  118.56800079    0.41999999    0.17000000
   17.81611061  116.10600281    0.41999999    2.71000004
   17.81916809  117.63300323    0.41999999    2.69000006
   17.82250023  119.84500122    0.44000000    2.71000004
   17.82277870  117.38700104    0.44000000    2.71000004
   17.82611275  108.41300201    0.44000000    2.71000004
   17.82944489  119.30500031    0.44000000    2.69000006
   17.83250046  116.59300232    0.44000000    2.71000004
   17.83583450  119.36000061    0.44000000    2.71000004
   17.83889008  113.02200317    0.44000000    2.69000006
   17.84222221  112.09300232    0.44000000    2.69000006
   17.84555626  101.71399689    0.44000000    2.69000006
   17.85166740  101.71399689    0.41999999    2.69000006
   17.85583305  108.22499847    0.41999999    2.71000004
   17.85611153  111.75700378    0.41999999    2.71000004
   17.85944557  105.55000305    0.41999999    2.71000004
   17.86277771  115.10099792    0.41999999    2.71000004
   17.86583328  113.95700073    0.41999999    2.69000006
   17.86916733  107.17299652    0.41999999    2.69000006
   17.87222290  106.83100128    0.40000001    2.69000006
   17.87555504  113.18399811    0.41999999    2.69000006
   17.87888908  117.41999817    0.41999999    2.69000006
   17.88194466  114.68000031    0.40000001    2.71000004
   17.88527679  113.86699677    0.40000001    2.71000004
   17.88861084  111.74800110    0.40000001    2.71000004
   17.88916588  114.35399628    0.40000001    2.71000004
   17.89444351  114.35399628    0.40000001    2.69000006
   17.89861107  111.00199890    0.40000001    2.69000006
   17.90166664  115.88300323    0.40000001    2.71000004
   17.90499878  114.63899994    0.40000001    2.69000006
   17.92277718  105.67700195    0.41999999    2.71000004
   17.92527771  106.60199738    0.40000001    2.71000004
   17.92833328  103.92199707    0.40000001    2.71000004
   17.93166542  107.60900116    0.40000001    2.69000006
   17.93750000  107.60900116    0.44000000    2.69000006
   17.94166565  105.58699799    0.44000000    2.69000006
   17.94472122  111.61799622    0.41999999    0.25000000
   17.94805527  105.69599915    0.41999999    0.25000000
   17.95111275  105.71399689    0.41999999    2.69000006
   17.95444489   99.44770050    0.44000000    2.69000006
   17.95611191  106.64700317    0.44000000    2.71000004
   17.95805550  106.76300049    0.44000000    2.71000004
   17.96138954  107.86100006    0.44000000    2.69000006
   17.96472359  101.82399750    0.44000000    2.69000006
   17.96777916  108.65699768    0.46000001    2.71000004
   17.97111130  106.27100372    0.47999999    2.71000004
   17.97444534  105.52999878    0.46000001    2.71000004
   17.98027802  105.52999878    0.47999999    2.69000006
   17.98444557   99.02780151    0.50000000    2.69000006
   17.98750114  103.21900177    0.51999998    2.69000006
   17.98944473  103.80899811    0.51999998    2.69000006
   17.99111176  109.32199860    0.51999998    2.69000006
   17.99444389   94.20439911    0.50000000    2.69000006
   17.99777794   99.62909698    0.50000000    2.69000006
   18.00083351   92.01550293    0.50000000    2.69000006
   18.00416756   97.46970367    0.50000000    2.69000006
   18.00749969   97.91880035    0.50000000    2.69000006
   18.01055527  101.23699951    0.51999998    2.69000006
   18.01388931  100.26999664    0.51999998    2.69000006
   18.01694489   97.18299866    0.51999998    2.69000006
   18.02305603   97.18299866    0.52999997    2.69000006
   18.02722168  101.38400269    0.52999997    2.69000006
   18.03055573  105.78099823    0.51999998    2.69000006
   18.03361130   98.96720123    0.51999998    2.69000006
   18.03694344   97.72460175    0.51999998    2.69000006
   18.04027748   99.79370117    0.51999998    2.69000006
   18.04333305  109.54000092    0.51999998    2.69000006
   18.04666710   93.96540070    0.51999998    2.69000006
   18.04972076  100.48600006    0.51999998    2.67000008
   18.05305481  100.81400299    0.52999997    2.69000006
   18.05611038   92.71669769    0.51999998    2.69000006
   18.05666542  119.72499847    0.51999998    2.69000006
   18.05999947  133.30499268    0.51999998    2.69000006
   18.06583214  133.30499268    0.52999997    2.69000006
   18.07000160  289.04699707    0.51999998    2.69000006
   18.07333374  293.34799194    0.51999998    2.71000004
   18.07666779  277.56600952    0.51999998    2.69000006
   18.07972336  296.39001465    0.51999998    2.69000006
   18.08305550  241.55400085    0.51999998    2.69000006
   18.08611107  282.58700562    0.50000000    2.71000004
   18.08944511  319.57101440    0.50000000    2.67000008
   18.08972359  343.67199707    0.50000000    2.67000008
   18.09305573  340.05599976    0.50000000    2.69000006
   18.09638977  331.89300537    0.51999998    2.71000004
   18.09944534  283.93301392    0.50000000    2.69000006
   18.10277748  305.04000854    0.50000000    2.69000006
   18.10888863  305.04000854    0.50000000    2.69000006
   18.11305618  341.32400513    0.50000000    2.69000006
   18.11611176  330.45199585    0.50000000    2.69000006
   18.11944389  349.03601074    0.51999998    2.69000006
   18.12249947  344.44900513    0.51999998    2.69000006
   18.12305641  312.54299927    0.51999998    2.69000006
   18.12638855  320.48599243    0.51999998    2.69000006
   18.12972260  322.55899048    0.51999998    2.69000006
   18.13277817  364.14700317    0.51999998    2.69000006
   18.13611031  351.23400879    0.51999998    2.69000006
   18.13944435  270.24301147    0.50000000    2.69000006
   18.14249992  301.07699585    0.50000000    2.69000006
   18.14583397  347.05300903    0.51999998    2.69000006
   18.15166664  347.05300903    0.50000000    2.69000006
   18.15583229  374.57299805    0.47999999    2.69000006
   18.15638924  373.18798828    0.47999999    2.69000006
   18.15944481  313.36300659    0.47999999    2.69000006
   18.16277695  385.54098511    0.47999999    2.69000006
   18.16583252  328.40399170    0.47999999    2.69000006
   18.16916656  311.23999023    0.47999999    2.69000006
   18.17249870  333.66598511    0.47999999    2.69000006
   18.17555428  325.00299072    0.47999999    2.69000006
   18.17888832  377.94799805    0.47999999    2.69000006
   18.18222237  371.09698486    0.47999999    2.67000008
   18.18527603  366.36401367    0.47999999    2.69000006
   18.18861008  347.14700317    0.47999999    2.69000006
   18.18972206  295.94299316    0.47999999    2.69000006
   18.19444275  295.94299316    0.50000000    2.69000006
   18.19861031  302.14401245    0.50000000    2.69000006
   18.20194435  322.33999634    0.50000000    2.69000006
   18.20499992  313.94500732    0.50000000    2.69000006
   18.20833397  305.99499512    0.50000000    2.69000006
   18.21166801  291.89199829    0.50000000    2.69000006
   18.21472359  319.74798584    0.50000000    2.67000008
   18.21805573  271.20001221    0.50000000    2.69000006
   18.22138977  313.37799072    0.50000000    2.69000006
   18.22305679  315.08401489    0.50000000    2.69000006
   18.22500038  301.54800415    0.50000000    2.69000006
   18.22833443  284.17700195    0.50000000    2.67000008
   18.23139000  278.36898804    0.47999999    2.69000006
   18.23722267  278.36898804    0.47999999    2.69000006
   18.24138832  272.29998779    0.46000001    2.69000006
   18.24472237  255.92399597    0.44000000    2.69000006
   18.24805641  270.82699585    0.44000000    2.69000006
   18.25111198  234.19599915    0.44000000    2.67000008
   18.25444412  255.81100464    0.44000000    2.69000006
   18.25638962  271.03601074    0.44000000    2.69000006
   18.25805473  254.51199341    0.46000001    2.69000006
   18.26138878  238.03700256    0.46000001    2.69000006
   18.26444435  243.48800659    0.46000001    2.69000006
   18.26777840  214.44700623    0.46000001    2.69000006
   18.27111053  230.63999939    0.46000001    2.67000008
   18.27416611  256.45001221    0.47999999    2.69000006
   18.28027725  256.45001221    0.46000001    2.69000006
   18.28444481  220.93299866    0.46000001    2.69000006
   18.28750038  231.50100708    0.44000000    2.69000006
   18.28999901  237.87300110    0.44000000    2.69000006
   18.29111099  240.02299500    0.44000000    2.69000006
   18.29444313  226.91400146    0.44000000    2.69000006
   18.29777718  228.89599609    0.44000000    2.69000006
   18.30083275  208.66299438    0.44000000    2.69000006
   18.30416679  211.86700439    0.44000000    2.69000006
   18.30749893  225.69299316    0.44000000    2.69000006
   18.31055450  216.51100159    0.44000000    2.67000008
   18.31388855  197.52000427    0.44000000    2.67000008
   18.31694603  182.66999817    0.46000001    2.69000006
   18.32305717  182.66999817    0.46000001    2.69000006
   18.32722282  202.03199768    0.47999999    2.67000008
   18.33027840  186.02400208    0.44000000    2.67000008
   18.33361244  177.25799561    0.46000001    2.67000008
   18.33694458  198.32099915    0.44000000    2.67000008
   18.34000015  182.49099731    0.46000001    2.67000008
   18.34333420  197.03399658    0.50000000    2.67000008
   18.34666824  195.24600220    0.50000000    2.67000008
   18.34972191  182.02000427    0.50000000    2.69000006
   18.35305595  166.16000366    0.50000000    2.67000008
   18.35639000  186.78700256    0.50000000    2.67000008
   18.35805511  175.48599243    0.50000000    2.67000008
   18.36000061  181.29499817    0.50000000    2.67000008
   18.36583328  181.29499817    0.50000000    2.67000008
   18.37000084  169.21200562    0.47999999    2.67000008
   18.37333298  171.29499817    0.47999999    2.69000006
   18.37638855  170.42500305    0.47999999    2.67000008
   18.37972260  188.87600708    0.46000001    2.69000006
   18.38277817  163.53100586    0.47999999    2.69000006
   18.38611031  177.02699280    0.47999999    2.69000006
   18.38944435  148.45500183    0.46000001    2.69000006
   18.39138794  167.07099915    0.46000001    2.67000008
   18.39305496  171.19500732    0.46000001    2.67000008
   18.39611053  148.38499451    0.46000001    2.67000008
   18.39944458  163.21499634    0.44000000    2.67000008
   18.40277672  174.75199890    0.44000000    2.67000008
   18.40861130  174.75199890    0.44000000    2.67000008
   18.41277695  143.10299683    0.44000000    2.67000008
   18.41611099  160.67399597    0.41999999    2.69000006
   18.41916656  159.10699463    0.40000001    2.67000008
   18.42249870  159.51300049    0.40000001    2.67000008
   18.42499924  190.58000183    0.40000001    2.67000008
   18.42638779  176.03999329    0.40000001    2.67000008
   18.42944336  165.80599976    0.40000001    2.67000008
   18.43277740  159.76499939    0.40000001    2.67000008
   18.43610954  166.28900146    0.40000001    2.67000008
   18.43916512  139.89100647    0.40000001    2.67000008
   18.44249916  174.53700256    0.40000001    2.67000008
   18.44555473  176.46099854    0.40000001    2.67000008
   18.45166779  176.46099854    0.40000001    2.67000008
   18.45555687  158.53199768    0.40000001    2.69000006
   18.45833397  151.13499451    0.40000001    2.69000006
   18.45916748  154.22500610    0.40000001    2.69000006
   18.46250153  140.63800049    0.40000001    2.67000008
   18.46583366  161.99800110    0.38000000    2.67000008
   18.46888924  144.35299683    0.38000000    2.67000008
   18.47222328  137.10699463    0.40000001    2.67000008
   18.47555542  124.26899719    0.40000001    2.67000008
   18.47861099  125.61199951    0.40000001    2.67000008
   18.48194504  133.33500671    0.40000001    2.67000008
   18.48527718  127.23400116    0.40000001    2.67000008
   18.48833275  139.32200623    0.40000001    2.67000008
   18.49444389  139.32200623    0.40000001    2.67000008
   18.49861145  125.15399933    0.40000001    2.67000008
   18.50166702  148.09399414    0.40000001    2.67000008
   18.50499916  116.49700165    0.40000001    2.67000008
   18.50833321  123.41699982    0.40000001    2.67000008
   18.51138878  129.90800476    0.40000001    2.67000008
   18.51472282  133.35800171    0.40000001    2.67000008
   18.51805496  107.17099762    0.40000001    2.67000008
   18.52111053  111.15799713    0.40000001    2.67000008
   18.52444458  116.42800140    0.40000001    2.67000008
   18.52527809  166.23500061    0.40000001    2.67000008
   18.52805519  117.73600006    0.40000001    2.67000008
   18.53111076  113.72100067    0.40000001    2.67000008
   18.53722191  113.72100067    0.40000001    2.67000008
   18.54138756  126.41300201    0.40000001    2.67000008
   18.54472160  106.50099945    0.40000001    2.67000008
   18.54777718  148.83900452    0.40000001    2.67000008
   18.55111122  118.02700043    0.40000001    2.67000008
   18.55416679  108.62400055    0.40000001    2.67000008
   18.55749893  110.64700317    0.40000001    2.67000008
   18.55861092  111.57700348    0.40000001    2.67000008
   18.56110954  111.67700195    0.40000001    2.67000008
   18.56416512  116.15899658    0.40000001    2.67000008
   18.56750107  124.46600342    0.40000001    2.67000008
   18.57083511  111.46700287    0.40000001    2.67000008
   18.57389069  126.34100342    0.40000001    2.67000008
   18.58000183  126.34100342    0.40000001    2.67000008
   18.58416748  102.86199951    0.40000001    2.67000008
   18.58750153  116.89700317    0.40000001    2.67000008
   18.59083366  115.55100250    0.40000001    2.67000008
   18.59222221  114.23200226    0.40000001    2.67000008
   18.59444427  109.80699921    0.40000001    2.67000008
   18.59749985  113.16000366    0.41999999    2.67000008
   18.60083389  113.55999756    0.41999999    2.67000008
   18.60416794  119.41600037    0.41999999    2.67000008
   18.60722351  106.43199921    0.44000000    2.67000008
   18.61055565  110.98600006    0.44000000    2.67000008
   18.61361122  118.45600128    0.44000000    2.67000008
   18.61694527  114.51699829    0.41999999    2.67000008
   18.62305641  114.51699829    0.44000000    2.67000008
   18.62694550  110.48000336    0.44000000    2.67000008
   18.63027763  115.21399689    0.44000000    2.67000008
   18.63361168  116.36199951    0.41999999    2.66000009
   18.63666725  119.21900177    0.41999999    2.66000009
   18.63999939  116.15200043    0.44000000    2.67000008
   18.64333344  119.92800140    0.46000001    2.66000009
   18.64638901  105.77899933    0.46000001    2.66000009
   18.64972115  113.06300354    0.47999999    2.67000008
   18.65305519  112.93399811    0.47999999    2.66000009
   18.65611076  113.22499847    0.47999999    2.66000009
   18.65888786  121.69899750    0.47999999    2.67000008
   18.65972137  115.13899994    0.47999999    2.67000008
   18.66583252  115.13899994    0.50000000    2.67000008
   18.67000008  112.08399963    0.50000000    2.66000009
   18.67305565  119.73899841    0.50000000    2.67000008
   18.67638779  125.71700287    0.51999998    2.67000008
   18.67972183  124.39399719    0.51999998    2.67000008
   18.68277740  127.11599731    0.51999998    2.67000008
   18.68610954  132.43099976    0.50000000    2.67000008
   18.68916512  138.74200439    0.50000000    2.67000008
   18.69222069  137.92999268    0.50000000    2.67000008
   18.69277763  142.75999451    0.50000000    2.67000008
   18.69610977  132.90699768    0.51999998    2.66000009
   18.69944382  168.37899780    0.51999998    2.66000009
   18.70250130  174.62100220    0.51999998    2.66000009
   18.70861244  174.62100220    0.51999998    2.66000009
   18.71277809  253.74299622    0.51999998    2.66000009
   18.71583366  334.66299438    0.51999998    2.66000009
   18.71916771  340.83898926    0.52999997    2.66000009
   18.72249985  334.28601074    0.55000001    2.67000008
   18.72555542  210.43400574    0.55000001    2.67000008
   18.72583389  205.45300293    0.55000001    2.67000008
   18.72916794  146.78900146    0.55000001    2.67000008
   18.73250008  117.97100067    0.55000001    2.66000009
   18.73555565   41.88040161    0.55000001    2.66000009
   18.73888969   -1.00000000    0.55000001    2.66000009
   18.74194527   -1.00000000    0.56999999    2.67000008
   18.74527740   -1.00000000    0.56999999    2.66000009
   18.75138855   -1.00000000    0.58999997    2.66000009
   18.75555611   -1.00000000    0.58999997    2.67000008
   18.75916672   -1.00000000    0.61000001    2.66000009
   18.76250076   -1.00000000    0.63000000    2.66000009
   18.76555634   -1.00000000    0.63000000    2.66000009
   18.76888847   -1.00000000    0.63000000    2.66000009
   18.77222252   -1.00000000    0.63000000    2.66000009
   18.77527809   -1.00000000    0.63000000    2.66000009
   18.77861023   -1.00000000    0.61000001    2.66000009
   18.78166580   -1.00000000    0.63000000    2.66000009
   18.78499985   -1.00000000    0.61000001    2.66000009
   18.78833199   -1.00000000    0.61000001    2.67000008
   18.79833221   -1.00000000    0.58999997    2.66000009
   18.80166626   -1.00000000    0.58999997    2.67000008
   18.80472183   -1.00000000    0.61000001    2.66000009
   18.80805397   -1.00000000    0.61000001    2.66000009
   18.81138802   -1.00000000    0.61000001    2.66000009
   18.81444359   -1.00000000    0.61000001    2.66000009
   18.81777954   -1.00000000    0.61000001    2.66000009
   18.82083511   -1.00000000    0.61000001    2.66000009
   18.82416725   -1.00000000    0.58999997    2.66000009
   18.82777786   -1.00000000    0.61000001    2.66000009
   18.83111191   -1.00000000    0.61000001    2.66000009
   18.84138870   -1.00000000    0.63000000    2.66000009
   18.84444427   -1.00000000    0.61000001    2.66000009
   18.84777832   -1.00000000    0.61000001    2.66000009
   18.85111237   -1.00000000    0.61000001    2.66000009
   18.85416794   -1.00000000    0.63000000    2.66000009
   18.85750008   -1.00000000    0.61000001    2.66000009
   18.86111069   -1.00000000    0.63000000    2.66000009
   18.86444473   -1.00000000    0.61000001    2.66000009
   18.86777878   -1.00000000    0.63000000    2.66000009
   18.87083435   -1.00000000    0.63000000    2.67000008
   18.87416649   -1.00000000    0.64999998    2.66000009
   18.88416672   -1.00000000    0.67000002    2.66000009
   18.88722229   -1.00000000    0.67000002    2.66000009
   18.89055634   -1.00000000    0.67000002    2.66000009
   18.89416695   -1.00000000    0.64999998    2.66000009
   18.89749908   -1.00000000    0.64999998    2.66000009
   18.90055466   -1.00000000    0.64999998    2.66000009
   18.90388870   -1.00000000    0.64999998    2.66000009
   18.90694427   -1.00000000    0.63000000    2.66000009
   18.91027832   -1.00000000    0.63000000    2.64000010
   18.91361046   -1.00000000    0.63000000    2.64000010
   18.91666603   -1.00000000    0.58999997    2.64000010
   18.94111061   -1.00000000    0.61000001    2.66000009
   18.94444275   -1.00000000    0.61000001    2.66000009
   18.94749832   -1.00000000    0.58999997    2.64000010
   18.95083427   -1.00000000    0.58999997    2.66000009
   18.95416832   -1.00000000    0.58999997    2.66000009
   18.95722389   -1.00000000    0.58999997    2.66000009
   18.96055603   -1.00000000    0.58999997    2.64000010
   18.97000122   -1.00000000    0.61000001    2.66000009
   18.97305679   -1.00000000    0.61000001    2.66000009
   18.97694588   -1.00000000    0.61000001    2.66000009
   18.98000145   -1.00000000    0.61000001    2.64000010
   18.98333359   -1.00000000    0.61000001    2.64000010
   18.98638916   -1.00000000    0.61000001    2.64000010
   18.98972321   -1.00000000    0.63000000    2.64000010
   18.99305534   -1.00000000    0.64999998    2.64000010
   18.99611092   -1.00000000    0.67000002    2.64000010
   18.99944496   -1.00000000    0.67000002    2.64000010
   19.00250053   -1.00000000    0.70999998    2.66000009
   19.01277733   -1.00000000    0.94000000    2.66000009
   19.01583290   -1.00000000    1.01999998    2.64000010
   19.01916695   -1.00000000    1.03999996    2.64000010
   19.02249908   -1.00000000    1.05999994    2.64000010
   19.02555466   -1.00000000    1.13000000    2.64000010
   19.02888870   -1.00000000    1.13000000    2.64000010
   19.03222275   -1.00000000    1.13000000    2.64000010
   19.03527641   -1.00000000    1.23000002    2.64000010
   19.04805565  130.03799438    1.39999998    2.64000010
   19.05111122  124.22499847    1.46000004    2.61999989
   19.05444336  120.14900208    1.51999998    2.64000010
   19.05749893  122.04299927    1.51999998    2.64000010
   19.06083298  125.59999847    1.58000004    2.61999989
   19.06416512  125.11799622    1.66999996    2.64000010
   19.06833458  125.11799622    2.17000008    2.61999989
   19.07222366  121.55100250    2.05999994    2.61999989
   19.07555580  120.43199921    2.05999994    2.64000010
   19.07888985  120.69400024    1.98000002    2.64000010
   19.08139038  122.29000092    1.96000004    2.61999989
   19.08250046  114.79399872    1.96000004    2.61999989
   19.08583450  116.08599854    1.94000006    2.61999989
   19.08889008  111.95200348    1.94000006    2.61999989
   19.09222221  112.83100128    1.96000004    2.64000010
   19.09555626  125.51300049    1.98000002    2.64000010
   19.09861183  131.77200317    1.64999998    2.64000010
   19.10194397  121.80799866    1.55999994    2.64000010
   19.10527802  118.61399841    1.58000004    2.64000010
   19.11111069  118.61399841    1.51999998    2.64000010
   19.11527824  124.89499664    1.55999994    2.64000010
   19.11833382  115.74600220    1.76999998    2.61999989
   19.12166595  112.12799835    1.76999998    2.64000010
   19.12500000  109.05999756    1.76999998    2.64000010
   19.12833405  110.71099854    1.48000002    2.61999989
   19.13138962  118.00199890    1.33000004    2.61999989
   19.13472176  109.91100311    1.30999994    2.64000010
   19.13777733  117.60399628    1.30999994    2.64000010
   19.14111137  118.86900330    1.30999994    2.61999989
   19.14444351  113.29000092    1.25000000    2.64000010
   19.14749908  119.35900116    1.25000000    2.64000010
   19.14805603  118.24299622    1.16999996    2.61999989
   19.15388870  118.24299622    1.09000003    2.61999989
   19.15805435  119.67800140    1.13000000    2.61999989
   19.16138840  119.67500305    1.19000006    2.61999989
   19.16444397  120.85199738    1.21000004    2.61999989
   19.16777802  115.13300323    1.21000004    2.61999989
   19.17111015  113.07399750    1.09000003    2.61999989
   19.17416573  116.78099823    0.81999999    2.61999989
   19.17749977  117.33200073    0.75000000    2.64000010
   19.18055534  117.71499634    0.69000000    2.61999989
   19.18138885  115.41600037    0.69000000    2.61999989
   19.18416595  111.13800049    0.67000002    2.61999989
   19.18750000  113.92700195    0.67000002    2.61999989
   19.19055557  112.50900269    0.64999998    2.61999989
   19.19666672  112.50900269    0.67000002    2.61999989
   19.20083427  115.33799744    0.69000000    2.64000010
   19.20416832  116.41100311    0.70999998    2.64000010
   19.20722389  119.95800018    0.73000002    2.64000010
   19.21055603  122.55000305    0.73000002    2.64000010
   19.21389008  121.91899872    0.73000002    2.61999989
   19.21472359  132.36799622    0.73000002    2.61999989
   19.21750069  125.03299713    0.75000000    2.61999989
   19.22083473  114.60700226    0.73000002    2.61999989
   19.22389030  121.07099915    0.75000000    2.61999989
   19.22722244  120.92199707    0.75000000    2.61999989
   19.23027802  121.89600372    0.73000002    2.64000010
   19.23361206  124.32599640    0.75000000    2.61999989
   19.23972321  124.32599640    0.69000000    2.61999989
   19.24388885  122.56400299    0.67000002    2.61999989
   19.24694443  121.50399780    0.64999998    2.61999989
   19.24805641  132.62899780    0.64999998    2.61999989
   19.25055504  126.40499878    0.64999998    2.61999989
   19.25388908  120.92700195    0.64999998    2.61999989
   19.25694466  132.23500061    0.64999998    2.61999989
   19.26027870  128.14900208    0.63000000    2.61999989
   19.26361084  124.31800079    0.63000000    2.61999989
   19.26666641  129.93800354    0.63000000    2.61999989
   19.27000046  124.94000244    0.67000002    2.61999989
   19.27305603  132.36000061    0.67000002    2.61999989
   19.27638817  127.94599915    0.67000002    2.61999989
   19.28249931  127.94599915    0.63000000    2.61999989
   19.28666687  138.45899963    0.63000000    2.61999989
   19.28972244  137.13000488    0.63000000    2.61999989
   19.29305458  133.15499878    0.63000000    2.61999989
   19.29638863  134.79100037    0.64999998    2.61999989
   19.29944420  144.24899292    0.64999998    2.61999989
   19.30277634  136.63900757    0.64999998    2.61999989
   19.30611038  131.75100708    0.64999998    2.61999989
   19.30916595  136.21800232    0.64999998    2.61999989
   19.31250000  137.00199890    0.63000000    2.59999990
   19.31472206  141.69599915    0.61000001    2.61999989
   19.31611061  137.55000305    0.61000001    2.61999989
   19.31944466  134.81300354    0.63000000    2.61999989
   19.32527924  134.81300354    0.61000001    2.61999989
   19.32944489  130.87199402    0.61000001    2.59999990
   19.33277893  119.77799988    0.58999997    2.59999990
   19.33583450  122.80500031    0.58999997    2.59999990
   19.33916664  130.85499573    0.58999997    2.61999989
   19.34222221  124.70899963    0.58999997    2.61999989
   19.34555626  134.90400696    0.61000001    2.61999989
   19.34805679  129.66000366    0.61000001    2.61999989
   19.34916687  136.93499756    0.61000001    2.61999989
   19.35250092  138.15600586    0.61000001    2.61999989
   19.35555649  128.39599609    0.63000000    2.61999989
   19.35888863  121.02400208    0.63000000    2.61999989
   19.36194420  131.90899658    0.61000001    2.59999990
   19.36805534  131.90899658    0.63000000    2.59999990
   19.37222290  135.64599609    0.63000000    2.59999990
   19.37555504  129.14300537    0.61000001    2.59999990
   19.37861061  133.98699951    0.67000002    2.59999990
   19.38138962  129.71899414    0.67000002    2.59999990
   19.38249969  136.45500183    0.67000002    2.59999990
   19.38583374  136.87600708    0.69000000    2.59999990
   19.38888931  143.39399719    0.69000000    2.61999989
   19.39222145  130.50100708    0.69000000    2.61999989
   19.39555550  132.02400208    0.64999998    2.59999990
   19.39861107  141.24200439    0.64999998    2.59999990
   19.40194321  144.47900391    0.73000002    2.59999990
   19.40499878  133.44299316    0.76999998    2.59999990
   19.41110992  133.44299316    0.75000000    2.59999990
   19.41527748  136.00900269    0.69000000    2.59999990
   19.41833305  128.22099304    0.67000002    2.59999990
   19.42166519  130.00999451    0.67000002    2.59999990
   19.42472076  133.78900146    0.67000002    2.59999990
   19.42805481  127.70500183    0.67000002    2.59999990
   19.43138885  127.14600372    0.73000002    2.59999990
   19.43444443  126.83100128    0.76999998    2.59999990
   19.43777657  132.21299744    0.80000001    2.59999990
   19.44083214  128.30999756    0.79000002    2.59999990
   19.44416618  132.06199646    0.79000002    2.59999990
   19.44749832  131.55099487    0.79000002    2.59999990
   19.44805527  129.89700317    0.79000002    2.59999990
   19.45388985  129.89700317    0.75000000    2.59999990
   19.45805550  127.35299683    0.73000002    2.57999992
   19.46111107  119.83899689    0.73000002    2.57999992
   19.46444511  127.46800232    0.73000002    2.57999992
   19.46777916  125.96099854    0.73000002    2.57999992
   19.47083473  130.36199951    0.73000002    2.59999990
   19.47416687  129.01699829    0.73000002    2.59999990
   19.47750092  128.20700073    0.73000002    2.59999990
   19.48055649  119.25700378    0.73000002    2.57999992
   19.48139000  126.57599640    0.73000002    2.57999992
   19.48416710  123.16799927    0.73000002    2.57999992
   19.48750114  123.18199921    0.73000002    2.57999992
   19.49055672  123.31300354    0.75000000    2.57999992
   19.49694443  123.31300354    0.75000000    2.59999990
   19.50111198  126.71299744    0.73000002    2.57999992
   19.50416756  123.13700104    0.75000000    2.57999992
   19.50749969  128.72799683    0.73000002    2.57999992
   19.51055527  127.53199768    0.73000002    2.57999992
   19.51388931  133.06700134    0.73000002    2.59999990
   19.51472282  126.62200165    0.73000002    2.59999990
   19.51749992  123.02999878    0.75000000    2.57999992
   19.52083397  129.83700562    0.75000000    2.59999990
   19.52388954  130.43299866    0.75000000    2.57999992
   19.52722168  128.38800049    0.73000002    2.59999990
   19.53055573  124.95200348    0.73000002    2.57999992
   19.53361130  133.79899597    0.69000000    2.57999992
   19.53972244  133.79899597    0.67000002    2.57999992
   19.54388809  137.57299805    0.67000002    2.57999992
   19.54694366  130.05200195    0.69000000    2.57999992
   19.54833221  129.92100525    0.69000000    2.57999992
   19.55055428  132.00300598    0.70999998    2.57999992
   19.55388832  136.28799438    0.70999998    2.57999992
   19.55694389  119.44100189    0.70999998    2.57999992
   19.56027794  123.03700256    0.70999998    2.57999992
   19.56361008  129.03999329    0.73000002    2.57999992
   19.56666756  125.22000122    0.73000002    2.59999990
   19.57000160  129.67399597    0.75000000    2.55999994
   19.57305717  120.57900238    0.75000000    2.55999994
   19.57638931  129.25300598    0.76999998    2.57999992
   19.58250046  129.25300598    0.79000002    2.55999994
   19.58638954  140.98800659    0.76999998    2.57999992
   19.58972359  121.52500153    0.79000002    2.57999992
   19.59305573  136.96099854    0.79000002    2.57999992
   19.59611130  136.99499512    0.76999998    2.55999994
   19.59944534  132.83299255    0.80000001    2.55999994
   19.60277748  133.87899780    0.80000001    2.55999994
   19.60583305  130.89799500    0.80000001    2.55999994
   19.60916710  129.41200256    0.79000002    2.55999994
   19.61222267  125.94200134    0.75000000    2.55999994
   19.61499977  122.65100098    0.73000002    2.55999994
   19.61583328  129.57400513    0.73000002    2.55999994
   19.61916733  123.13200378    0.70999998    2.57999992
   19.62527847  123.13200378    0.70999998    2.57999992
   19.62944412  122.69200134    0.73000002    2.55999994
   19.63249969  123.13800049    0.73000002    2.55999994
   19.63583374  131.07099915    0.70999998    2.55999994
   19.63916588  142.63000488    0.70999998    2.55999994
   19.64222145  144.86900330    0.70999998    2.55999994
   19.64555550  138.85000610    0.69000000    2.55999994
   19.64833260  143.48699951    0.67000002    2.55999994
   19.64916611  147.53999329    0.67000002    2.55999994
   19.65250015  141.57099915    0.67000002    2.55999994
   19.65555573  168.63900757    0.67000002    2.55999994
   19.65888786  165.27000427    0.70999998    2.55999994
   19.66222191  169.89599609    0.70999998    2.55999994
   19.66805458  169.89599609    0.70999998    2.55999994
   19.67222214  175.10200500    0.67000002    2.55999994
   19.67555428  165.63400269    0.64999998    2.55999994
   19.67860985  161.10600281    0.61000001    2.55999994
   19.68166542  180.92900085    0.61000001    2.55999994
   19.68249893  181.73199463    0.61000001    2.55999994
   19.68555450  184.94000244    0.61000001    2.55999994
   19.68888855  178.81100464    0.61000001    2.55999994
   19.69222069  183.27200317    0.63000000    2.55999994
   19.69527626  188.65400696    0.63000000    2.55999994
   19.69861031  193.36300659    0.63000000    2.55999994
   19.70166779  186.87199402    0.63000000    2.55999994
   19.70499992  210.12100220    0.63000000    2.55999994
   19.71083450  210.12100220    0.63000000    2.55999994
   19.71500015  184.22000122    0.63000000    2.55999994
   19.71833420  187.65199280    0.67000002    2.55999994
   19.72138977  182.74299622    0.73000002    2.55999994
   19.72472191  168.99400330    0.83999997    2.55999994
   19.72805595  174.97399902    0.83999997    2.55999994
   19.73111153  180.70700073    1.07000005    2.55999994
   19.73444557  176.60800171    1.16999996    2.53999996
   19.73777771  179.82299805    1.44000006    2.55999994
   19.74083328  187.08999634    1.89999998    2.53999996
   19.74416733  176.35600281    2.73000002    2.55999994
   19.74722290  191.04699707    3.21000004    2.55999994
   19.74833298  182.98199463    3.30999994    2.55999994
   19.75388908  182.98199463    3.64000010    2.55999994
   19.75777817  180.45700073    3.68000007    2.53999996
   19.76111031  160.99800110    3.64000010    2.51999998
   19.76444435  168.49099731    3.57999992    2.50000000
   19.76749992  150.22599792    3.86999989    2.51999998
   19.77083397  174.45700073    4.21999979    2.50000000
   19.77416611  164.88400269    4.59999990    2.46000004
   19.77722168  154.50599670    4.90999985    2.50000000
   19.78055573  180.83799744    4.90999985    2.51999998
   19.78166580  151.20899963    4.90999985    2.51999998
   19.78416634  152.14700317    4.90999985    2.53999996
   19.78750038  150.52499390    4.90999985    2.46000004
   19.79055595  180.14799500    4.90999985    2.39000010
   19.79666710  180.14799500    4.90999985    2.39000010
   19.80083275  162.84700012    4.90999985    2.40000010
   19.80388832  148.52600098    4.90999985    2.44000006
   19.80722237  173.05499268    4.90999985    2.44000006
   19.81055450  134.54899597    4.90999985    2.48000002
   19.81361008  175.24200439    4.90999985    2.42000008
   19.81499863  162.94599915    4.90999985    2.42000008
   19.81722260  159.63400269    4.90999985    2.46000004
   19.82055664  146.32699585    4.88999987    2.48000002
   19.82361221  153.05099487    3.95000005    2.53999996
   19.82694626  161.48399353    2.53999996    2.53999996
   19.83027840  165.84399414    1.34000003    2.53999996
   19.83333397  151.95199585    1.07000005    2.53999996
   19.83944511  151.95199585    0.98000002    2.51999998
   19.84361267  145.67199707    1.00000000    2.51999998
   19.84694481  150.12100220    0.98000002    2.51999998
   19.84833336  141.22300720    0.89999998    2.51999998
   19.85027885  143.44299316    0.86000001    2.53999996
   19.85361099  148.12199402    0.83999997    2.53999996
   19.85666656  150.36799622    0.95999998    2.53999996
   19.86000061  133.69500732    0.89999998    2.53999996
   19.86333466  145.83700562    1.21000004    2.51999998
   19.86638832  148.52699280    1.75000000    2.53999996
   19.86972237  139.17999268    2.59999990    2.53999996
   19.87305641  141.12600708    3.55999994    2.53999996
   19.87611198  151.96400452    3.55999994    2.53999996
   19.88222313  151.96400452    4.90999985    2.28999996
   19.88638878  137.24299622    4.90999985    2.26999998
   19.88972282  146.53999329    4.90999985    2.39000010
   19.89305496  122.53099823    4.90999985    2.46000004
   19.89611053  117.90299988    4.90999985    2.40000010
   19.89944458  108.80899811    4.90999985    2.48000002
   19.90277672   97.68229675    4.65999985    2.50000000
   19.90583229  107.33100128    3.68000007    2.44000006
   19.90916634   93.93650055    3.18000007    2.48000002
   19.91250038  101.09600067    2.73000002    2.50000000
   19.91499901  118.12999725    2.46000004    2.51999998
   19.91583252  147.83399963    2.36999989    2.51999998
   19.91916656   71.96269989    2.36999989    2.50000000
   19.92916679   -1.00000000    2.00000000    2.51999998
   19.93249893   -1.00000000    2.09999990    2.50000000
   19.93555450   -1.00000000    2.32999992    2.53999996
   19.93888855   -1.00000000    2.50000000    2.51999998
   19.94222069   -1.00000000    2.67000008    2.51999998
   19.94527626   -1.00000000    2.59999990    2.51999998
   19.94888878   -1.00000000    2.57999992    2.50000000
   19.95194435   -1.00000000    2.55999994    2.50000000
   19.95527840   -1.00000000    2.53999996    2.48000002
   19.95861244   -1.00000000    2.76999998    2.50000000
   19.96166801   -1.00000000    2.93000007    2.50000000
   19.97194481   -1.00000000    2.71000004    2.50000000
   19.97527885   -1.00000000    2.42000008    2.51999998
   19.97861099   -1.00000000    2.76999998    2.48000002
   19.98222351   -1.00000000    4.65999985    2.50000000
   19.98527718   -1.00000000    4.90999985    2.46000004
   19.98861122   -1.00000000    4.90999985    2.39000010
   19.99194527   -1.00000000    4.90999985    2.30999994
   19.99500084   -1.00000000    4.90999985    2.36999989
   19.99833298   -1.00000000    4.90999985    2.39000010
   20.00166702   -1.00000000    4.90999985    2.26999998
   20.00472260   -1.00000000    4.90999985    2.25000000
   20.01499939   -1.00000000    4.90999985    1.80999994
   20.01805496   -1.00000000    4.90999985    2.00000000
   20.02138901   -1.00000000    4.90999985    1.96000004
   20.02472115   -1.00000000    4.90999985    1.85000002
   20.02777672   -1.00000000    4.90999985    1.88000000
   20.03111076   -1.00000000    4.90999985    1.91999996
   20.03416634   -1.00000000    4.90999985    1.85000002
   20.03750038   -1.00000000    4.90999985    2.09999990
   20.04083252   -1.00000000    4.90999985    2.05999994
   20.04388809   -1.00000000    4.90999985    1.91999996
   20.04722214   -1.00000000    4.90999985    1.91999996
   20.07277870   -1.00000000    4.90999985    2.17000008
   20.07611275   -1.00000000    4.90999985    2.17000008
   20.07916832   -1.00000000    4.90999985    2.09999990
   20.08277893   -1.00000000    4.90999985    2.03999996
   20.08611107   -1.00000000    4.90999985    2.05999994
   20.08916664   -1.00000000    4.90999985    2.01999998
   20.09250069   -1.00000000    4.90999985    2.00000000
   20.09555626   -1.00000000    4.90999985    2.11999989
   20.09889030   -1.00000000    4.90999985    2.15000010
   20.10222244   -1.00000000    4.90999985    2.21000004
   20.10527802   -1.00000000    4.90999985    2.23000002
   20.11555672   -1.00000000    4.90999985    2.25000000
   20.11888885   -1.00000000    4.90999985    2.32999992
   20.12194443   -1.00000000    4.90999985    2.26999998
   20.12527847   -1.00000000    4.90999985    2.28999996
   20.12861061   -1.00000000    4.90999985    2.34999990
   20.13166618   -1.00000000    4.90999985    2.40000010
   20.13500023   -1.00000000    4.90999985    2.36999989
   20.13805580   -1.00000000    4.90999985    2.30999994
   20.14138794   -1.00000000    4.90999985    2.34999990
   20.14472198   -1.00000000    4.90999985    2.28999996
   20.14777756   -1.00000000    4.90999985    2.32999992
   20.15833282   -1.00000000    4.90999985    2.30999994
   20.16166687   -1.00000000    4.90999985    2.28999996
   20.16499901   -1.00000000    4.90999985    2.39000010
   20.16805458   -1.00000000    4.90999985    2.36999989
   20.17138863   -1.00000000    4.90999985    2.36999989
   20.17444420   -1.00000000    4.90999985    2.23000002
   20.17777634   -1.00000000    4.90999985    2.40000010
   20.18111038   -1.00000000    4.90999985    2.40000010
   20.18472099   -1.00000000    4.90999985    2.40000010
   20.18777657   -1.00000000    4.90999985    2.30999994
   20.19111061   -1.00000000    4.90999985    1.88000000
   20.20138931   -1.00000000    4.90999985    1.91999996
   20.20444489   -1.00000000    4.90999985    2.09999990
   20.20777893   -1.00000000    4.90999985    2.36999989
   20.21083450   -1.00000000    4.90999985    2.00000000
   20.21416664   -1.00000000    4.90999985    2.00000000
   20.21777916   -1.00000000    4.90999985    2.36999989
   20.22083473   -1.00000000    4.90999985    1.91999996
   20.22416687   -1.00000000    4.90999985    2.07999992
   20.22722244   -1.00000000    4.90999985    2.36999989
   20.23055649   -1.00000000    4.90999985    2.42000008
   20.23388863   -1.00000000    4.90999985    2.40000010
   20.24416733   -1.00000000    4.90999985    2.39000010
   20.24722290   -1.00000000    4.90999985    2.34999990
   20.25111198   -1.00000000    4.90999985    2.32999992
   20.25416756   -1.00000000    4.90999985    2.28999996
   20.25749969   -1.00000000    4.90999985    2.26999998
   20.26055527   -1.00000000    4.90999985    2.30999994
   20.26388931   -1.00000000    4.90999985    2.36999989
   20.26722145   -1.00000000    4.90999985    2.40000010
   20.27027702   -1.00000000    4.90999985    2.40000010
   20.27361107   -1.00000000    4.82999992    2.42000008
   20.27694511   -1.00000000    4.28999996    2.42000008
   20.28694344   -1.00000000    2.98000002    2.42000008
   20.29027748   -1.00000000    2.59999990    2.42000008
   20.29333305   -1.00000000    2.40000010    2.42000008
   20.29666710   -1.00000000    2.34999990    2.42000008
   20.29999924   -1.00000000    2.28999996    2.42000008
   20.30305481   -1.00000000    2.25000000    2.40000010
   20.30638885   -1.00000000    2.25000000    2.40000010
   20.30944443   -1.00000000    2.28999996    2.42000008
   20.31277657   -1.00000000    2.34999990    2.42000008
   20.31638718   -1.00000000    2.39000010    2.42000008
   20.31944466   -1.00000000    2.40000010    2.42000008
   20.32972336   -1.00000000    2.46000004    2.39000010
   20.33305550   -1.00000000    2.46000004    2.39000010
   20.33638954   -1.00000000    2.48000002    2.39000010
   20.33944511   -1.00000000    2.51999998    2.40000010
   20.34277916   -1.00000000    2.55999994    2.40000010
   20.34583473   -1.00000000    2.57999992    2.39000010
   20.34972191   -1.00000000    2.64000010    2.39000010
   20.35277748   -1.00000000    2.66000009    2.39000010
   20.35611153   -1.00000000    2.71000004    2.39000010
   20.35916710   -1.00000000    2.78999996    2.36999989
   20.36250114   -1.00000000    2.86999989    2.36999989
   20.37277794   -1.00000000    2.71000004    2.34999990
   20.37583351   -1.00000000    2.57999992    2.32999992
   20.37916756   -1.00000000    2.53999996    2.32999992
   20.38277817   -1.00000000    2.61999989    2.32999992
   20.38583374   -1.00000000    2.73000002    2.34999990
   20.39583397   -1.00000000    0.00000000    0.00000000
   20.39888954   -1.00000000    0.00000000    0.00000000
   20.40250015   -1.00000000    0.00000000    0.00000000
   20.40583229   -1.00000000    0.00000000    0.00000000
   20.41638756   -1.00000000    0.00000000    0.00000000
   20.41972160   -1.00000000    0.00000000    0.00000000
   20.42305565   -1.00000000    0.00000000    0.00000000
   20.42666626   -1.00000000    0.00000000    0.00000000
   20.43000031   -1.00000000    0.00000000    0.00000000
   20.43305397   -1.00000000    2.75000000    2.34999990
   20.43583298   -1.00000000    2.75000000    2.34999990
   20.43888855   -1.00000000    2.75000000    2.34999990
   20.44194412   -1.00000000    2.75000000    2.34999990
   20.44499969   -1.00000000    2.75000000    2.34999990
   20.44805527   -1.00000000    2.75000000    2.34999990
   20.45805550   -1.00000000    2.75000000    2.34999990
   20.46111107   -1.00000000    2.75000000    2.34999990
   20.46416664   -1.00000000    2.75000000    2.34999990
   20.46722221   -1.00000000    2.75000000    2.34999990
   20.47027779   -1.00000000    2.75000000    2.34999990
   20.47333336   -1.00000000    2.75000000    2.34999990
   20.47638893   -1.00000000    2.75000000    2.34999990
   20.47944450   -1.00000000    2.75000000    2.34999990
   20.48250008   -1.00000000    2.75000000    2.34999990
   20.48555565   -1.00000000    2.75000000    2.34999990
   20.48861122   -1.00000000    2.75000000    2.34999990
   20.49166679   -1.00000000    2.75000000    2.34999990
   20.50083351   -1.00000000    2.75000000    2.34999990
   20.50388908   -1.00000000    2.75000000    2.34999990
   20.50694466   -1.00000000    2.75000000    2.34999990
   20.51000023   -1.00000000    2.75000000    2.34999990
   20.51305580   -1.00000000    2.75000000    2.34999990
   20.51611137   -1.00000000    2.75000000    2.34999990
   20.51916695   -1.00000000    2.75000000    2.34999990
   20.52222252   -1.00000000    2.75000000    2.34999990
   20.52527809   -1.00000000    2.75000000    2.34999990
   20.52833366   -1.00000000    2.75000000    2.34999990
   20.53138924   -1.00000000    2.75000000    2.34999990
   20.53444481   -1.00000000    2.75000000    2.34999990
   20.54361153   -1.00000000    2.75000000    2.34999990
   20.54666710   -1.00000000    2.75000000    2.34999990
   20.54972076   -1.00000000    2.75000000    2.34999990
   20.55277634   -1.00000000    2.75000000    2.34999990
   20.55583191   -1.00000000    2.75000000    2.34999990
   20.55888748   -1.00000000    2.75000000    2.34999990
   20.56194305   -1.00000000    2.75000000    2.34999990
   20.56499863   -1.00000000    2.75000000    2.34999990
   20.56805611   -1.00000000    2.75000000    2.34999990
   20.57111168   -1.00000000    2.75000000    2.34999990
   20.57416725   -1.00000000    2.75000000    2.34999990
   20.57722282   -1.00000000    2.75000000    2.34999990
   20.58638954   -1.00000000    2.75000000    2.34999990
   20.58944511   -1.00000000    2.75000000    2.34999990
   20.59250069   -1.00000000    2.75000000    2.34999990
   20.59555626   -1.00000000    2.75000000    2.34999990
   20.59861183   -1.00000000    2.75000000    2.34999990
   20.60166740   -1.00000000    2.75000000    2.34999990
   20.60472298   -1.00000000    2.75000000    2.34999990
   20.60777855   -1.00000000    2.75000000    2.34999990
   20.61083412   -1.00000000    2.75000000    2.34999990
   20.61388969   -1.00000000    2.75000000    2.34999990
   20.61694527   -1.00000000    2.75000000    2.34999990
   20.62000084   -1.00000000    2.75000000    2.34999990
   20.62944412   -1.00000000    2.75000000    2.34999990
   20.63249969   -1.00000000    2.75000000    2.34999990
   20.63555527   -1.00000000    2.75000000    2.34999990
   20.63861084   -1.00000000    2.75000000    2.34999990
   20.64166641   -1.00000000    2.75000000    2.34999990
   20.64472198   -1.00000000    2.75000000    2.34999990
   20.64777756   -1.00000000    2.75000000    2.34999990
   20.65083313   -1.00000000    2.75000000    2.34999990
   20.65388870   -1.00000000    2.75000000    2.34999990
   20.65694427   -1.00000000    2.75000000    2.34999990
   20.65999985   -1.00000000    2.75000000    2.34999990
   20.66305542   -1.00000000    2.75000000    2.34999990
   20.67222214   -1.00000000    2.75000000    2.34999990
   20.67527771   -1.00000000    2.75000000    2.34999990
   20.67833328   -1.00000000    2.75000000    2.34999990
   20.68138885   -1.00000000    2.75000000    2.34999990
   20.68444443   -1.00000000    2.75000000    2.34999990
   20.68750000   -1.00000000    2.75000000    2.34999990
   20.69055557   -1.00000000    2.75000000    2.34999990
   20.69361115   -1.00000000    2.75000000    2.34999990
   20.69666672   -1.00000000    2.75000000    2.34999990
   20.69972038   -1.00000000    2.75000000    2.34999990
   20.70277786   -1.00000000    2.75000000    2.34999990
   20.70583344   -1.00000000    2.75000000    2.34999990
   20.71500015   -1.00000000    2.75000000    2.34999990
   20.71805573   -1.00000000    2.75000000    2.34999990
   20.72111130   -1.00000000    2.75000000    2.34999990
   20.72416687   -1.00000000    2.75000000    2.34999990
   20.72722244   -1.00000000    2.75000000    2.34999990
   20.73027802   -1.00000000    2.75000000    2.34999990
   20.73333359   -1.00000000    2.75000000    2.34999990
   20.73638916   -1.00000000    2.75000000    2.34999990
   20.73944473   -1.00000000    2.75000000    2.34999990
   20.74250031   -1.00000000    2.75000000    2.34999990
   20.74555588   -1.00000000    2.75000000    2.34999990
   20.74861145   -1.00000000    2.75000000    2.34999990
   20.75777817   -1.00000000    2.75000000    2.34999990
   20.76083374   -1.00000000    2.75000000    2.34999990
   20.76388931   -1.00000000    2.75000000    2.34999990
   20.76694489   -1.00000000    2.75000000    2.34999990
   20.77000046   -1.00000000    2.75000000    2.34999990
   20.77305603   -1.00000000    2.75000000    2.34999990
   20.77611160   -1.00000000    2.75000000    2.34999990
   20.77916718   -1.00000000    2.75000000    2.34999990
   20.78222275   -1.00000000    2.75000000    2.34999990
   20.78527641   -1.00000000    2.75000000    2.34999990
   20.78833199   -1.00000000    2.75000000    2.34999990
   20.79138756   -1.00000000    2.75000000    2.34999990
   20.80083275   -1.00000000    2.75000000    2.34999990
   20.80388832   -1.00000000    2.75000000    2.34999990
   20.80694389   -1.00000000    2.75000000    2.34999990
   20.80999947   -1.00000000    2.75000000    2.34999990
   20.81305504   -1.00000000    2.75000000    2.34999990
   20.81611061   -1.00000000    2.75000000    2.34999990
   20.81916809   -1.00000000    2.75000000    2.34999990
   20.82222366   -1.00000000    2.75000000    2.34999990
   20.82527924   -1.00000000    2.75000000    2.34999990
   20.82833481   -1.00000000    2.75000000    2.34999990
   20.83139038   -1.00000000    2.75000000    2.34999990
   20.83444595   -1.00000000    2.75000000    2.34999990
   20.84361267   -1.00000000    2.75000000    2.34999990
   20.84666824   -1.00000000    2.75000000    2.34999990
   20.84972191   -1.00000000    2.75000000    2.34999990
   20.85277748   -1.00000000    2.75000000    2.34999990
   20.85583305   -1.00000000    2.75000000    2.34999990
   20.85888863   -1.00000000    2.75000000    2.34999990
   20.86194420   -1.00000000    2.75000000    2.34999990
   20.86499977   -1.00000000    2.75000000    2.34999990
   20.86805534   -1.00000000    2.75000000    2.34999990
   20.87111092   -1.00000000    2.75000000    2.34999990
   20.87416649   -1.00000000    2.75000000    2.34999990
   20.87722206   -1.00000000    2.75000000    2.34999990
   20.88638878   -1.00000000    2.75000000    2.34999990
   20.88944435   -1.00000000    2.75000000    2.34999990
   20.89249992   -1.00000000    2.75000000    2.34999990
   20.89555550   -1.00000000    2.75000000    2.34999990
   20.89861107   -1.00000000    2.75000000    2.34999990
   20.90166664   -1.00000000    2.75000000    2.34999990
   20.90472221   -1.00000000    2.75000000    2.34999990
   20.90777779   -1.00000000    2.75000000    2.34999990
   20.91083336   -1.00000000    2.75000000    2.34999990
   20.91388893   -1.00000000    2.75000000    2.34999990
   20.91694450   -1.00000000    2.75000000    2.34999990
   20.92000008   -1.00000000    2.75000000    2.34999990
   20.92916679   -1.00000000    2.75000000    2.34999990
   20.93222237   -1.00000000    2.75000000    2.34999990
   20.93527603   -1.00000000    2.75000000    2.34999990
   20.93833160   -1.00000000    2.75000000    2.34999990
   20.94138718   -1.00000000    2.75000000    2.34999990
   20.94444275   -1.00000000    2.75000000    2.34999990
   20.94749832   -1.00000000    2.75000000    2.34999990
   20.95055580   -1.00000000    2.75000000    2.34999990
   20.95361137   -1.00000000    2.75000000    2.34999990
