    HOUR (UT)   FLARE FACTOR    SKY TESTER    SUN TESTER
   11.17416668   -1.00000000   -1.00000000   -1.00000000
   11.21555519   -1.00000000    4.90999985    1.75000000
   11.21888828   -1.00000000    4.90999985    1.71000004
   11.22833252  246.35000610    4.90999985    1.86000001
   11.23194408  455.91400146    4.90999985    1.91999996
   11.23416710  229.59399414    4.90999985    1.94000006
   11.23416710  246.35000610    4.90999985    1.86000001
   11.23416710  455.91400146    4.90999985    1.91999996
   11.23611164  368.77899170    4.90999985    1.98000002
   11.23944473  300.31298828    4.90999985    1.98000002
   11.24277782  209.71699524    4.90999985    1.96000004
   11.24583340  158.41799927    4.90999985    2.01999998
   11.24916649  306.92001343    4.90999985    2.01999998
   11.25500011  306.92001343    4.90999985    2.05999994
   11.25916672  167.83399963    4.90999985    2.19000006
   11.26222229  188.74099731    4.90999985    2.30999994
   11.26555538  147.44099426    4.90999985    2.34999990
   11.26805496  161.65699768    4.90999985    2.34999990
   11.26916599  205.14999390    4.90999985    2.36999989
   11.27250004  157.24000549    4.90999985    2.34999990
   11.27583313  168.76199341    4.90999985    2.39000010
   11.27888870  158.56700134    4.90999985    2.39000010
   11.28222179  167.17999268    4.90999985    2.36999989
   11.28527832  148.94700623    4.90999985    2.32999992
   11.28861141  223.03399658    4.90999985    2.30999994
   11.29194450  136.49400330    4.90999985    2.30999994
   11.29777813  136.49400330    4.90999985    2.30999994
   11.30194473  146.86000061    4.90999985    2.28999996
   11.30500031  177.53300476    4.90999985    2.30999994
   11.30833340  184.81700134    4.90999985    2.34999990
   11.31166649  145.44799805    4.90999985    2.34999990
   11.31500053  225.97999573    4.90999985    2.32999992
   11.31805515  177.13999939    4.90999985    2.36999989
   11.32138920  154.33799744    4.90999985    2.40000010
   11.32444477  191.38000488    4.90999985    2.42000008
   11.32777786  272.11499023    4.90999985    2.40000010
   11.33111095  167.14799500    4.90999985    2.34999990
   11.33416653  204.71099854    4.90999985    2.30999994
   11.33472157  184.63200378    4.90999985    2.30999994
   11.34055519  184.63200378    4.90999985    2.19000006
   11.34472179  326.79199219    4.90999985    2.11999989
   11.34805489  353.18899536    4.90999985    2.09999990
   11.35111141  338.64199829    4.90999985    2.15000010
   11.35444450  292.14300537    4.90999985    2.21000004
   11.35777855  227.02400208    4.90999985    2.23000002
   11.36083412  207.16099548    4.90999985    2.28999996
   11.36416721  343.15301514    4.90999985    2.28999996
   11.36722279  354.23098755    4.90999985    2.21000004
   11.36805534  302.20999146    4.90999985    2.21000004
   11.37111092  291.34500122    4.90999985    2.09999990
   11.37444496  259.51501465    4.90999985    2.05999994
   11.37750053  405.14001465    4.90999985    2.07999992
   11.37944412  424.71499634    4.90999985    2.11999989
   11.38083363  421.98001099    4.90999985    2.11999989
   11.38222218  298.35998535    4.90999985    2.11999989
   11.38222218  259.51501465    4.90999985    2.05999994
   11.38249969  405.14001465    4.90999985    2.07999992
   11.38249969  338.64199829    4.90999985    2.15000010
   11.38249969  292.14300537    4.90999985    2.21000004
   11.38277817  227.02400208    4.90999985    2.23000002
   11.38277817  207.16099548    4.90999985    2.28999996
   11.38305569  343.15301514    4.90999985    2.28999996
   11.38305569  354.23098755    4.90999985    2.21000004
   11.38305569  291.34500122    4.90999985    2.09999990
   11.38361073  427.28399658    4.90999985    2.11999989
   11.38583279  202.31300354    4.90999985    2.11999989
   11.38777733  280.93399048    4.90999985    2.07999992
   11.39083290  153.99099731    4.90999985    2.03999996
   11.39416695  292.79598999    4.90999985    2.03999996
   11.39750004  424.94601440    4.90999985    2.09999990
   11.39944458  499.92300415    4.90999985    2.13000011
   11.40083313  317.94000244    4.90999985    2.15000010
   11.40083313  280.93399048    4.90999985    2.07999992
   11.40083313  153.99099731    4.90999985    2.03999996
   11.40111065  292.79598999    4.90999985    2.03999996
   11.40111065  424.94601440    4.90999985    2.09999990
   11.40222168  356.14401245    4.90999985    2.15000010
   11.40555477  355.22299194    4.90999985    2.15000010
   11.40861034  221.03900146    4.90999985    2.11999989
   11.41194439  242.09800720    4.90999985    2.09999990
   11.41527748  130.34199524    4.90999985    2.05999994
   11.42166710  130.34199524    4.90999985    2.09999990
   11.42583370  313.45599365    4.90999985    2.21000004
   11.42888927  310.89401245    4.90999985    2.23000002
   11.43222237  338.73599243    4.90999985    2.21000004
   11.43472195  232.77900696    4.90999985    2.17000008
   11.43583298  230.45100403    4.90999985    2.13000011
   11.43916702  178.06500244    4.90999985    2.09999990
   11.44222260  174.18899536    4.90999985    2.05999994
   11.44555569  301.25500488    4.90999985    2.09999990
   11.44888878  297.05899048    4.90999985    2.15000010
   11.45194435  329.20700073    4.90999985    2.17000008
   11.45527744  336.07699585    4.90999985    2.19000006
   11.45861053  262.39498901    4.90999985    2.21000004
   11.46444416  262.39498901    4.90999985    2.25000000
   11.46861076  140.05900574    4.90999985    2.11999989
   11.47166634  147.86799622    4.90999985    2.07999992
   11.47499943  123.66799927    4.90999985    2.05999994
   11.47833252   99.07800293    4.90999985    2.01999998
   11.48138809   95.67179871    4.90999985    2.00000000
   11.48472214  233.82499695    4.90999985    2.05999994
   11.48805618  169.20300293    4.90999985    2.13000011
   11.49111176  151.38000488    4.90999985    2.13000011
   11.49444485   93.67769623    4.90999985    2.07999992
   11.49750042   96.01999664    4.90999985    2.05999994
   11.50083351   87.86569977    4.90999985    2.01999998
   11.50138855  105.18699646    4.90999985    2.01999998
   11.50722218  105.18699646    4.90999985    1.94000006
   11.51138878   -1.00000000   -1.00000000   -1.00000000
   11.51472187   -1.00000000    4.90999985    1.89999998
   11.51777744   -1.00000000   -1.00000000   -1.00000000
   11.52111053   -1.00000000    4.90999985    1.91999996
   11.52416611   -1.00000000    4.90999985    1.88000000
   11.52750015   -1.00000000    4.90999985    1.88000000
   11.53083324   -1.00000000    4.90999985    1.91999996
   11.53388977   -1.00000000    4.90999985    1.91999996
   11.53750038   99.98329926    4.90999985    1.98000002
   11.54083347  103.67800140    4.90999985    2.05999994
   11.54416752   41.30960083    4.90999985    2.01999998
   11.55000019   41.30960083    4.90999985    1.94000006
   11.55416679   -1.00000000    4.90999985    1.89999998
   11.55749989   -1.00000000    4.90999985    1.89999998
   11.56083393   -1.00000000    4.90999985    1.94000006
   11.56388950   -1.00000000    4.90999985    1.94000006
   11.56722260   -1.00000000    4.90999985    1.85000002
   11.57055569   -1.00000000    4.90999985    1.88000000
   11.57388878   -1.00000000    4.90999985    1.88000000
   11.57694435   -1.00000000    4.90999985    1.85000002
   11.58027744   -1.00000000    4.90999985    1.85000002
   11.58361053   -1.00000000    4.90999985    1.85000002
   11.58666611   -1.00000000    4.90999985    1.85000002
   11.59305477   -1.00000000    4.90999985    1.89999998
   11.59694386   -1.00000000    4.90999985    1.89999998
   11.60027790   -1.00000000    4.90999985    1.88000000
   11.60361195   -1.00000000    4.90999985    1.91999996
   11.60694504   39.76850128    4.90999985    1.91999996
   11.61027813   -1.00000000    4.90999985    2.00000000
   11.61333370   48.73659897    4.90999985    1.98000002
   11.61666679   -1.00000000    4.90999985    1.94000006
   11.61972237   -1.00000000    4.90999985    1.89999998
   11.62305546   -1.00000000    4.90999985    1.80999994
   11.62638855   -1.00000000    4.90999985    1.80999994
   11.62944412   -1.00000000    4.90999985    1.76999998
   11.63583279   -1.00000000    4.90999985    1.83000004
   11.64000034   -1.00000000    4.90999985    1.86000001
   11.64305496   -1.00000000    4.90999985    1.83000004
   11.64638901   -1.00000000    4.90999985    1.83000004
   11.64944458   -1.00000000    4.90999985    1.85000002
   11.65277767   -1.00000000    4.90999985    1.86000001
   11.65611076   -1.00000000    4.90999985    1.91999996
   11.65916634   -1.00000000    4.90999985    1.96000004
   11.66249943   -1.00000000    4.90999985    1.96000004
   11.66583252   -1.00000000    4.90999985    1.91999996
   11.66916656   -1.00000000    4.90999985    1.91999996
   11.67250061   -1.00000000    4.90999985    1.89999998
   11.67861176   -1.00000000    4.90999985    1.85000002
   11.68277836   -1.00000000    4.90999985    1.76999998
   11.68583298   -1.00000000    4.90999985    1.83000004
   11.68916702   23.57019997    4.90999985    1.89999998
   11.69250011   83.35189819    4.90999985    2.01999998
   11.69555569   46.46049881    4.90999985    2.01999998
   11.69888878   94.20300293    4.90999985    2.00000000
   11.70138836  122.33599854    4.90999985    2.01999998
   11.70249939  110.98600006    4.90999985    2.03999996
   11.70555496   78.59690094    4.90999985    2.07999992
   11.70888901  103.16000366    4.90999985    2.05999994
   11.71222210   45.55509949    4.90999985    2.05999994
   11.71527767   81.19989777    4.90999985    2.05999994
   11.72138882   81.19989777    4.90999985    1.89999998
   11.72555542   -1.00000000    4.90999985    1.78999996
   11.72888851   -1.00000000    4.90999985    1.88000000
   11.73194408   -1.00000000    4.90999985    1.91999996
   11.73555565   -1.00000000    4.90999985    1.83000004
   11.73888874   -1.00000000    4.90999985    1.88000000
   11.74222279   23.57019997    4.90999985    1.96000004
   11.74527836   -1.00000000    4.90999985    1.98000002
   11.74861145   -1.00000000    4.90999985    1.94000006
   11.75166702   -1.00000000    4.90999985    1.91999996
   11.75500011   -1.00000000    4.90999985    1.85000002
   11.75833321   -1.00000000    4.90999985    1.75000000
   11.76444435   -1.00000000    4.90999985    1.69000006
   11.76833344   -1.00000000    4.90999985    1.85000002
   11.77166653   -1.00000000    4.90999985    1.91999996
   11.77499962   -1.00000000    4.90999985    1.89999998
   11.77805519   -1.00000000    4.90999985    1.89999998
   11.78138828   -1.00000000    4.90999985    1.96000004
   11.78444481   -1.00000000    4.90999985    2.01999998
   11.78777790   54.78010178    4.90999985    1.98000002
   11.79111195   37.11040115    4.90999985    2.00000000
   11.79416752   83.67569733    4.90999985    2.03999996
   11.79750061   97.99040222    4.90999985    2.07999992
   11.80083370   78.91320038    4.90999985    2.07999992
   11.80138874   99.02519989    4.90999985    2.07999992
   11.80722237   99.02519989    4.90999985    2.09999990
   11.81138897  137.47900391    4.90999985    2.19000006
   11.81444454  120.06300354    4.90999985    2.09999990
   11.81777763  110.98500061    4.90999985    2.01999998
   11.82111073  110.01799774    4.90999985    2.03999996
   11.82416630  128.94200134    4.90999985    2.09999990
   11.82750034  252.92399597    4.90999985    2.13000011
   11.83055592  259.90100098    4.90999985    2.19000006
   11.83388901  143.29899597    4.90999985    2.17000008
   11.83472157  123.02899933    4.90999985    2.15000010
   11.83749962  133.80299377    4.90999985    2.07999992
   11.84055519  103.23799896    4.90999985    2.07999992
   11.84388828   23.57019997    4.90999985    1.98000002
   11.85000038   23.57019997    4.90999985    1.96000004
   11.85416698  113.42199707    4.90999985    2.00000000
   11.85722256  159.44999695    4.90999985    2.05999994
   11.86055565  300.01098633    4.90999985    2.17000008
   11.86388969  172.63499451    4.90999985    2.28999996
   11.86694431  236.68400574    4.90999985    2.17000008
   11.86805534  298.07299805    4.90999985    2.19000006
   11.87083340  300.16299438    4.90999985    2.19000006
   11.87388897  208.63400269    4.90999985    2.21000004
   11.87722206  235.28399658    4.90999985    2.17000008
   11.88055611   36.53269958    4.90999985    2.07999992
   11.88361073  115.50099945    4.90999985    2.01999998
   11.88694477  151.26499939    4.90999985    2.07999992
   11.89277744  151.26499939    4.90999985    2.09999990
   11.89694405  149.83200073    4.90999985    2.11999989
   11.90027714  168.60899353    4.90999985    2.15000010
   11.90138817  148.21099854    4.90999985    2.15000010
   11.90388870  256.78601074    4.90999985    2.15000010
   11.90694427  222.85400391    4.90999985    2.19000006
   11.91027737  278.66299438    4.90999985    2.32999992
   11.91361046  281.79000854    4.90999985    2.32999992
   11.91666698  322.18600464    4.90999985    2.30999994
   11.92000008  288.83999634    4.90999985    2.26999998
   11.92305565  313.47299194    4.90999985    2.30999994
   11.92638874  134.67799377    4.90999985    2.17000008
   11.92972279  113.52999878    4.90999985    2.09999990
   11.93555546  113.52999878    4.90999985    2.05999994
   11.93972206  149.50100708    4.90999985    2.11999989
   11.94305515  240.54600525    4.90999985    2.13000011
   11.94638920  299.34799194    4.90999985    2.25000000
   11.94944477  238.40199280    4.90999985    2.30999994
   11.95277786  241.53199768    4.90999985    2.36999989
   11.95583344  176.44500732    4.90999985    2.50000000
   11.95916653  197.13000488    4.90999985    2.55999994
   11.96249962  291.36999512    4.90999985    2.50000000
   11.96555519  317.20800781    4.90999985    2.40000010
   11.96805477  319.87600708    4.90999985    2.26999998
   11.96944427  305.52099609    4.90999985    2.25000000
   11.97249985  252.55499268    4.90999985    2.17000008
   11.97861099  252.55499268    4.90999985    2.32999992
   11.98277760  216.08900452    4.90999985    2.46000004
   11.98583317  229.87300110    4.90999985    2.46000004
   11.98916721  188.49200439    4.90999985    2.44000006
   11.99222279  230.64900208    4.90999985    2.44000006
   11.99555588  189.87399292    4.90999985    2.46000004
   11.99888897  155.39399719    4.90999985    2.48000002
   12.00138855  138.92799377    4.90999985    2.53999996
   12.00249958  167.78700256    4.90999985    2.53999996
   12.00555515  160.07400513    4.90999985    2.57999992
   12.00888920  165.93099976    4.90999985    2.57999992
   12.01222229  136.50000000    4.90999985    2.51999998
   12.01527786  143.15199280    4.90999985    2.59999990
   12.02138901  143.15199280    4.90999985    2.69000006
   12.02555561  141.39799500    4.90999985    2.69000006
   12.02861118  129.62300110    4.90999985    2.59999990
   12.03194427  138.24899292    4.90999985    2.64000010
   12.03472233  146.58000183    4.90999985    2.64000010
   12.03555584  154.55999756    4.90999985    2.59999990
   12.03861141  113.45300293    4.90999985    2.57999992
   12.04194450  129.33299255    4.90999985    2.69000006
   12.04527855  141.31300354    4.90999985    2.69000006
   12.04833412  138.62699890    4.90999985    2.66000009
   12.05166721  142.03100586    4.90999985    2.67000008
   12.05500031  135.21099854    4.90999985    2.69000006
   12.05805588  144.70599365    4.90999985    2.66000009
   12.06416702  144.70599365    4.90999985    2.64000010
   12.06833363  133.26699829    4.90999985    2.66000009
   12.07166672  136.77699280    4.90999985    2.67000008
   12.07472229  132.79499817    4.90999985    2.66000009
   12.07805538  130.58099365    4.90999985    2.61999989
   12.08138847  123.93499756    4.90999985    2.67000008
   12.08444405  131.59599304    4.90999985    2.69000006
   12.08777714  130.02099609    4.90999985    2.67000008
   12.09111118  122.50399780    4.90999985    2.67000008
   12.09416676  131.18600464    4.90999985    2.73000002
   12.09749985  122.64600372    4.90999985    2.71000004
   12.10083389  117.70300293    4.90999985    2.75000000
   12.10138893  126.32199860    4.90999985    2.75000000
   12.10694504  126.32199860    4.90999985    2.73000002
   12.11111164  130.07899475    4.90999985    2.73000002
   12.11444473  129.10400391    4.90999985    2.73000002
   12.11777782  141.81100464    4.90999985    2.71000004
   12.12083340  121.04199982    4.90999985    2.66000009
   12.12416649  141.54499817    4.90999985    2.73000002
   12.12722206  134.46800232    4.90999985    2.71000004
   12.13055611  128.35299683    4.90999985    2.73000002
   12.13388920  133.16000366    4.90999985    2.66000009
   12.13472176  128.41200256    4.90999985    2.67000008
   12.13749981  134.03199768    4.90999985    2.67000008
   12.14055538  135.96000671    4.90999985    2.64000010
   12.14388847  121.48799896    4.90999985    2.64000010
   12.14999962  121.48799896    4.90999985    2.59999990
   12.15416622  135.51400757    4.90999985    2.61999989
   12.15722179  145.10600281    4.90999985    2.61999989
   12.16055489  142.12399292    4.90999985    2.59999990
   12.16361046  159.50000000    4.90999985    2.59999990
   12.16694450  169.59899902    4.90999985    2.67000008
   12.16805553  149.22300720    4.90999985    2.66000009
   12.17083359  146.98599243    4.90999985    2.55999994
   12.17388916  160.52999878    4.90999985    2.64000010
   12.17722225  150.62899780    4.90999985    2.53999996
   12.18055630  173.93600464    4.90999985    2.51999998
   12.18361092  188.06799316    4.90999985    2.50000000
   12.18694496  146.87300110    4.90999985    2.50000000
   12.19277763  146.87300110    4.90999985    2.57999992
   12.19694424  187.92999268    4.90999985    2.55999994
   12.19999981  160.17599487    4.90999985    2.48000002
   12.20138836  165.28700256    4.90999985    2.50000000
   12.20388889  158.73899841    4.90999985    2.48000002
   12.20722198  190.61500549    4.90999985    2.48000002
   12.21027756  148.90100098    4.90999985    2.48000002
   12.21361065  173.72399902    4.90999985    2.53999996
   12.21666622  161.75999451    4.90999985    2.50000000
   12.21999931  293.17800903    4.90999985    2.48000002
   12.22333336  244.56799316    4.90999985    2.28999996
   12.24583340  244.56799316    4.90999985    2.48000002
   12.25000000   84.21379852    4.90999985    2.57999992
   12.25333309   76.55079651    4.90999985    2.66000009
   12.25666714   76.81870270    4.90999985    2.57999992
   12.25972176   84.51809692    4.90999985    2.57999992
   12.26305580  129.08299255    4.90999985    2.66000009
   12.26611137  124.40100098    4.90999985    2.64000010
   12.26944447   76.47969818    4.90999985    2.64000010
   12.27277756   73.96849823    4.90999985    2.76999998
   12.27583313   76.38099670    4.90999985    2.75000000
   12.27666664   75.03479767    4.90999985    2.73000002
   12.27944374   88.81060028    4.90999985    2.66000009
   12.28277779  131.47399902    4.90999985    2.71000004
   12.28861141  131.47399902    4.90999985    2.64000010
   12.29277802   74.62449646    4.90999985    2.64000010
   12.29611111   77.90360260    4.90999985    2.61999989
   12.29916668  100.65100098    4.90999985    2.61999989
   12.30249977  169.66099548    4.90999985    2.64000010
   12.30555534  121.87500000    4.90999985    2.59999990
   12.30888939   78.85260010    4.90999985    2.57999992
   12.31000042   74.55110168    4.90999985    2.53999996
   12.31250000   74.94210052    4.90999985    2.57999992
   12.31555557   78.42209625    4.90999985    2.55999994
   12.31888866   74.43119812    4.90999985    2.61999989
   12.32222176   74.21309662    4.90999985    2.64000010
   12.32527733   72.18499756    4.90999985    2.69000006
   12.33166695   72.18499756    4.90999985    2.66000009
   12.33555508   75.57230377    4.90999985    2.66000009
   12.33888817   75.22570038    4.90999985    2.64000010
   12.34222221   76.65290070    4.90999985    2.53999996
   12.34361076   75.26570129    4.90999985    2.55999994
   12.34583282   80.75180054    4.90999985    2.57999992
   12.34888840   74.62960052    4.90999985    2.59999990
   12.35222244   76.67849731    4.90999985    2.67000008
   12.35555553   75.01490021    4.90999985    2.61999989
   12.35861111   75.36789703    4.90999985    2.53999996
   12.36194515   80.01349640    4.90999985    2.53999996
   12.36500072   79.29640198    4.90999985    2.46000004
   12.36833382   77.59529877    4.90999985    2.53999996
   12.37444496   77.59529877    4.90999985    2.55999994
   12.37861156   80.99810028    4.90999985    2.46000004
   12.38166714   76.14630127    4.90999985    2.53999996
   12.38500023   81.91510010    4.90999985    2.55999994
   12.38833332   81.52169800    4.90999985    2.48000002
   12.39138889   79.28029633    4.90999985    2.48000002
   12.39472198   77.95880127    4.90999985    2.42000008
   12.39777756   83.39980316    4.90999985    2.42000008
   12.40111065   79.09030151    4.90999985    2.48000002
   12.40444374   82.39790344    4.90999985    2.46000004
   12.40749931   81.07740021    4.90999985    2.55999994
   12.41027737   75.66069794    4.90999985    2.61999989
   12.41138840   78.98349762    4.90999985    2.64000010
   12.41722298   78.98349762    4.90999985    2.51999998
   12.42138958   76.79299927    4.90999985    2.55999994
   12.42472267   73.45870209    4.90999985    2.51999998
   12.42777824   79.40399933    4.90999985    2.59999990
   12.43111134   76.09870148    4.90999985    2.57999992
   12.43416691   80.25450134    4.90999985    2.59999990
   12.43750000   77.66410065    4.90999985    2.57999992
   12.44083309   78.58820343    4.90999985    2.59999990
   12.44361115   77.35410309    4.90999985    2.55999994
   12.44444466   78.98829651    4.90999985    2.53999996
   12.44750023   77.41799927    4.90999985    2.48000002
   12.45083332   78.22350311    4.90999985    2.55999994
   12.45416641   78.60669708    4.90999985    2.51999998
   12.46000004   78.60669708    4.90999985    2.64000010
   12.46416664   73.78579712    4.90999985    2.64000010
   12.46749973   77.55269623    4.90999985    2.59999990
   12.47055531   75.23709869    4.90999985    2.57999992
   12.47388840   79.52639771    4.90999985    2.53999996
   12.47694397   76.61139679    4.90999985    2.55999994
   12.47749996   79.52040100    4.90999985    2.55999994
   12.48055553   79.55359650    4.90999985    2.57999992
   12.48388958   76.40879822    4.90999985    2.59999990
   12.48722267   76.92839813    4.90999985    2.59999990
   12.49027824   79.84680176    4.90999985    2.53999996
   12.49361134   78.02970123    4.90999985    2.61999989
   12.49694443   74.70210266    4.90999985    2.55999994
   12.50305557   74.70210266    4.90999985    2.57999992
   12.50694466   78.93609619    4.90999985    2.55999994
   12.51027775   78.01869965    4.90999985    2.59999990
   12.51083374   78.74749756    4.90999985    2.64000010
   12.51388931   78.31880188    4.90999985    2.61999989
   12.51722240   77.01809692    4.90999985    2.57999992
   12.52055550   75.17240143    4.90999985    2.61999989
   12.52361107   78.31700134    4.90999985    2.64000010
   12.52694416   75.62100220    4.90999985    2.64000010
   12.53027725   76.67259979    4.90999985    2.59999990
   12.53333378   77.48760223    4.90999985    2.57999992
   12.53666687   76.52320099    4.90999985    2.48000002
   12.53972244   78.32669830    4.90999985    2.48000002
   12.54583359   78.32669830    4.90999985    2.59999990
   12.55000019   81.56340027    4.90999985    2.57999992
   12.55305576   75.83329773    4.90999985    2.46000004
   12.55638885   77.49639893    4.90999985    2.53999996
   12.55972195   80.87979889    4.90999985    2.51999998
   12.56277752   77.55249786    4.90999985    2.61999989
   12.56611156   74.04199982    4.90999985    2.55999994
   12.56916618   80.87940216    4.90999985    2.59999990
   12.57250023   76.83399963    4.90999985    2.61999989
   12.57583332   75.92259979    4.90999985    2.61999989
   12.57694435   71.61930084    4.90999985    2.64000010
   12.57944393   75.98190308    4.90999985    2.66000009
   12.58277798   74.46520233    4.90999985    2.61999989
   12.58861065   74.46520233    4.90999985    2.59999990
   12.59277725   73.99690247    4.90999985    2.59999990
   12.59611034   75.84580231    4.90999985    2.64000010
   12.59916592   76.44950104    4.90999985    2.64000010
   12.60249996   76.19300079    4.90999985    2.67000008
   12.60555553   75.32289886    4.90999985    2.69000006
   12.60888958   74.94879913    4.90999985    2.67000008
   12.61027813   73.39250183    4.90999985    2.69000006
   12.61250019   80.19280243    4.90999985    2.67000008
   12.61583328   75.14769745    4.90999985    2.59999990
   12.61888885   75.38449860    4.90999985    2.66000009
   12.62222195   73.27079773    4.90999985    2.71000004
   12.62527752   72.24900055    4.90999985    2.66000009
   12.63138866   72.24900055    4.90999985    2.67000008
   12.63555527   74.19760132    4.90999985    2.71000004
   12.63888836   72.35630035    4.90999985    2.69000006
   12.64194393   71.47339630    4.90999985    2.64000010
   12.64388847   73.82710266    4.90999985    2.66000009
   12.64583302   74.70369720    4.90999985    2.67000008
   12.64888859   75.95439911    4.90999985    2.69000006
   12.65222168   75.31079865    4.90999985    2.71000004
   12.65555477   72.46369934    4.90999985    2.71000004
   12.65861034   72.12930298    4.90999985    2.71000004
   12.66194439   72.75000000    4.90999985    2.75000000
   12.66499996   69.87319946    4.90999985    2.80999994
   12.66833401   73.27390289    4.90999985    2.76999998
   12.67444515   73.27390289    4.90999985    2.71000004
   12.67833328   74.25009918    4.90999985    2.71000004
   12.68166733   72.84719849    4.90999985    2.71000004
   12.68500042   74.81719971    4.90999985    2.71000004
   12.68805599   76.36779785    4.90999985    2.67000008
   12.69138908   72.53170013    4.90999985    2.71000004
   12.69472218   73.20729828    4.90999985    2.73000002
   12.69777775   71.83930206    4.90999985    2.73000002
   12.70111084   71.32140350    4.90999985    2.73000002
   12.70416641   72.63790131    4.90999985    2.78999996
   12.70749950   73.73190308    4.90999985    2.76999998
   12.71055508   70.21959686    4.90999985    2.78999996
   12.71138859   71.28399658    4.90999985    2.78999996
   12.71722221   71.28399658    4.90999985    2.82999992
   12.72138882   74.49410248    4.90999985    2.78999996
   12.72444439   70.49359894    4.90999985    2.80999994
   12.72777748   73.48480225    4.90999985    2.78999996
   12.73111057   72.18959808    4.90999985    2.82999992
   12.73416710   71.83280182    4.90999985    2.84999990
   12.73750019   71.70310211    4.90999985    2.78999996
   12.74055576   70.51560211    4.90999985    2.82999992
   12.74388885   72.53459930    4.90999985    2.78999996
   12.74444485   73.37259674    4.90999985    2.76999998
   12.74750042   73.61920166    4.90999985    2.75000000
   12.75083351   73.10140228    4.90999985    2.76999998
   12.75416660   72.82810211    4.90999985    2.76999998
   12.76000023   72.82810211    4.90999985    2.75000000
   12.76416683   72.73899841    4.90999985    2.78999996
   12.76749992   73.27310181    4.90999985    2.78999996
   12.77055550   72.07129669    4.90999985    2.80999994
   12.77388859   72.35399628    4.90999985    2.78999996
   12.77694416   71.45939636    4.90999985    2.80999994
   12.77750015   69.26679993    4.90999985    2.80999994
   12.78111076   70.67590332    4.90999985    2.86999989
   12.78444481   68.66069794    4.90999985    2.86999989
   12.78750038   69.66349792    4.90999985    2.86999989
   12.79083347   72.40640259    4.90999985    2.84999990
   12.79416752   70.59649658    4.90999985    2.82999992
   12.79722309   71.25930023    4.90999985    2.80999994
   12.80277824   71.25930023    4.90999985    2.78999996
   12.80694485   70.46929932    4.90999985    2.80999994
   12.81027794   72.23809814    4.90999985    2.78999996
   12.81083393   71.25640106    4.90999985    2.80999994
   12.81388950   74.17279816    4.90999985    2.82999992
   12.81722260   74.18360138    4.90999985    2.82999992
   12.82027817   71.50090027    4.90999985    2.82999992
   12.82361126   72.53269958    4.90999985    2.78999996
   12.82694435   74.72810364    4.90999985    2.76999998
   12.82999992   74.04270172    4.90999985    2.78999996
   12.83333302   69.62619781    4.90999985    2.78999996
   12.83638859   71.09339905    4.90999985    2.82999992
   12.83972168   72.78610229    4.90999985    2.86999989
   12.84583282   72.78610229    4.90999985    2.86999989
   12.84972191   70.33830261    4.90999985    2.89000010
   12.85305595   69.38320160    4.90999985    2.86999989
   12.85638905   69.31950378    4.90999985    2.84999990
   12.85944462   71.56929779    4.90999985    2.84999990
   12.86277771   71.54160309    4.90999985    2.91000009
   12.86611176   70.05090332    4.90999985    2.91000009
   12.86916637   70.71320343    4.90999985    2.89000010
   12.87250042   69.82420349    4.90999985    2.86999989
   12.87583351   70.83129883    4.90999985    2.86999989
   12.87750053   70.41739655    4.90999985    2.86999989
   12.87944412   70.59490204    4.90999985    2.89000010
   12.88277817   69.81060028    4.90999985    2.89000010
   12.88861084   69.81060028    4.90999985    2.89000010
   12.89277744   70.05940247    4.90999985    2.89000010
   12.89583302   72.17400360    4.90999985    2.84999990
   12.89916611   71.62290192    4.90999985    2.89000010
   12.90222168   68.03990173    4.90999985    2.89000010
   12.90555477   70.04329681    4.90999985    2.91000009
   12.90888882   70.91780090    4.90999985    2.91000009
   12.91083336   68.05120087    4.90999985    2.91000009
   12.91249943   70.97630310    4.90999985    2.91000009
   12.91583252   70.57659912    4.90999985    2.93000007
   12.91888905   70.73979950    4.90999985    2.91000009
   12.92222214   71.44580078    4.90999985    2.89000010
   12.92555618   74.18669891    4.90999985    2.86999989
   12.93138885   74.18669891    4.90999985    2.82999992
   12.93555546   70.51779938    4.90999985    2.84999990
   12.93861103   72.38780212    4.90999985    2.80999994
   12.94194412   71.98449707    4.90999985    2.82999992
   12.94416714   69.52610016    4.90999985    2.82999992
   12.94555569   70.46150208    4.90999985    2.82999992
   12.94888878   73.83830261    4.90999985    2.84999990
   12.95194435   72.09459686    4.90999985    2.84999990
   12.95527744   70.44550323    4.90999985    2.84999990
   12.95861053   72.91570282    4.90999985    2.82999992
   12.96166611   73.87599945    4.90999985    2.86999989
   12.96500015   72.41000366    4.90999985    2.82999992
   12.96805477   72.95429993    4.90999985    2.80999994
   12.97416592   72.95429993    4.90999985    2.78999996
   12.97833252   69.26540375    4.90999985    2.84999990
   12.98166656   70.04979706    4.90999985    2.86999989
   12.98472214   72.61260223    4.90999985    2.84999990
   12.98805618   74.82019806    4.90999985    2.82999992
   12.99138927   72.02030182    4.90999985    2.84999990
   12.99444485   70.43350220    4.90999985    2.86999989
   12.99777794   73.00289917    4.90999985    2.86999989
   13.00083351   71.92610168    4.90999985    2.84999990
   13.00416660   71.18109894    4.90999985    2.84999990
   13.00749969   74.68240356    4.90999985    2.86999989
   13.01055527   70.72830200    4.90999985    2.82999992
   13.01111126   74.19100189    4.90999985    2.82999992
   13.13305569   -1.00000000   -1.00000000   -1.00000000
   13.23305511   -1.00000000   -1.00000000   -1.00000000
   13.33138847   -1.00000000   -1.00000000   -1.00000000
   13.35694504   75.13480377    0.28000000    0.05000000
   13.36000061   82.39869690    0.28000000    0.05000000
   13.36333370   79.29699707    0.28000000    0.05000000
   13.36666679   80.01439667    0.28000000    0.05000000
   13.36972237   86.61799622    0.28000000    0.05000000
   13.37305546   83.88590240    0.28000000    0.05000000
   13.37722206   83.88590240    0.28000000    0.05000000
   13.38138866   83.81439972    0.28000000    0.05000000
   13.38444424   87.93720245    0.28000000    0.05000000
   13.38777733   90.01480103    0.28000000    0.05000000
   13.39027786   83.24340057    0.28000000    0.05000000
   13.39138889   82.14869690    0.28000000    0.05000000
   13.39472198   97.94490051    0.28000000    0.05000000
   13.39805508   84.90380096    0.28000000    0.05000000
   13.40111065   90.63539886    0.28000000    0.05000000
   13.40444374   99.43489838    0.28000000    0.05000000
   13.40777779   92.97930145    0.28000000    0.05000000
   13.41083336   90.63369751    0.28000000    0.05000000
   13.41416645  105.18399811    0.28000000    0.05000000
   13.42000008  105.18399811    0.28000000    0.05000000
   13.42416668   94.01699829    0.28000000    0.05000000
   13.42750072   90.14689636    0.28000000    0.05000000
   13.43055630   93.48529816    0.28000000    0.05000000
   13.43388939   88.46430206    0.28000000    0.05000000
   13.43722248  102.07499695    0.28000000    0.05000000
   13.44027805   83.50589752    0.28000000    0.05000000
   13.44361115   89.15370178    0.28000000    0.05000000
   13.44666672   86.57299805    0.28000000    0.05000000
   13.44999981   82.57740021    0.28000000    0.05000000
   13.45333290   87.56040192    0.28000000    0.05000000
   13.45666695   84.14569855    0.28000000    0.05000000
   13.45694447   83.87870026    0.28000000    0.05000000
   13.46277714   83.87870026    0.28000000    0.05000000
   13.46694374   89.62529755    0.28000000    0.05000000
   13.47027779   79.95040131    0.28000000    0.05000000
   13.47333336   85.89920044    0.28000000    0.05000000
   13.47666645   78.57839966    0.28000000    0.05000000
   13.47999954   86.61740112    0.28000000    0.05000000
   13.48305511   81.74279785    0.28000000    0.05000000
   13.48638916   82.87539673    0.28000000    0.05000000
   13.48972225   88.27940369    0.28000000    0.05000000
   13.49027824   81.78060150    0.28000000    0.05000000
   13.49305534  120.47100067    0.28000000    0.05000000
   13.49638939   84.40630341    0.28000000    0.05000000
   13.49944496   81.66919708    0.28000000    0.05000000
   13.50583363   81.66919708    0.28000000    0.05000000
   13.50972176   86.34860229    0.28000000    0.05000000
   13.51305580   79.35030365    0.28000000    0.05000000
   13.51638889   80.89179993    0.28000000    0.05000000
   13.51944447   79.54979706    0.28000000    0.05000000
   13.52277756   81.73339844    0.28000000    0.05000000
   13.52388859   83.98139954    0.28000000    0.05000000
   13.52638817   82.92130280    0.28000000    0.05000000
   13.52972221   83.49120331    0.28000000    0.05000000
   13.53277779   80.93049622    0.28000000    0.05000000
   13.53611183   79.40239716    0.28000000    0.05000000
   13.53944492   80.87020111    0.28000000    0.05000000
   13.54250050   80.88030243    0.28000000    0.05000000
   13.54861164   80.88030243    0.28000000    0.05000000
   13.55277824   79.85820007    0.28000000    0.05000000
   13.55583382   80.73570251    0.28000000    0.05000000
   13.55722237   78.54139709    0.28000000    0.05000000
   13.55944443   79.38780212    0.28000000    0.05000000
   13.56277752   79.51290131    0.28000000    0.05000000
   13.56583309   80.13490295    0.28000000    0.05000000
   13.56916618   78.07230377    0.28000000    0.05000000
   13.57250023   79.33480072    0.28000000    0.05000000
   13.57555580   79.29930115    0.28000000    0.05000000
   13.57888889   78.70659637    0.28000000    0.05000000
   13.58222198   79.54440308    0.28000000    0.05000000
   13.58527756   83.84829712    0.28000000    0.05000000
   13.59138870   83.84829712    0.28000000    0.05000000
   13.59555531   81.27300262    0.28000000    0.05000000
   13.59888840   78.94979858    0.28000000    0.05000000
   13.60194492   76.62020111    0.28000000    0.05000000
   13.60527802   80.11039734    0.28000000    0.05000000
   13.60833359   80.22049713    0.28000000    0.05000000
   13.61166668   76.87059784    0.28000000    0.05000000
   13.61500072   78.01260376    0.28000000    0.05000000
   13.61805534   75.76290131    0.28000000    0.05000000
   13.62138939   76.61750031    0.28000000    0.05000000
   13.62388897   78.41049957    0.28000000    0.05000000
   13.62500000   80.43430328    0.28000000    0.05000000
   13.62833309   79.20719910    0.28000000    0.05000000
   13.63416672   79.20719910    0.28000000    0.05000000
   13.63833332   74.80840302    0.28000000    0.05000000
   13.64166641   76.27269745    0.28000000    0.05000000
   13.64472198   75.20149994    0.28000000    0.05000000
   13.64805508   74.08740234    0.28000000    0.05000000
   13.65138817   75.89109802    0.28000000    0.05000000
   13.65444374   78.60009766    0.28000000    0.05000000
   13.65722179   75.77829742    0.28000000    0.05000000
   13.65805531   75.63159943    0.28000000    0.05000000
   13.66138840   77.12979889    0.28000000    0.05000000
   13.66444397   77.41549683    0.28000000    0.05000000
   13.66777802   74.57700348    0.28000000    0.05000000
   13.67111111   76.79599762    0.28000000    0.05000000
   13.67722225   76.79599762    0.28000000    0.05000000
   13.68111134   78.16100311    0.28000000    0.05000000
   13.68444443   75.24490356    0.28000000    0.05000000
   13.68777752   74.79319763    0.28000000    0.05000000
   13.69055557   82.58670044    0.28000000    0.05000000
   13.69138908   77.79740143    0.28000000    0.05000000
   13.69472218   80.69460297    0.28000000    0.05000000
   13.69777775   77.53800201    0.28000000    0.05000000
   13.70111084   78.97760010    0.28000000    0.05000000
   13.70444393   77.83419800    0.28000000    0.05000000
   13.70749950   76.27320099    0.28000000    0.05000000
   13.71083355   78.32610321    0.28000000    0.05000000
   13.71416664   79.04219818    0.28000000    0.05000000
   13.71999931   79.04219818    0.28000000    0.05000000
   13.72416592   77.35230255    0.28000000    0.05000000
   13.72722149   78.77300262    0.28000000    0.05000000
   13.73055553   79.67900085    0.28000000    0.05000000
   13.73388958   77.96939850    0.28000000    0.05000000
   13.73694515   78.22720337    0.28000000    0.05000000
   13.74027824   80.33519745    0.28000000    0.05000000
   13.74333382   77.65799713    0.28000000    0.05000000
   13.74666691   78.58010101    0.28000000    0.05000000
   13.75000000   75.13700104    0.28000000    0.05000000
   13.75305557   75.82330322    0.28000000    0.05000000
   13.75638866   76.69370270    0.28000000    0.05000000
   13.75722218   79.19100189    0.28000000    0.05000000
   13.76277733   79.19100189    0.28000000    0.05000000
   13.76694393   75.51159668    0.28000000    0.05000000
   13.77027798   73.67179871    0.28000000    0.05000000
   13.77333355   73.17220306    0.28000000    0.05000000
   13.77666664   72.75180054    0.28000000    0.05000000
   13.77972221   77.43869781    0.28000000    0.05000000
   13.78305531   70.78440094    0.28000000    0.05000000
   13.78638935   72.98919678    0.28000000    0.05000000
   13.78944492   76.56189728    0.28000000    0.05000000
   13.79055595   75.44570160    0.28000000    0.05000000
   13.79305553   75.29340363    0.28000000    0.05000000
   13.79638958   80.35109711    0.28000000    0.05000000
   13.79972267   74.82289886    0.28000000    0.05000000
   13.80555534   74.82289886    0.28000000    0.05000000
   13.80972195   72.57039642    0.28000000    0.05000000
   13.81305599   73.01609802    0.28000000    0.05000000
   13.81611156   73.83360291    0.28000000    0.05000000
   13.81944466   73.86969757    0.28000000    0.05000000
   13.82277775   73.70310211    0.28000000    0.05000000
   13.82388878   75.64749908    0.28000000    0.05000000
   13.82611084   77.69909668    0.28000000    0.05000000
   13.82944393   77.91909790    0.28000000    0.05000000
   13.83277798   73.10140228    0.28000000    0.05000000
   13.83583260   71.88919830    0.28000000    0.05000000
   13.83916664   73.59079742    0.28000000    0.05000000
   13.84222221   76.01309967    0.28000000    0.05000000
   13.84861088   76.01309967    0.28000000    0.05000000
   13.85277843   75.13770294    0.28000000    0.05000000
   13.85583401   74.66609955    0.28000000    0.05000000
   13.85722256   76.98809814    0.28000000    0.05000000
   13.85944462   75.49919891    0.28000000    0.05000000
   13.86277771   76.00140381    0.28000000    0.05000000
   13.86611176   75.55329895    0.28000000    0.05000000
   13.86916637   73.30509949    0.28000000    0.05000000
   13.87250042   74.04920197    0.28000000    0.05000000
   13.87555599   73.54119873    0.28000000    0.05000000
   13.87888908   73.33460236    0.28000000    0.05000000
   13.88222218   73.59989929    0.28000000    0.05000000
   13.88527775   73.99700165    0.28000000    0.05000000
   13.89138889   73.99700165    0.28000000    0.05000000
   13.89555550   74.36910248    0.28000000    0.05000000
   13.89861107   75.11710358    0.28000000    0.05000000
   13.90194416   72.66339874    0.28000000    0.05000000
   13.90527725   73.44509888    0.28000000    0.05000000
   13.90833282   72.59259796    0.28000000    0.05000000
   13.91166592   72.70469666    0.28000000    0.05000000
   13.91499996   74.14579773    0.28000000    0.05000000
   13.91805553   73.98590088    0.28000000    0.05000000
   13.92138958   75.04989624    0.28000000    0.05000000
   13.92388916   74.11329651    0.28000000    0.05000000
   13.92500019   74.73200226    0.28000000    0.05000000
   13.92833328   71.94760132    0.28000000    0.05000000
   13.93416691   71.94760132    0.28000000    0.05000000
   13.93833351   76.58499908    0.28000000    0.05000000
   13.94166660   71.69390106    0.28000000    0.05000000
   13.94472218   72.01300049    0.28000000    0.05000000
   13.94805527   72.99130249    0.28000000    0.05000000
   13.95111084   72.28079987    0.28000000    0.05000000
   13.95444393   70.42680359    0.28000000    0.05000000
   13.95722198   72.51640320    0.28000000    0.05000000
   13.95805550   72.05670166    0.28000000    0.05000000
   13.96138859   71.95510101    0.28000000    0.05000000
   13.96472168   70.60540009    0.28000000    0.05000000
   13.96777725   72.04160309    0.28000000    0.05000000
   13.97111034   71.35880280    0.28000000    0.05000000
   13.97694397   71.35880280    0.28000000    0.05000000
   13.98111057   70.37460327    0.28000000    0.05000000
   13.98444462   70.89630127    0.28000000    0.05000000
   13.98750019   74.09230042    0.28000000    0.05000000
   13.99055576   70.54650116    0.28000000    0.05000000
   13.99111176   67.79180145    0.28000000    0.05000000
   13.99444485   71.55799866    0.28000000    0.05000000
   13.99777794   70.86519623    0.28000000    0.05000000
   14.00083351   70.60590363    0.28000000    0.05000000
   14.00416660   71.83760071    0.28000000    0.05000000
   14.00722218   71.49009705    0.28000000    0.05000000
   14.01055527   70.91570282    0.28000000    0.05000000
   14.01388931   70.00039673    0.28000000    0.05000000
   14.01999950   70.00039673    0.28000000    0.05000000
   14.02388859   70.29199982    0.28000000    0.05000000
   14.02722168   71.48130035    0.28000000    0.05000000
   14.03055573   70.24780273    0.28000000    0.05000000
   14.03361130   67.07969666    0.28000000    0.05000000
   14.03694534   69.81729889    0.28000000    0.05000000
   14.04027843   72.11119843    0.28000000    0.05000000
   14.04333401   71.29350281    0.28000000    0.05000000
   14.04666710   70.60359955    0.28000000    0.05000000
   14.05000019   71.15509796    0.28000000    0.05000000
   14.05305576   70.12599945    0.28000000    0.05000000
   14.05638885   70.77610016    0.28000000    0.05000000
   14.05722237   71.17960358    0.28000000    0.05000000
   14.06277752   71.17960358    0.28000000    0.05000000
   14.06694412   75.11219788    0.28000000    0.05000000
   14.06999969   72.82949829    0.28000000    0.05000000
   14.07333374   73.39959717    0.28000000    0.05000000
   14.07666683   69.86779785    0.28000000    0.05000000
   14.07972240   70.44309998    0.28000000    0.05000000
   14.08305550   68.72859955    0.28000000    0.05000000
   14.08611107   69.10579681    0.28000000    0.05000000
   14.08944416   70.38909912    0.28000000    0.05000000
   14.09055519   71.85410309    0.28000000    0.05000000
   14.09305477   71.99359894    0.28000000    0.05000000
   14.09638882   68.27480316    0.28000000    0.05000000
   14.09972191   69.44599915    0.28000000    0.05000000
   14.10555553   69.44599915    0.28000000    0.05000000
   14.10972214   70.41030121    0.28000000    0.05000000
   14.11305618   70.75060272    0.28000000    0.05000000
   14.11611176   69.72609711    0.28000000    0.05000000
   14.11944485   70.90399933    0.28000000    0.05000000
   14.12250042   70.13220215    0.28000000    0.05000000
   14.12388897   70.83969879    0.28000000    0.05000000
   14.12638855   69.14559937    0.28000000    0.05000000
   14.12944412   69.99160004    0.28000000    0.05000000
   14.13277817   72.80690002    0.28000000    0.05000000
   14.13611126   72.44490051    0.28000000    0.05000000
   14.13916683   70.83370209    0.28000000    0.05000000
   14.14249992   67.98600006    0.28000000    0.05000000
   14.14833355   67.98600006    0.28000000    0.05000000
   14.15249920   69.30290222    0.28000000    0.05000000
   14.15583324   69.57340240    0.28000000    0.05000000
   14.15722179   69.52890015    0.28000000    0.05000000
   14.15916634   71.87699890    0.28000000    0.05000000
   14.16249943   68.52290344    0.28000000    0.05000000
   14.16583252   70.84069824    0.28000000    0.05000000
   14.16888905   69.38020325    0.28000000    0.05000000
   14.17222214   69.12380219    0.28000000    0.05000000
   14.17555618   69.78880310    0.28000000    0.05000000
   14.17861176   72.07050323    0.28000000    0.05000000
   14.18194485   70.49510193    0.28000000    0.05000000
   14.18500042   71.00920105    0.28000000    0.05000000
   14.19138908   71.00920105    0.28000000    0.05000000
   14.19555569   69.04399872    0.28000000    0.05000000
   14.19861126   69.11090088    0.28000000    0.05000000
   14.20194435   67.88919830    0.28000000    0.05000000
   14.20499992   68.46060181    0.28000000    0.05000000
   14.20833302   70.16570282    0.28000000    0.05000000
   14.21166611   68.29470062    0.28000000    0.05000000
   14.21472168   69.80229950    0.28000000    0.05000000
   14.21805477   68.72190094    0.28000000    0.05000000
   14.22138882   69.81449890    0.28000000    0.05000000
   14.22388840   69.51570129    0.28000000    0.05000000
   14.22472191   73.04709625    0.28000000    0.05000000
   14.22805500   70.96150208    0.28000000    0.05000000
   14.23416710   70.96150208    0.28000000    0.05000000
   14.23833370   71.23870087    0.28000000    0.05000000
   14.24138927   72.01380157    0.28000000    0.05000000
   14.24472237   71.86569977    0.28000000    0.05000000
   14.24805546   70.66280365    0.28000000    0.05000000
   14.25111103   69.83470154    0.28000000    0.05000000
   14.25444412   69.27909851    0.28000000    0.05000000
   14.25722218   69.00669861    0.28000000    0.05000000
   14.25805569   67.53220367    0.28000000    0.05000000
   14.26138878   68.73429871    0.28000000    0.05000000
   14.26472187   69.60769653    0.28000000    0.05000000
   14.26777744   68.62460327    0.28000000    0.05000000
   14.27111053   68.66280365    0.28000000    0.05000000
   14.27694416   68.66280365    0.28000000    0.05000000
   14.28111076   70.32469940    0.28000000    0.05000000
   14.28444481   71.81359863    0.28000000    0.05000000
   14.28750038   71.32640076    0.28000000    0.05000000
   14.29055595   70.56189728    0.28000000    0.05000000
   14.29111195   69.98909760    0.28000000    0.05000000
   14.29444504   71.56629944    0.28000000    0.05000000
   14.29777813   70.47709656    0.28000000    0.05000000
   14.30083370   69.32790375    0.28000000    0.05000000
   14.30416679   69.86620331    0.28000000    0.05000000
   14.30749989   70.66500092    0.28000000    0.05000000
   14.31055546   72.17469788    0.28000000    0.05000000
   14.31388950   71.01699829    0.28000000    0.05000000
   14.31972218   71.01699829    0.28000000    0.05000000
   14.32388878   70.13999939    0.28000000    0.05000000
   14.32722187   71.78050232    0.28000000    0.05000000
   14.33027744   71.01629639    0.28000000    0.05000000
   14.33361053   71.09159851    0.28000000    0.05000000
   14.33694458   71.12830353    0.28000000    0.05000000
   14.34000015   71.59210205    0.28000000    0.05000000
   14.34333324   72.64600372    0.28000000    0.05000000
   14.34638882   72.75559998    0.28000000    0.05000000
   14.34972191   73.43589783    0.28000000    0.05000000
   14.35305595   70.76609802    0.28000000    0.05000000
   14.35611153   69.94249725    0.28000000    0.05000000
   14.35722256   72.77870178    0.28000000    0.05000000
   14.37777805   72.77870178    0.28000000    0.05000000
   14.38194466   68.97380066    0.28000000    0.05000000
   14.38527775   68.78649902    0.28000000    0.05000000
   14.38833332   69.91840363    0.28000000    0.05000000
   14.39055538   71.04930115    0.28000000    0.05000000
   14.39222240   70.00370026    0.28000000    0.05000000
   14.39527798   68.71219635    0.28000000    0.05000000
   14.39861107   70.49420166    0.28000000    0.05000000
   14.40194416   69.57379913    0.28000000    0.05000000
   14.40499973   70.02919769    0.28000000    0.05000000
   14.40833282   69.62339783    0.28000000    0.05000000
   14.41138840   68.30120087    0.28000000    0.05000000
   14.41472149   71.23380280    0.28000000    0.05000000
   14.42055607   71.23380280    0.28000000    0.05000000
   14.42472267   68.77369690    0.28000000    0.05000000
   14.42777824   68.81610107    0.28000000    0.05000000
   14.43111134   68.91000366    0.28000000    0.05000000
   14.43444443   68.10559845    0.28000000    0.05000000
   14.43750000   68.08049774    0.28000000    0.05000000
   14.44083309   70.10690308    0.28000000    0.05000000
   14.44416714   70.33499908    0.28000000    0.05000000
   14.44722271   70.21900177    0.28000000    0.05000000
   14.45055580   72.28060150    0.28000000    0.05000000
   14.45361137   69.48329926    0.28000000    0.05000000
   14.45694447   69.84539795    0.28000000    0.05000000
   14.45749950   69.60209656    0.28000000    0.05000000
   14.46333313   69.60209656    0.28000000    0.05000000
   14.46749973   69.40270233    0.28000000    0.05000000
   14.47083282   69.83380127    0.28000000    0.05000000
   14.47388840   71.45159912    0.28000000    0.05000000
   14.47722149   68.95580292    0.28000000    0.05000000
   14.48055553   70.33000183    0.28000000    0.05000000
   14.48361111   70.05049896    0.28000000    0.05000000
   14.48694515   69.59020233    0.28000000    0.05000000
   14.49000072   70.23159790    0.28000000    0.05000000
   14.49083328   71.67199707    0.28000000    0.05000000
   14.49388885   70.53029633    0.28000000    0.05000000
   14.49694443   69.99870300    0.28000000    0.05000000
   14.50027752   69.35919952    0.28000000    0.05000000
   14.50638866   69.35919952    0.28000000    0.05000000
   14.51027775   76.13110352    0.28000000    0.05000000
   14.51361084   76.68209839    0.28000000    0.05000000
   14.51694393   73.27850342    0.28000000    0.05000000
   14.51999950   69.27300262    0.28000000    0.05000000
   14.52333355   70.36340332    0.28000000    0.05000000
   14.52416611   76.03209686    0.28000000    0.05000000
   14.52694416   70.62850189    0.28000000    0.05000000
   14.52999973   72.41079712    0.28000000    0.05000000
   14.53333378   72.83110046    0.28000000    0.05000000
   14.53666687   73.01319885    0.28000000    0.05000000
   14.53972244   73.85109711    0.28000000    0.05000000
   14.54305553   70.38390350    0.28000000    0.05000000
   14.54916668   70.38390350    0.28000000    0.05000000
   14.55333328   69.97630310    0.28000000    0.05000000
   14.55638885   79.01650238    0.28000000    0.05000000
   14.55749989   73.68080139    0.28000000    0.05000000
   14.56027794   69.34100342    0.28000000    0.05000000
   14.56333351   77.93720245    0.28000000    0.05000000
   14.56666660   68.84190369    0.28000000    0.05000000
   14.56999969   68.38030243    0.28000000    0.05000000
   14.57305527   71.26190186    0.28000000    0.05000000
   14.57638836   68.81369781    0.28000000    0.05000000
   14.57972240   68.83290100    0.28000000    0.05000000
   14.58277798   67.41100311    0.28000000    0.05000000
   14.58611107   69.64140320    0.28000000    0.05000000
   14.59194374   69.64140320    0.28000000    0.05000000
   14.59611034   70.14510345    0.28000000    0.05000000
   14.59944439   70.66220093    0.28000000    0.05000000
   14.60249996   71.26580048    0.28000000    0.05000000
   14.60583401   72.60449982    0.28000000    0.05000000
   14.60888958   72.28980255    0.28000000    0.05000000
   14.61222267   70.09649658    0.28000000    0.05000000
   14.61555576   72.39009857    0.28000000    0.05000000
   14.61861134   77.93540192    0.28000000    0.05000000
   14.62194443   70.57869720    0.28000000    0.05000000
   14.62416649   72.60089874    0.28000000    0.05000000
   14.62555599   71.20269775    0.28000000    0.05000000
   14.62861156   74.27040100    0.28000000    0.05000000
   14.63472176   74.27040100    0.28000000    0.05000000
   14.63888836   80.13459778    0.28000000    0.05000000
   14.64222240   69.19249725    0.28000000    0.05000000
   14.64527798   69.08740234    0.28000000    0.05000000
   14.64861107   71.27919769    0.28000000    0.05000000
   14.65194416   79.44629669    0.28000000    0.05000000
   14.65499973   75.27600098    0.28000000    0.05000000
   14.65749931   70.84349823    0.28000000    0.05000000
   14.65888882   70.78119659    0.28000000    0.05000000
   14.66222191   71.77320099    0.28000000    0.05000000
   14.66527748   69.26879883    0.28000000    0.05000000
   14.66861153   69.40920258    0.28000000    0.05000000
   14.67166710   75.94280243    0.28000000    0.05000000
   14.67777824   75.94280243    0.28000000    0.05000000
   14.68166733   70.78299713    0.28000000    0.05000000
   14.68500042   70.18509674    0.28000000    0.05000000
   14.68833351   70.15260315    0.28000000    0.05000000
   14.69083309   73.85479736    0.28000000    0.05000000
   14.69194412   70.52300262    0.28000000    0.05000000
   14.69527817   69.96849823    0.28000000    0.05000000
   14.69833374   71.79080200    0.28000000    0.05000000
   14.70166683   69.12059784    0.28000000    0.05000000
   14.70472240   70.04000092    0.28000000    0.05000000
   14.70805550   69.40529633    0.28000000    0.05000000
   14.71138859   68.71379852    0.28000000    0.05000000
   14.71444416   69.17690277    0.28000000    0.05000000
   14.72055531   69.17690277    0.28000000    0.05000000
   14.72472191   69.34590149    0.28000000    0.05000000
   14.72777748   73.25820160    0.28000000    0.05000000
   14.73111057   70.62010193    0.28000000    0.05000000
   14.73444462   69.09020233    0.28000000    0.05000000
   14.73750019   70.54910278    0.28000000    0.05000000
   14.74083328   71.16870117    0.28000000    0.05000000
   14.74388885   70.85009766    0.28000000    0.05000000
   14.74722290   70.65619659    0.28000000    0.05000000
   14.75055599   71.36769867    0.28000000    0.05000000
   14.75361156   69.89450073    0.28000000    0.05000000
   14.75694466   68.71179962    0.28000000    0.05000000
   14.75749969   69.93810272    0.28000000    0.05000000
   14.76333332   69.93810272    0.28000000    0.05000000
   14.76749992   68.78839874    0.28000000    0.05000000
   14.77083302   71.05159760    0.28000000    0.05000000
   14.77388859   71.83959961    0.28000000    0.05000000
   14.77722168   70.65560150    0.28000000    0.05000000
   14.78027725   70.24520111    0.28000000    0.05000000
   14.78361130   70.12729645    0.28000000    0.05000000
   14.78694534   69.44570160    0.28000000    0.05000000
   14.79000092   69.76190186    0.28000000    0.05000000
   14.79083347   71.26069641    0.28000000    0.05000000
   14.79361153   70.05560303    0.28000000    0.05000000
   14.79694462   69.64820099    0.28000000    0.05000000
   14.80000019   70.12580109    0.28000000    0.05000000
   14.80611134   70.12580109    0.28000000    0.05000000
   14.81027794   86.11799622    0.28000000    0.05000000
   14.81361103   85.08830261    0.28000000    0.05000000
   14.81694412   68.05590057    0.28000000    0.05000000
   14.81999969   70.51180267    0.28000000    0.05000000
   14.82333374   93.69509888    0.28000000    0.05000000
   14.82416630   82.52680206    0.28000000    0.05000000
   14.82694435   83.38249969    0.28000000    0.05000000
   14.83027744   86.63549805    0.28000000    0.05000000
   14.83333302  134.31799316    0.28000000    0.05000000
   14.83666611   85.65110016    0.28000000    0.05000000
   14.83972168   83.07610321    0.28000000    0.05000000
   14.84305477   93.39779663    0.28000000    0.05000000
   14.84916592   93.39779663    0.28000000    0.05000000
   14.85305595  113.82299805    0.28000000    0.05000000
   14.85638905   77.33650208    0.28000000    0.05000000
   14.85750008   75.37359619    0.28000000    0.05000000
   14.86000061  107.59700012    0.28000000    0.05000000
   14.86305618   86.96910095    0.28000000    0.05000000
   14.86638927   75.72560120    0.28000000    0.05000000
   14.86972237  106.30899811    0.28000000    0.05000000
   14.87277794  103.10099792    0.28000000    0.05000000
   14.87611103  131.59599304    0.28000000    0.05000000
   14.87944412  136.38400269    0.28000000    0.05000000
   14.88249969  112.98899841    0.28000000    0.05000000
   14.88583279  129.02099609    0.28000000    0.05000000
   14.89194393  129.02099609    0.28000000    0.05000000
   14.89611053  156.22599792    0.28000000    0.05000000
   14.89916611  107.32499695    0.28000000    0.05000000
   14.90249920  121.21299744    0.28000000    0.05000000
   14.90555477   94.69159698    0.28000000    0.05000000
   14.90888882   86.35569763    0.28000000    0.05000000
   14.91222191  118.60199738    0.28000000    0.05000000
   14.91527748  138.24600220    0.28000000    0.05000000
   14.91861153  135.65699768    0.28000000    0.05000000
   14.92194462  114.19699860    0.28000000    0.05000000
   14.92416668  121.91899872    0.28000000    0.05000000
   14.92555618  143.58399963    0.28000000    0.05000000
   14.92888927  107.89700317    0.28000000    0.05000000
   14.93472195  107.89700317    0.28000000    0.05000000
   14.93888855  123.35900116    0.28000000    0.05000000
   14.94194412   91.19290161    0.28000000    0.05000000
   14.94527817  118.29799652    0.28000000    0.05000000
   14.94861126  119.06999969    0.28000000    0.05000000
   14.95166683  106.08000183    0.28000000    0.05000000
   14.95499992   90.50830078    0.28000000    0.05000000
   14.95749950   95.61139679    0.28000000    0.05000000
   14.95861053  100.46600342    0.28000000    0.05000000
   14.96194458  105.63700104    0.28000000    0.05000000
   14.96500015  123.47299957    0.28000000    0.05000000
   14.96833324   98.75240326    0.28000000    0.05000000
   14.97138882   99.15129852    0.28000000    0.05000000
   14.97749996   99.15129852    0.28000000    0.05000000
   14.98166656   86.26609802    0.28000000    0.05000000
   14.98500061   82.79190063    0.28000000    0.05000000
   14.98805618   97.62629700    0.28000000    0.05000000
   14.99083328   83.73020172    0.28000000    0.05000000
   14.99194431   82.43360138    0.28000000    0.05000000
   14.99527836   87.82499695    0.28000000    0.05000000
   14.99833393   67.83719635    0.28000000    0.05000000
   15.00166702   68.82150269    0.28000000    0.05000000
   15.00472260   85.67939758    0.28000000    0.05000000
   15.00805569   69.76820374    0.28000000    0.05000000
   15.01138878   68.83380127    0.28000000    0.05000000
   15.01444435   77.09739685    0.28000000    0.05000000
   15.02055550   77.09739685    0.28000000    0.05000000
   15.02444458   70.00689697    0.28000000    0.05000000
   15.02777767   70.31310272    0.28000000    0.05000000
   15.03111076   71.61000061    0.28000000    0.05000000
   15.03416729   69.76229858    0.28000000    0.05000000
   15.03750038   69.32140350    0.28000000    0.05000000
   15.04055595   72.14179993    0.28000000    0.05000000
   15.04388905   72.17579651    0.28000000    0.05000000
   15.04722309   70.23059845    0.28000000    0.05000000
   15.05027771   69.77459717    0.28000000    0.05000000
   15.05361176   68.91809845    0.28000000    0.05000000
   15.05694485   72.76950073    0.28000000    0.05000000
   15.05749989   71.06539917    0.28000000    0.05000000
   15.06333351   71.06539917    0.28000000    0.05000000
   15.06750011   70.45829773    0.28000000    0.05000000
   15.07055569   70.39579773    0.28000000    0.05000000
   15.07388878   69.07180023    0.28000000    0.05000000
   15.07694435   69.11669922    0.28000000    0.05000000
   15.08027744   72.58840179    0.28000000    0.05000000
   15.08361053   69.89530182    0.28000000    0.05000000
   15.08694458   69.44290161    0.28000000    0.05000000
   15.09000015   68.68569946    0.28000000    0.05000000
   15.09083271   71.36710358    0.28000000    0.05000000
   15.09361076   69.15709686    0.28000000    0.05000000
   15.09694386   67.75330353    0.28000000    0.05000000
   15.10000038   68.97209930    0.28000000    0.05000000
   15.10611153   68.97209930    0.28000000    0.05000000
   15.11027813   73.34120178    0.28000000    0.05000000
   15.11333370   68.51509857    0.28000000    0.05000000
   15.11666679   68.53420258    0.28000000    0.05000000
   15.11999989   73.81909943    0.28000000    0.05000000
   15.12305546   70.21640015    0.28000000    0.05000000
   15.12416649   71.97000122    0.28000000    0.05000000
   15.12666702   73.22080231    0.28000000    0.05000000
   15.13000011   75.15249634    0.28000000    0.05000000
   15.13305569   68.66940308    0.28000000    0.05000000
   15.13638878   81.79810333    0.28000000    0.05000000
   15.13944435   70.74150085    0.28000000    0.05000000
   15.14277744   72.91059875    0.28000000    0.05000000
   15.14888859   72.91059875    0.28000000    0.05000000
   15.15305519   76.09020233    0.28000000    0.05000000
   15.15638828   69.11620331    0.28000000    0.05000000
   15.15749931   70.35810089    0.28000000    0.05000000
   15.15999985   68.51959991    0.28000000    0.05000000
   15.16333294   69.81410217    0.28000000    0.05000000
   15.16638851   70.49859619    0.28000000    0.05000000
   15.16972256   77.83300018    0.28000000    0.05000000
   15.17277813   69.72699738    0.28000000    0.05000000
   15.17611122   74.97810364    0.28000000    0.05000000
   15.17944431   73.56790161    0.28000000    0.05000000
   15.18249989   76.95529938    0.28000000    0.05000000
   15.18583298   71.64959717    0.28000000    0.05000000
   15.19194412   71.64959717    0.28000000    0.05000000
   15.19583321   69.10600281    0.28000000    0.05000000
   15.19916630   69.78630066    0.28000000    0.05000000
   15.20249939   73.17150116    0.28000000    0.05000000
   15.20555496   72.22280121    0.28000000    0.05000000
   15.20888901   71.42859650    0.28000000    0.05000000
   15.21222210   72.45760345    0.28000000    0.05000000
   15.21527767   75.47689819    0.28000000    0.05000000
   15.21861076   70.66139984    0.28000000    0.05000000
   15.22166634   69.14820099    0.28000000    0.05000000
   15.22416592   74.89890289    0.28000000    0.05000000
   15.22555542   69.20680237    0.28000000    0.05000000
   15.22888851   69.89099884    0.28000000    0.05000000
   15.23472214   69.89099884    0.28000000    0.05000000
   15.23888874   69.61180115    0.28000000    0.05000000
   15.24194431   67.84819794    0.28000000    0.05000000
   15.24527836   71.37719727    0.28000000    0.05000000
   15.24833393   70.11029816    0.28000000    0.05000000
   15.25166702   70.17479706    0.28000000    0.05000000
   15.25500011   73.06919861    0.28000000    0.05000000
   15.25749969   70.03079987    0.28000000    0.05000000
   15.25861073   70.66020203    0.28000000    0.05000000
   15.26194477   77.81800079    0.28000000    0.05000000
   15.26500034   69.26239777    0.28000000    0.05000000
   15.26833344   68.45719910    0.28000000    0.05000000
   15.27166653   69.44920349    0.28000000    0.05000000
   15.27750015   69.44920349    0.28000000    0.05000000
   15.28166676   68.67330170    0.28000000    0.05000000
   15.28472233   68.06880188    0.28000000    0.05000000
   15.28805637   68.72470093    0.28000000    0.05000000
   15.29083347   68.12000275    0.28000000    0.05000000
   15.29166698   66.88569641    0.28000000    0.05000000
   15.29500008   71.77529907    0.28000000    0.05000000
   15.29805565   68.39720154    0.28000000    0.05000000
   15.30138874   70.78810120    0.28000000    0.05000000
   15.30472279   71.08339691    0.28000000    0.05000000
   15.30777836   69.91760254    0.28000000    0.05000000
   15.31111145   68.90859985    0.28000000    0.05000000
   15.31416702   69.24210358    0.28000000    0.05000000
   15.32027817   69.24210358    0.28000000    0.05000000
   15.32444477  131.98699951    0.28000000    0.05000000
   15.32777786   68.64140320    0.28000000    0.05000000
   15.33083344   67.85379791    0.28000000    0.05000000
   15.33416653   69.26090240    0.28000000    0.05000000
   15.33749962   70.43319702    0.28000000    0.05000000
   15.34055519   69.01129913    0.28000000    0.05000000
   15.34388828   69.03260040    0.28000000    0.05000000
   15.34694386   70.45210266    0.28000000    0.05000000
   15.35027790   70.71320343    0.28000000    0.05000000
   15.35361195   68.68160248    0.28000000    0.05000000
   15.35666752   68.93049622    0.28000000    0.05000000
   15.35750008   69.43730164    0.28000000    0.05000000
   15.36305618   69.43730164    0.28000000    0.05000000
   15.36722279   69.91210175    0.28000000    0.05000000
   15.37055588   67.50730133    0.28000000    0.05000000
   15.37388897   71.12969971    0.28000000    0.05000000
   15.39138889   67.84200287    0.28000000    0.05000000
   15.39361095   68.35209656    0.28000000    0.05000000
   15.39694405   69.26100159    0.28000000    0.05000000
   15.40027714   69.96260071    0.28000000    0.05000000
   15.40611076   69.96260071    0.28000000    0.05000000
   15.41027737   69.04979706    0.28000000    0.05000000
   15.41361046   68.54709625    0.28000000    0.05000000
   15.41694450   67.82409668    0.28000000    0.05000000
   15.42000008   70.04440308    0.28000000    0.05000000
   15.42333412   70.16339874    0.28000000    0.05000000
   15.42444515   69.58039856    0.28000000    0.05000000
   15.42694473   70.07769775    0.28000000    0.05000000
   15.43027782   68.52469635    0.28000000    0.05000000
   15.43361092   71.47029877    0.28000000    0.05000000
   15.43666649   68.96009827    0.28000000    0.05000000
   15.44000053   70.39589691    0.28000000    0.05000000
   15.44305515   68.31390381    0.28000000    0.05000000
   15.44916630   68.31390381    0.28000000    0.05000000
   15.45333290   68.17759705    0.28000000    0.05000000
   15.45638847   68.84380341    0.28000000    0.05000000
   15.45777798   68.81490326    0.28000000    0.05000000
   15.46000004   69.07649994    0.28000000    0.05000000
   15.46333313   68.82369995    0.28000000    0.05000000
   15.46638870   69.00820160    0.28000000    0.05000000
   15.46972179   69.17739868    0.28000000    0.05000000
   15.47305489   69.15039825    0.28000000    0.05000000
   15.47611046   68.73090363    0.28000000    0.05000000
   15.47944355   69.79979706    0.28000000    0.05000000
   15.48249912   70.30269623    0.28000000    0.05000000
   15.48583317   69.63739777    0.28000000    0.05000000
   15.49194431   69.63739777    0.28000000    0.05000000
   15.49611092   69.23190308    0.28000000    0.05000000
   15.49916649   69.95439911    0.28000000    0.05000000
   15.50249958   70.45739746    0.28000000    0.05000000
   15.50583363   70.31680298    0.28000000    0.05000000
   15.50888920   68.16829681    0.28000000    0.05000000
   15.51222229   70.88249969    0.28000000    0.05000000
   15.51527786   69.79109955    0.28000000    0.05000000
   15.51861095   71.69979858    0.28000000    0.05000000
   15.52194405   69.65840149    0.28000000    0.05000000
   15.52472210   69.72039795    0.28000000    0.05000000
   15.52555561   69.61679840    0.28000000    0.05000000
   15.52888870   68.88079834    0.28000000    0.05000000
   15.53472233   68.88079834    0.28000000    0.05000000
   15.53888893   69.41320038    0.28000000    0.05000000
   15.54222298   71.13919830    0.28000000    0.05000000
   15.54527855   69.31490326    0.28000000    0.05000000
   15.54861164   71.48040009    0.28000000    0.05000000
   15.55166721   72.02510071    0.28000000    0.05000000
   15.55500031   68.58329773    0.28000000    0.05000000
   15.55805588   68.14969635    0.28000000    0.05000000
   15.55861092   70.36080170    0.28000000    0.05000000
   15.56194496   68.06559753    0.28000000    0.05000000
   15.56500053   69.45159912    0.28000000    0.05000000
   15.56833363   68.96530151    0.28000000    0.05000000
   15.57166672   72.27320099    0.28000000    0.05000000
   15.57750034   72.27320099    0.28000000    0.05000000
   15.58166695   69.51599884    0.28000000    0.05000000
   15.58500004   68.58760071    0.28000000    0.05000000
   15.58833313   68.79219818    0.28000000    0.05000000
   15.59138870   69.94680023    0.28000000    0.05000000
   15.59166622   70.17900085    0.28000000    0.05000000
   15.59499931   70.22049713    0.28000000    0.05000000
   15.59833336   69.18869781    0.28000000    0.05000000
   15.60138893   69.15180206    0.28000000    0.05000000
   15.60472298   69.86219788    0.28000000    0.05000000
   15.60805607   67.96910095    0.28000000    0.05000000
   15.61111164   68.96659851    0.28000000    0.05000000
   15.61444473   69.77030182    0.28000000    0.05000000
   15.62055588   69.77030182    0.28000000    0.05000000
   15.62472248   68.88800049    0.28000000    0.05000000
   15.62500000   68.36260223    0.28000000    0.05000000
   15.62833309   69.42189789    0.28000000    0.05000000
   15.63138866   69.69439697    0.28000000    0.05000000
   15.63472176   71.25489807    0.28000000    0.05000000
   15.63805580   69.32779694    0.28000000    0.05000000
   15.64111137   69.11009979    0.28000000    0.05000000
   15.64444447   70.16790009    0.28000000    0.05000000
   15.64777756   69.90930176    0.28000000    0.05000000
   15.65083313   70.68329620    0.28000000    0.05000000
   15.65416622   70.62840271    0.28000000    0.05000000
   15.65722179   69.79039764    0.28000000    0.05000000
   15.65805531   69.67359924    0.28000000    0.05000000
   15.66333294   69.67359924    0.28000000    0.05000000
   15.66750050   68.68150330    0.28000000    0.05000000
   15.67055607   69.87370300    0.28000000    0.05000000
   15.67388916   68.43099976    0.28000000    0.05000000
   15.67722225   69.25759888    0.28000000    0.05000000
   15.68027782   68.90280151    0.28000000    0.05000000
   15.68361092   67.96440125    0.28000000    0.05000000
   15.68666649   67.30410004    0.28000000    0.05000000
   15.69000053   68.76249695    0.28000000    0.05000000
   15.69138908   69.04370117    0.28000000    0.05000000
   15.69361115   69.81449890    0.28000000    0.05000000
   15.69694424   67.15859985    0.28000000    0.05000000
   15.70027733   68.16490173    0.28000000    0.05000000
   15.70611095   68.16490173    0.28000000    0.05000000
   15.71027756   69.13960266    0.28000000    0.05000000
   15.71361065   70.33560181    0.28000000    0.05000000
   15.71666622   69.88469696    0.28000000    0.05000000
   15.71999931   68.62570190    0.28000000    0.05000000
   15.72305489   67.99379730    0.28000000    0.05000000
   15.72472191   69.70079803    0.28000000    0.05000000
   15.72666645   70.16120148    0.28000000    0.05000000
   15.72999954   70.65779877    0.28000000    0.05000000
   15.73333359   71.09580231    0.28000000    0.05000000
   15.73638916   70.23320007    0.28000000    0.05000000
   15.73972225   67.95829773    0.28000000    0.05000000
   15.74277782   69.03810120    0.28000000    0.05000000
   15.74888897   69.03810120    0.28000000    0.05000000
   15.75305557   70.38189697    0.28000000    0.05000000
   15.75638866   69.78510284    0.28000000    0.05000000
   15.75805569   68.86759949    0.28000000    0.05000000
   15.76027775   70.92189789    0.28000000    0.05000000
   15.76333332   69.89869690    0.28000000    0.05000000
   15.76666641   69.69280243    0.28000000    0.05000000
   15.76972198   71.15630341    0.28000000    0.05000000
   15.77305508   69.25920105    0.28000000    0.05000000
   15.77638817   68.88529968    0.28000000    0.05000000
   15.77944374   68.15830231    0.28000000    0.05000000
   15.78277779   69.08799744    0.28000000    0.05000000
   15.78611183   69.18199921    0.28000000    0.05000000
   15.79194450   69.18199921    0.28000000    0.05000000
   15.79583359   70.92299652    0.28000000    0.05000000
   15.79916668   70.59149933    0.28000000    0.05000000
   15.80249977   69.13449860    0.28000000    0.05000000
   15.80555534   69.30139923    0.28000000    0.05000000
   15.80888939   69.35700226    0.28000000    0.05000000
   15.81222248   69.75479889    0.28000000    0.05000000
   15.81527805   67.89710236    0.28000000    0.05000000
   15.81861115   71.39499664    0.28000000    0.05000000
   15.82166672   69.11360168    0.28000000    0.05000000
   15.82472229   69.08570099    0.28000000    0.05000000
   15.82527733   71.74610138    0.28000000    0.05000000
   15.82861137   69.20670319    0.28000000    0.05000000
   15.83472157   69.20670319    0.28000000    0.05000000
   15.83888817   67.88549805    0.28000000    0.05000000
   15.84194374   68.59999847    0.28000000    0.05000000
   15.84527779   69.30819702    0.28000000    0.05000000
   15.84861088   68.49379730    0.28000000    0.05000000
   15.85166740   68.51110077    0.28000000    0.05000000
   15.85500050   68.99690247    0.28000000    0.05000000
   15.85805607   69.01399994    0.28000000    0.05000000
   15.85861111   70.25270081    0.28000000    0.05000000
   15.86194515   71.11650085    0.28000000    0.05000000
   15.86527824   69.99700165    0.28000000    0.05000000
   15.86833382   68.84490204    0.28000000    0.05000000
   15.87166691   67.64170074    0.28000000    0.05000000
   15.87750053   67.64170074    0.28000000    0.05000000
   15.88166714   69.24250031    0.28000000    0.05000000
   15.88500023   70.14440155    0.28000000    0.05000000
   15.88805580   67.88790131    0.28000000    0.05000000
   15.89138889   69.70120239    0.28000000    0.05000000
   15.89166641   68.83239746    0.28000000    0.05000000
   15.89499950   70.16439819    0.28000000    0.05000000
   15.89833355   69.91739655    0.28000000    0.05000000
   15.90138817   69.42800140    0.28000000    0.05000000
   15.90472221   70.45510101    0.28000000    0.05000000
   15.90777779   69.38639832    0.28000000    0.05000000
   15.91111088   68.20629883    0.28000000    0.05000000
   15.91444397   68.68219757    0.28000000    0.05000000
   15.92027855   68.68219757    0.28000000    0.05000000
   15.92444515   68.82939911    0.28000000    0.05000000
   15.92500019   68.69699860    0.28000000    0.05000000
   15.92833328   69.14849854    0.28000000    0.05000000
   15.93166733   68.78019714    0.28000000    0.05000000
   15.93472195   74.86689758    0.28000000    0.05000000
   15.93805599   72.73100281    0.28000000    0.05000000
   15.94111156   68.15869904    0.28000000    0.05000000
   15.94444466   69.03669739    0.28000000    0.05000000
   15.94777775   69.19259644    0.28000000    0.05000000
   15.95083332   68.95939636    0.28000000    0.05000000
   15.95416641   71.49469757    0.28000000    0.05000000
   15.95749950   68.62239838    0.28000000    0.05000000
   15.95833302   68.57900238    0.28000000    0.05000000
   15.96333313   68.57900238    0.28000000    0.05000000
   15.96722221   70.72080231    0.28000000    0.05000000
   15.97055531   69.94629669    0.28000000    0.05000000
   15.97388840   70.99060059    0.28000000    0.05000000
   15.97694397   69.20400238    0.28000000    0.05000000
   15.98027706   70.32879639    0.28000000    0.05000000
   15.98361111   69.55680084    0.28000000    0.05000000
   15.98666668   68.78949738    0.28000000    0.05000000
   15.99000072   70.15840149    0.28000000    0.05000000
   15.99166679   70.01499939    0.28000000    0.05000000
   15.99361134   69.53569794    0.28000000    0.05000000
   15.99666691   67.80650330    0.28000000    0.05000000
   16.00000000   68.82039642    0.28000000    0.05000000
   16.00611115   68.82039642    0.28000000    0.05000000
   16.01027870   69.70310211    0.28000000    0.05000000
   16.01333427   70.74490356    0.28000000    0.05000000
   16.01666641   69.98950195    0.28000000    0.05000000
   16.02000046   69.93810272    0.28000000    0.05000000
   16.02305603   69.03659821    0.28000000    0.05000000
   16.02499962   71.45980072    0.28000000    0.05000000
   16.02666664   71.34690094    0.28000000    0.05000000
   16.02972221   69.41110229    0.28000000    0.05000000
   16.03305435   71.00150299    0.28000000    0.05000000
   16.03638840   68.57869720    0.28000000    0.05000000
   16.03944397   71.09819794    0.28000000    0.05000000
   16.04277802   70.21600342    0.28000000    0.05000000
   16.04888916   70.21600342    0.28000000    0.05000000
   16.05305481   70.16860199    0.28000000    0.05000000
   16.05638885   70.46420288    0.28000000    0.05000000
   16.05833244   69.07369995    0.28000000    0.05000000
   16.05999947   68.61940002    0.28000000    0.05000000
   16.06333351   68.36859894    0.28000000    0.05000000
   16.06638718   69.06069946    0.28000000    0.05000000
   16.06972313   68.61519623    0.28000000    0.05000000
   16.07277870   69.86679840    0.28000000    0.05000000
   16.07611275   70.53109741    0.28000000    0.05000000
   16.07944489   69.53540039    0.28000000    0.05000000
   16.08250046   68.86049652    0.28000000    0.05000000
   16.08583450   69.58529663    0.28000000    0.05000000
   16.09166718   69.58529663    0.28000000    0.05000000
   16.09583473   69.75980377    0.28000000    0.05000000
   16.09916687   69.64450073    0.28000000    0.05000000
   16.10222244   68.39730072    0.28000000    0.05000000
   16.10555649   68.90969849    0.28000000    0.05000000
   16.10888863   69.25389862    0.28000000    0.05000000
   16.11194420   69.68730164    0.28000000    0.05000000
   16.11527824   70.64479828    0.28000000    0.05000000
   16.11861038   70.27040100    0.28000000    0.05000000
   16.12166595   70.31449890    0.28000000    0.05000000
   16.12500000   69.52590179    0.28000000    0.05000000
   16.12694550   70.42759705    0.28000000    0.05000000
   16.12861061   70.84670258    0.28000000    0.05000000
   16.13472176   70.84670258    0.28000000    0.05000000
   16.13861084   69.71309662    0.28000000    0.05000000
   16.14194489   70.67250061    0.28000000    0.05000000
   16.14527702   68.87090302    0.28000000    0.05000000
   16.14833260   68.83599854    0.28000000    0.05000000
   16.15166664   70.87449646    0.28000000    0.05000000
   16.15499878   72.09310150    0.28000000    0.05000000
   16.15805435   68.96669769    0.28000000    0.05000000
   16.16027832   71.28780365    0.28000000    0.05000000
   16.16166687   69.67240143    0.28000000    0.05000000
   16.16499901   70.06620026    0.28000000    0.05000000
   16.16805458   68.66280365    0.28000000    0.05000000
   16.17138863   68.38990021    0.28000000    0.05000000
   16.17749977   68.38990021    0.28000000    0.05000000
   16.18166542   69.73870087    0.28000000    0.05000000
   16.18472099   71.66580200    0.28000000    0.05000000
   16.18805504   70.84980011    0.28000000    0.05000000
   16.19138718   68.87400055    0.28000000    0.05000000
   16.19361115   70.41619873    0.28000000    0.05000000
   16.19499969   69.22859955    0.28000000    0.05000000
   16.19833183   69.77050018    0.28000000    0.05000000
   16.20138931   70.73560333    0.28000000    0.05000000
   16.20472336   69.94480133    0.28000000    0.05000000
   16.20777893   69.84790039    0.28000000    0.05000000
   16.21111107   70.22250366    0.28000000    0.05000000
   16.21444511   69.06659698    0.28000000    0.05000000
   16.22027779   69.06659698    0.28000000    0.05000000
   16.22444534   69.68849945    0.28000000    0.05000000
   16.22694588   69.85780334    0.28000000    0.05000000
   16.22805595   68.54519653    0.28000000    0.05000000
   16.23139000   68.91000366    0.28000000    0.05000000
   16.23444557   69.45950317    0.28000000    0.05000000
   16.23777771   69.89340210    0.28000000    0.05000000
   16.24083328   69.03289795    0.28000000    0.05000000
   16.24416733   70.46330261    0.28000000    0.05000000
   16.24749947   71.38849640    0.28000000    0.05000000
   16.25055504   71.82579803    0.28000000    0.05000000
   16.25388908   69.73819733    0.28000000    0.05000000
   16.25722313   69.15830231    0.28000000    0.05000000
   16.26305580   69.15830231    0.28000000    0.05000000
   16.26722145   69.64150238    0.28000000    0.05000000
   16.27055550   69.32890320    0.28000000    0.05000000
   16.27361107   68.85250092    0.28000000    0.05000000
   16.27694511   68.47609711    0.28000000    0.05000000
   16.28027725   70.89820099    0.28000000    0.05000000
   16.28361130   67.76619720    0.28000000    0.05000000
   16.28666687   70.07849884    0.28000000    0.05000000
   16.28999901   70.04789734    0.28000000    0.05000000
   16.29305458   70.25420380    0.28000000    0.05000000
   16.29416656   70.07479858    0.28000000    0.05000000
   16.29666710   68.38279724    0.28000000    0.05000000
   16.29999924   69.80780029    0.28000000    0.05000000
   16.30611038   69.80780029    0.28000000    0.05000000
   16.30999947   67.68360138    0.28000000    0.05000000
   16.31333351   68.96800232    0.28000000    0.05000000
   16.31666756   68.74469757    0.28000000    0.05000000
   16.31972313   68.03479767    0.28000000    0.05000000
   16.32305717   69.67459869    0.28000000    0.05000000
   16.32638931   71.59200287    0.28000000    0.05000000
   16.32750130   68.77279663    0.28000000    0.05000000
   16.32972336   70.84279633    0.28000000    0.05000000
   16.33305550   71.78700256    0.28000000    0.05000000
   16.33638954   68.95469666    0.28000000    0.05000000
   16.33944511   68.77870178    0.28000000    0.05000000
   16.34277916   69.28189850    0.28000000    0.05000000
   16.34889030   69.28189850    0.28000000    0.05000000
   16.35305595   69.49649811    0.28000000    0.05000000
   16.35611153   68.72409821    0.28000000    0.05000000
   16.35944557   71.44930267    0.28000000    0.05000000
   16.36083412   69.64260101    0.28000000    0.05000000
   16.36305618   71.10050201    0.28000000    0.05000000
   16.36638832   70.60669708    0.28000000    0.05000000
   16.36944389   70.51129913    0.28000000    0.05000000
   16.37277794   68.15039825    0.28000000    0.05000000
   16.37583351   70.10169983    0.28000000    0.05000000
   16.37916756   69.09929657    0.28000000    0.05000000
   16.38249969   68.25610352    0.28000000    0.05000000
   16.38555527   69.51000214    0.28000000    0.05000000
   16.39166641   69.51000214    0.28000000    0.05000000
   16.40999985   70.68569946    0.28000000    0.05000000
   16.41333389   68.93959808    0.28000000    0.05000000
   16.41666603   68.95639801    0.28000000    0.05000000
   16.41972160   69.10729980    0.28000000    0.05000000
   16.42305565   69.06880188    0.28000000    0.05000000
   16.42611122   68.40579987    0.28000000    0.05000000
   16.42944336   69.05100250    0.28000000    0.05000000
   16.43472099   69.05100250    0.28000000    0.05000000
   16.43888855   69.72930145    0.28000000    0.05000000
   16.44222069   68.94979858    0.28000000    0.05000000
   16.44305420   69.69719696    0.28000000    0.05000000
   16.44583321   69.08889771    0.28000000    0.05000000
   16.44916534   70.62220001    0.28000000    0.05000000
   16.45222282   72.00440216    0.28000000    0.05000000
   16.45555687   70.88400269    0.28000000    0.05000000
   16.45861244   70.29820251    0.28000000    0.05000000
   16.46194458   68.98400116    0.28000000    0.05000000
   16.46527863   69.94090271    0.28000000    0.05000000
   16.46833420   69.09999847    0.28000000    0.05000000
   16.47166634   70.22170258    0.28000000    0.05000000
   16.47750092   70.22170258    0.28000000    0.05000000
   16.48166656   69.98410034    0.28000000    0.05000000
   16.48500061   70.43080139    0.28000000    0.05000000
   16.48833275   69.82620239    0.28000000    0.05000000
   16.49138832   69.36389923    0.28000000    0.05000000
   16.49472237   71.46980286    0.28000000    0.05000000
   16.49777794   70.00090027    0.28000000    0.05000000
   16.50111198   70.35189819    0.28000000    0.05000000
   16.50444412   71.31020355    0.28000000    0.05000000
   16.50749969   70.47039795    0.28000000    0.05000000
   16.50972176   70.00749969    0.28000000    0.05000000
   16.51138878   69.29039764    0.28000000    0.05000000
   16.51472282   69.49130249    0.28000000    0.05000000
   16.52055550   69.49130249    0.28000000    0.05000000
   16.52472115   71.82460022    0.28000000    0.05000000
   16.52777672   70.06729889    0.28000000    0.05000000
   16.53111076   69.96720123    0.28000000    0.05000000
   16.53416634   68.65760040    0.28000000    0.05000000
   16.53750038   70.88150024    0.28000000    0.05000000
   16.54083252   68.86720276    0.28000000    0.05000000
   16.54305458   69.90080261    0.28000000    0.05000000
   16.54444313   67.70950317    0.28000000    0.05000000
   16.54777718   69.63130188    0.28000000    0.05000000
   16.55083275   69.25050354    0.28000000    0.05000000
   16.55416679   70.86949921    0.28000000    0.05000000
   16.55722237   68.22940063    0.28000000    0.05000000
   16.56333351   68.22940063    0.28000000    0.05000000
   16.56750107   71.11740112    0.28000000    0.05000000
   16.57055664   70.32050323    0.28000000    0.05000000
   16.57389069   70.18309784    0.28000000    0.05000000
   16.57638931   68.91369629    0.28000000    0.05000000
   16.57750130   70.81900024    0.28000000    0.05000000
   16.58083344   70.37169647    0.28000000    0.05000000
   16.58388901   69.77629852    0.28000000    0.05000000
   16.58722305   71.24440002    0.28000000    0.05000000
   16.59027863   68.24099731    0.28000000    0.05000000
   16.59361267   71.02110291    0.28000000    0.05000000
   16.59694481   73.60479736    0.28000000    0.05000000
   16.60000038   70.60169983    0.28000000    0.05000000
   16.60611153   70.60169983    0.28000000    0.05000000
   16.61027908   70.40730286    0.28000000    0.05000000
   16.61361122   69.87460327    0.28000000    0.05000000
   16.61666679   70.50360107    0.28000000    0.05000000
   16.62000084   70.15730286    0.28000000    0.05000000
   16.62333298   70.32769775    0.28000000    0.05000000
   16.62638855   69.11070251    0.28000000    0.05000000
   16.62972260   71.30180359    0.28000000    0.05000000
   16.63277817   72.47949982    0.28000000    0.05000000
   16.63611031   68.27799988    0.28000000    0.05000000
   16.63944435   69.36689758    0.28000000    0.05000000
   16.64249992   70.28739929    0.28000000    0.05000000
   16.64305496   71.11620331    0.28000000    0.05000000
   16.64888954   71.11620331    0.28000000    0.05000000
   16.65305519   69.71959686    0.28000000    0.05000000
   16.65638924   69.32839966    0.28000000    0.05000000
   16.65972137   68.55220032    0.28000000    0.05000000
   16.66277695   68.86540222    0.28000000    0.05000000
   16.66611099   71.05660248    0.28000000    0.05000000
   16.66916656   69.71790314    0.28000000    0.05000000
   16.67249870   69.26940155    0.28000000    0.05000000
   16.67583275   71.29219818    0.28000000    0.05000000
   16.67638779   70.31520081    0.28000000    0.05000000
   16.67944336   71.42539978    0.28000000    0.05000000
   16.68277740   69.03240204    0.28000000    0.05000000
   16.68583298   70.22859955    0.28000000    0.05000000
   16.69194412   70.22859955    0.28000000    0.05000000
   16.69610977   69.17410278    0.28000000    0.05000000
   16.69916534   69.76020050    0.28000000    0.05000000
   16.70250130   71.57740021    0.28000000    0.05000000
   16.70555687   70.63909912    0.28000000    0.05000000
   16.70888901   70.73259735    0.28000000    0.05000000
   16.70972252   69.80879974    0.28000000    0.05000000
   16.71250153   69.88220215    0.28000000    0.05000000
   16.71583366   70.12169647    0.28000000    0.05000000
   16.71888924   69.71019745    0.28000000    0.05000000
   16.72222328   71.37300110    0.28000000    0.05000000
   16.72555542   68.73670197    0.28000000    0.05000000
   16.72861099   71.09259796    0.28000000    0.05000000
   16.73472214   71.09259796    0.28000000    0.05000000
   16.73888969   73.65809631    0.28000000    0.05000000
   16.74194527   72.37979889    0.28000000    0.05000000
   16.74305534   69.61090088    0.28000000    0.05000000
   16.74555588   70.56349945    0.28000000    0.05000000
   16.74888992   75.46459961    0.28000000    0.05000000
   16.75194359   78.93139648    0.28000000    0.05000000
   16.75527763   72.79609680    0.28000000    0.05000000
   16.75861168   71.21810150    0.28000000    0.05000000
   16.76166725   72.39959717    0.28000000    0.05000000
   16.76499939   73.56120300    0.28000000    0.05000000
   16.76805496   78.64479828    0.28000000    0.05000000
   16.77138901   71.61399841    0.28000000    0.05000000
   16.77750015   71.61399841    0.28000000    0.05000000
   16.78166580   71.16809845    0.28000000    0.05000000
   16.78499985   70.42400360    0.28000000    0.05000000
   16.78805542   70.42209625    0.28000000    0.05000000
   16.79138756   69.28949738    0.28000000    0.05000000
   16.79472160   70.08110046    0.28000000    0.05000000
   16.79777718   70.03119659    0.28000000    0.05000000
   16.80111122   78.98300171    0.28000000    0.05000000
   16.80444336   74.90910339    0.28000000    0.05000000
   16.80749893   83.77999878    0.28000000    0.05000000
   16.80972099   73.31330109    0.28000000    0.05000000
   16.81110954   73.80410004    0.28000000    0.05000000
   16.81444359   74.11979675    0.28000000    0.05000000
   16.82055664   74.11979675    0.28000000    0.05000000
   16.82444572   73.50599670    0.28000000    0.05000000
   16.82777786   68.81999969    0.28000000    0.05000000
   16.83111191   74.70939636    0.28000000    0.05000000
   16.83416748   71.61389923    0.28000000    0.05000000
   16.83750153   73.82389832    0.28000000    0.05000000
   16.84083366   69.09130096    0.28000000    0.05000000
   16.84305573   70.84680176    0.28000000    0.05000000
   16.84444427   70.88289642    0.28000000    0.05000000
   16.84777832   71.23419952    0.28000000    0.05000000
   16.85083389   71.55570221    0.28000000    0.05000000
   16.85416794   74.49050140    0.28000000    0.05000000
   16.85750008   68.50160217    0.28000000    0.05000000
   16.86333466   68.50160217    0.28000000    0.05000000
   16.86750031   74.43039703    0.28000000    0.05000000
   16.87055588   74.28780365    0.28000000    0.05000000
   16.87388992   73.39810181    0.28000000    0.05000000
   16.87638855   69.68599701    0.28000000    0.05000000
   16.87750053   74.74310303    0.28000000    0.05000000
   16.88083267   69.08879852    0.28000000    0.05000000
   16.88388824   72.55000305    0.28000000    0.05000000
   16.88722229   77.38539886    0.28000000    0.05000000
   16.89055634   76.92060089    0.28000000    0.05000000
   16.89361191   74.23519897    0.28000000    0.05000000
   16.89694405   69.38420105    0.28000000    0.05000000
   16.89999962   69.18779755    0.28000000    0.05000000
   16.90611076   69.18779755    0.28000000    0.05000000
   16.91027832   72.34919739    0.28000000    0.05000000
   16.91333389   71.57589722    0.28000000    0.05000000
   16.91666603   71.81559753    0.28000000    0.05000000
   16.92000008   72.23059845    0.28000000    0.05000000
   16.92305565   70.60820007    0.28000000    0.05000000
   16.92638779   69.74530029    0.28000000    0.05000000
   16.92972183   71.45500183    0.28000000    0.05000000
   16.93277740   71.92680359    0.28000000    0.05000000
   16.93610954   68.97669983    0.28000000    0.05000000
   16.93916512   70.48840332    0.28000000    0.05000000
   16.94249916   71.12270355    0.28000000    0.05000000
   16.94305420   70.90249634    0.28000000    0.05000000
   16.94888878   70.90249634    0.28000000    0.05000000
   16.95305634   69.57070160    0.28000000    0.05000000
   16.95639038   69.41790009    0.28000000    0.05000000
   16.95944595   70.99340057    0.28000000    0.05000000
   16.96277809   69.72180176    0.28000000    0.05000000
   16.96611214   69.97160339    0.28000000    0.05000000
   16.96916771   74.00890350    0.28000000    0.05000000
   16.97249985   72.00440216    0.28000000    0.05000000
   16.97583389   71.07610321    0.28000000    0.05000000
   16.97638893   71.24810028    0.28000000    0.05000000
   16.97944450   71.20709991    0.28000000    0.05000000
   16.98277855   69.30439758    0.28000000    0.05000000
   16.98583412   69.66429901    0.28000000    0.05000000
   16.99166679   69.66429901    0.28000000    0.05000000
   16.99583435   69.29879761    0.28000000    0.05000000
   16.99916649   70.88909912    0.28000000    0.05000000
   17.00250053   67.45099640    0.28000000    0.05000000
   17.00555611   69.95480347    0.28000000    0.05000000
   17.00888824   71.15859985    0.28000000    0.05000000
   17.00972176   70.71170044    0.28000000    0.05000000
   17.01250076   68.13839722    0.28000000    0.05000000
   17.01583290   70.88069916    0.28000000    0.05000000
   17.01888847   70.82990265    0.28000000    0.05000000
   17.02222252   70.29180145    0.28000000    0.05000000
   17.02555466   72.38790131    0.28000000    0.05000000
   17.02861023   69.60510254    0.28000000    0.05000000
   17.03472137   69.60510254    0.28000000    0.05000000
   17.03888893   70.74520111    0.28000000    0.05000000
   17.04194450   69.77700043    0.28000000    0.05000000
   17.04333305   71.32209778    0.28000000    0.05000000
   17.04555511   71.32289886    0.28000000    0.05000000
   17.04888916   68.91539764    0.28000000    0.05000000
   17.05222130   69.32440186    0.28000000    0.05000000
   17.05527687   71.72769928    0.28000000    0.05000000
   17.05861092   69.56379700    0.28000000    0.05000000
   17.06194305   69.74469757    0.28000000    0.05000000
   17.06499863   71.25140381    0.28000000    0.05000000
   17.06833458   71.59449768    0.28000000    0.05000000
   17.07139015   74.30799866    0.28000000    0.05000000
   17.07750130   74.30799866    0.28000000    0.05000000
   17.08166695   67.62110138    0.28000000    0.05000000
   17.08472252   74.52649689    0.28000000    0.05000000
   17.08805656   70.63809967    0.28000000    0.05000000
   17.09138870   81.16840363    0.28000000    0.05000000
   17.09444427   75.41130066    0.28000000    0.05000000
   17.09777832   80.91079712    0.28000000    0.05000000
   17.10111237   97.13140106    0.28000000    0.05000000
   17.10416794  100.51999664    0.28000000    0.05000000
   17.10750008  108.14700317    0.28000000    0.05000000
   17.11000061  106.39499664    0.28000000    0.05000000
   17.11111069  111.91100311    0.28000000    0.05000000
   17.11444473  121.11100006    0.28000000    0.05000000
   17.12027740  121.11100006    0.28000000    0.05000000
   17.12444496  105.26999664    0.28000000    0.05000000
   17.12777710  109.33499908    0.28000000    0.05000000
   17.13083267  104.10299683    0.28000000    0.05000000
   17.13416672  101.61100006    0.28000000    0.05000000
   17.13750076  112.67500305    0.28000000    0.05000000
   17.14055634  108.59899902    0.28000000    0.05000000
   17.14333344   99.28949738    0.28000000    0.05000000
   17.14416695  105.26899719    0.28000000    0.05000000
   17.14749908  103.28299713    0.28000000    0.05000000
   17.15055466   95.40010071    0.28000000    0.05000000
   17.15388870  100.40899658    0.28000000    0.05000000
   17.15722275  115.31400299    0.28000000    0.05000000
   17.16305542  115.31400299    0.28000000    0.05000000
   17.16722107  105.93599701    0.28000000    0.05000000
   17.17055511  105.39800262    0.28000000    0.05000000
   17.17388916  107.43800354    0.28000000    0.05000000
   17.17666626  112.87200165    0.28000000    0.05000000
   17.17722130  103.61199951    0.28000000    0.05000000
   17.18055534  111.32299805    0.28000000    0.05000000
   17.18361092  111.90799713    0.28000000    0.05000000
   17.18694305  109.33899689    0.28000000    0.05000000
   17.19027710  113.95099640    0.28000000    0.05000000
   17.19333267  107.99900055    0.28000000    0.05000000
   17.19666672  106.24900055    0.28000000    0.05000000
   17.20000076  110.50099945    0.28000000    0.05000000
   17.20611191  110.50099945    0.28000000    0.05000000
   17.21027946  110.80400085    0.28000000    0.05000000
   17.21333504  104.91600037    0.28000000    0.05000000
   17.21666718  112.07299805    0.28000000    0.05000000
   17.22000122   98.99359894    0.28000000    0.05000000
   17.22305679  114.93800354    0.28000000    0.05000000
   17.22638893  108.55599976    0.28000000    0.05000000
   17.22944450  108.01799774    0.28000000    0.05000000
   17.23277855  102.44200134    0.28000000    0.05000000
   17.23611069  102.04699707    0.28000000    0.05000000
   17.23916626  101.63500214    0.28000000    0.05000000
   17.24250031  112.02400208    0.28000000    0.05000000
   17.24333382  109.68900299    0.28000000    0.05000000
   17.24888992  109.68900299    0.28000000    0.05000000
   17.25305557  110.70700073    0.28000000    0.05000000
   17.25638962   99.70240021    0.28000000    0.05000000
   17.25944519   95.34760284    0.28000000    0.05000000
   17.26277733  101.59500122    0.28000000    0.05000000
   17.26583290  100.88700104    0.28000000    0.05000000
   17.26916695  101.29199982    0.28000000    0.05000000
   17.27249908  100.71700287    0.28000000    0.05000000
   17.27555466   96.60389709    0.28000000    0.05000000
   17.27666664   97.11360168    0.28000000    0.05000000
   17.27916718   98.94429779    0.28000000    0.05000000
   17.28249931   90.29830170    0.28000000    0.05000000
   17.28583336  105.52700043    0.28000000    0.05000000
   17.29166603  105.52700043    0.28000000    0.05000000
   17.29583359   95.05490112    0.28000000    0.05000000
   17.29916573   96.69229889    0.28000000    0.05000000
   17.30222130   99.20639801    0.28000000    0.05000000
   17.30555534   99.80429840    0.28000000    0.05000000
   17.30888748   94.47399902    0.28000000    0.05000000
   17.30999947   98.37500000    0.28000000    0.05000000
   17.31222153   91.48729706    0.28000000    0.05000000
   17.31555557   89.37149811    0.28000000    0.05000000
   17.31888962   93.19840240    0.28000000    0.05000000
   17.32194519   96.36199951    0.28000000    0.05000000
   17.32527924  100.22100067    0.28000000    0.05000000
   17.32833481  104.80000305    0.28000000    0.05000000
   17.33444595  104.80000305    0.28000000    0.05000000
   17.33861160   98.41619873    0.28000000    0.05000000
   17.34194565   98.84799957    0.28000000    0.05000000
   17.34333420   92.12049866    0.28000000    0.05000000
   17.34555626   89.63719940    0.28000000    0.05000000
   17.34889030   88.28500366    0.28000000    0.05000000
   17.35222244   90.06220245    0.28000000    0.05000000
   17.35527802   85.89119720    0.28000000    0.05000000
   17.35861206   86.06659698    0.28000000    0.05000000
   17.36166763   71.12439728    0.28000000    0.05000000
   17.36499977   83.12169647    0.28000000    0.05000000
   17.36833382   85.12380219    0.28000000    0.05000000
   17.37138939   84.86199951    0.28000000    0.05000000
   17.37750053   84.86199951    0.28000000    0.05000000
   17.38166618   80.54640198    0.28000000    0.05000000
   17.38472176   82.70130157    0.28000000    0.05000000
   17.38805580   82.99700165    0.28000000    0.05000000
   17.39111137   80.97779846    0.28000000    0.05000000
   17.39444351   79.92919922    0.28000000    0.05000000
   17.39777756   83.35209656    0.28000000    0.05000000
   17.40083313   76.16940308    0.28000000    0.05000000
   17.40416718   90.21450043    0.28000000    0.05000000
   17.40749931   78.43679810    0.28000000    0.05000000
   17.40999985   79.97290039    0.28000000    0.05000000
   17.43055534   79.97290039    0.28000000    0.05000000
   17.43472099   74.12629700    0.28000000    0.05000000
   17.43805504   84.76850128    0.28000000    0.05000000
   17.44111061   77.46849823    0.28000000    0.05000000
   17.44333267   76.69689941    0.28000000    0.05000000
   17.44472122   81.34639740    0.28000000    0.05000000
   17.44805527   75.12899780    0.28000000    0.05000000
   17.45138931   76.71070099    0.28000000    0.05000000
   17.45444489   80.55509949    0.28000000    0.05000000
   17.45777893   75.93890381    0.28000000    0.05000000
   17.46111107   72.58540344    0.28000000    0.05000000
   17.46416664   76.57640076    0.28000000    0.05000000
   17.46750069   69.33830261    0.28000000    0.05000000
   17.47333336   69.33830261    0.28000000    0.05000000
   17.47750092   77.75730133    0.28000000    0.05000000
   17.48055649   73.54810333    0.28000000    0.05000000
   17.48388863   70.13770294    0.28000000    0.05000000
   17.48722267   71.33399963    0.28000000    0.05000000
   17.49027824   69.80339813    0.28000000    0.05000000
   17.49361229   73.00099945    0.28000000    0.05000000
   17.49694443   68.55629730    0.28000000    0.05000000
   17.50000000   76.91799927    0.28000000    0.05000000
   17.50333405   70.75279999    0.28000000    0.05000000
   17.50638962   70.44429779    0.28000000    0.05000000
   17.50972176   70.07510376    0.28000000    0.05000000
   17.51027870   71.40180206    0.28000000    0.05000000
   17.51611137   71.40180206    0.28000000    0.05000000
   17.52027702   69.00949860    0.28000000    0.05000000
   17.52361107   69.98069763    0.28000000    0.05000000
   17.52666664   69.65080261    0.28000000    0.05000000
   17.53000069   72.20240021    0.28000000    0.05000000
   17.53333282   70.71410370    0.28000000    0.05000000
   17.53638840   68.70429993    0.28000000    0.05000000
   17.53972244   70.22380066    0.28000000    0.05000000
   17.54277802   72.11239624    0.28000000    0.05000000
   17.54361153   74.66809845    0.28000000    0.05000000
   17.54666710   75.32430267    0.28000000    0.05000000
   17.54972076   71.96089935    0.28000000    0.05000000
   17.55305481   74.07469940    0.28000000    0.05000000
   17.55888748   74.07469940    0.28000000    0.05000000
   17.56305504   69.17160034    0.28000000    0.05000000
   17.56638718   72.87049866    0.28000000    0.05000000
   17.56972313   70.20110321    0.28000000    0.05000000
   17.57277870   72.16139984    0.28000000    0.05000000
   17.57611275   74.48339844    0.28000000    0.05000000
   17.57694626   71.99179840    0.28000000    0.05000000
   17.57972336   68.79470062    0.28000000    0.05000000
   17.58277893   69.46170044    0.28000000    0.05000000
   17.58611107   70.10810089    0.28000000    0.05000000
   17.58944511   70.89350128    0.28000000    0.05000000
   17.59250069   69.68299866    0.28000000    0.05000000
   17.59583473   68.89499664    0.28000000    0.05000000
   17.60194397   68.89499664    0.28000000    0.05000000
   17.60611153   69.26699829    0.28000000    0.05000000
   17.60916710   70.13430023    0.28000000    0.05000000
   17.61027908   71.53559875    0.28000000    0.05000000
   17.61305618   71.58460236    0.28000000    0.05000000
   17.61611176   72.05770111    0.28000000    0.05000000
   17.61944389   70.76740265    0.28000000    0.05000000
   17.62277794   70.87879944    0.28000000    0.05000000
   17.62583351   70.88150024    0.28000000    0.05000000
   17.62916756   69.91000366    0.28000000    0.05000000
   17.63222313   68.86319733    0.28000000    0.05000000
   17.63555527   69.98970032    0.28000000    0.05000000
   17.63888931   74.74590302    0.28000000    0.05000000
   17.64472198   74.74590302    0.28000000    0.05000000
   17.64888954   73.37909698    0.28000000    0.05000000
   17.65194321   71.01519775    0.28000000    0.05000000
   17.65527725   72.35849762    0.28000000    0.05000000
   17.65861130   70.40969849    0.28000000    0.05000000
   17.66166687   70.25070190    0.28000000    0.05000000
   17.66499901   73.68360138    0.28000000    0.05000000
   17.66805458   70.05490112    0.28000000    0.05000000
   17.67138863   71.01090240    0.28000000    0.05000000
   17.67472076   72.33080292    0.28000000    0.05000000
   17.67694473   72.24240112    0.28000000    0.05000000
   17.67833328   68.61869812    0.28000000    0.05000000
   17.68138885   70.57830048    0.28000000    0.05000000
   17.68750000   70.57830048    0.28000000    0.05000000
   17.69166565   70.53079987    0.28000000    0.05000000
   17.69472122   72.25000000    0.28000000    0.05000000
   17.69805527   71.72609711    0.28000000    0.05000000
   17.70138931   71.16570282    0.28000000    0.05000000
   17.70444489   69.86979675    0.28000000    0.05000000
   17.70777893   70.59770203    0.28000000    0.05000000
   17.71027946   70.41560364    0.28000000    0.05000000
   17.71138954   70.96029663    0.28000000    0.05000000
   17.71444511   70.21569824    0.28000000    0.05000000
   17.71777916   70.47509766    0.28000000    0.05000000
   17.72111130   71.48840332    0.28000000    0.05000000
   17.72416687   70.80460358    0.28000000    0.05000000
   17.73027802   70.80460358    0.28000000    0.05000000
   17.73444557   70.67710114    0.28000000    0.05000000
   17.73777771   69.52459717    0.28000000    0.05000000
   17.74083328   71.37550354    0.28000000    0.05000000
   17.74361229   69.78820038    0.28000000    0.05000000
   17.74472237   72.27929688    0.28000000    0.05000000
   17.74777794   68.17150116    0.28000000    0.05000000
   17.75111198   68.86450195    0.28000000    0.05000000
   17.75444412   69.65660095    0.28000000    0.05000000
   17.75749969   70.49559784    0.28000000    0.05000000
   17.76083374   69.18710327    0.28000000    0.05000000
   17.76416588   70.28459930    0.28000000    0.05000000
   17.76722145   70.60410309    0.28000000    0.05000000
   17.77333260   70.60410309    0.28000000    0.05000000
   17.77722168   69.61029816    0.28000000    0.05000000
   17.78055573   67.95899963    0.28000000    0.05000000
   17.78388786   69.43609619    0.28000000    0.05000000
   17.78694344   69.19249725    0.28000000    0.05000000
   17.79027748   67.41899872    0.28000000    0.05000000
   17.79361153   69.75540161    0.28000000    0.05000000
   17.79666710   69.59529877    0.28000000    0.05000000
   17.79999924   69.77459717    0.28000000    0.05000000
   17.80305481   69.75679779    0.28000000    0.05000000
   17.80638885   69.39579773    0.28000000    0.05000000
   17.80972099   69.53029633    0.28000000    0.05000000
   17.81027794   69.24330139    0.28000000    0.05000000
   17.81611061   69.24330139    0.28000000    0.05000000
   17.82027817   70.14270020    0.28000000    0.05000000
   17.82333374   67.54940033    0.28000000    0.05000000
   17.82666779   69.17449951    0.28000000    0.05000000
   17.83000183   69.25430298    0.28000000    0.05000000
   17.83305550   68.58039856    0.28000000    0.05000000
   17.83638954   67.68260193    0.28000000    0.05000000
   17.83972359   70.60330200    0.28000000    0.05000000
   17.84277916   72.15290070    0.28000000    0.05000000
   17.84361267   70.62570190    0.28000000    0.05000000
   17.84666824   70.72609711    0.28000000    0.05000000
   17.84972191   69.97689819    0.28000000    0.05000000
   17.85305595   69.52140045    0.28000000    0.05000000
   17.85888863   69.52140045    0.28000000    0.05000000
   17.86305618   68.19290161    0.28000000    0.05000000
   17.86638832   69.65720367    0.28000000    0.05000000
   17.86944389   69.98950195    0.28000000    0.05000000
   17.87277794   69.30229950    0.28000000    0.05000000
   17.87583351   70.55950165    0.28000000    0.05000000
   17.87694550   70.04630280    0.28000000    0.05000000
   17.87972260   70.01490021    0.28000000    0.05000000
   17.88277817   71.71050262    0.28000000    0.05000000
   17.88611031   69.42819977    0.28000000    0.05000000
   17.88944435   70.00689697    0.28000000    0.05000000
   17.89249992   68.48320007    0.28000000    0.05000000
   17.89583397   69.74990082    0.28000000    0.05000000
   17.90166664   69.74990082    0.28000000    0.05000000
   17.90583229   70.64340210    0.28000000    0.05000000
   17.90916634   69.65850067    0.28000000    0.05000000
   17.91027832   68.47789764    0.28000000    0.05000000
   17.91277695   72.18560028    0.28000000    0.05000000
   17.91611099   70.62169647    0.28000000    0.05000000
   17.91916656   70.22489929    0.28000000    0.05000000
   17.92249870   71.88729858    0.28000000    0.05000000
   17.92583275   72.34929657    0.28000000    0.05000000
   17.92888832   71.19490051    0.28000000    0.05000000
   17.93222237   70.77069855    0.28000000    0.05000000
   17.93527603   69.08399963    0.28000000    0.05000000
   17.93861008   69.14369965    0.28000000    0.05000000
   17.94472122   69.14369965    0.28000000    0.05000000
   17.94861031   68.24510193    0.28000000    0.05000000
   17.95194435   68.83899689    0.28000000    0.05000000
   17.95527840   69.60929871    0.28000000    0.05000000
   17.95833397   70.07589722    0.28000000    0.05000000
   17.96166801   71.10549927    0.28000000    0.05000000
   17.96500015   69.64179993    0.28000000    0.05000000
   17.96805573   69.17359924    0.28000000    0.05000000
   17.97138977   71.20580292    0.28000000    0.05000000
   17.97444534   70.14399719    0.28000000    0.05000000
   17.97694588   75.60569763    0.28000000    0.05000000
   17.97833443   72.97299957    0.28000000    0.05000000
   17.98166656   73.30039978    0.28000000    0.05000000
   17.98750114   73.30039978    0.28000000    0.05000000
   17.99166679   77.63690186    0.28000000    0.05000000
   17.99472237   78.78800201    0.28000000    0.05000000
   17.99805641   77.74220276    0.28000000    0.05000000
   18.00138855   78.62339783    0.28000000    0.05000000
   18.00444412   78.98750305    0.28000000    0.05000000
   18.00777817   86.52780151    0.28000000    0.05000000
   18.01027870   76.16079712    0.28000000    0.05000000
   18.01138878   85.41600037    0.28000000    0.05000000
   18.01472282   90.33940125    0.28000000    0.05000000
   18.01777840   94.14320374    0.28000000    0.05000000
   18.02111053   86.75270081    0.28000000    0.05000000
   18.02416611  109.64800262    0.28000000    0.05000000
   18.03027725  109.64800262    0.28000000    0.05000000
   18.03444481   94.30010223    0.28000000    0.05000000
   18.03750038   83.67469788    0.28000000    0.05000000
   18.04083252   94.30290222    0.28000000    0.05000000
   18.04361153   91.59780121    0.28000000    0.05000000
   18.04444313   81.45130157    0.28000000    0.05000000
   18.04777718  100.75000000    0.28000000    0.05000000
   18.05083275   80.44899750    0.28000000    0.05000000
   18.05416679   89.21949768    0.28000000    0.05000000
   18.05722237   74.85160065    0.28000000    0.05000000
   18.06055450   76.17800140    0.28000000    0.05000000
   18.06388855   72.16809845    0.28000000    0.05000000
   18.06694603   71.35710144    0.28000000    0.05000000
   18.07305717   71.35710144    0.28000000    0.05000000
   18.07722282   71.06670380    0.28000000    0.05000000
   18.08055687   71.58650208    0.28000000    0.05000000
   18.08388901   68.88120270    0.28000000    0.05000000
   18.08694458   69.26909637    0.28000000    0.05000000
   18.09027863   70.50550079    0.28000000    0.05000000
   18.09333420   69.65309906    0.28000000    0.05000000
   18.09666824   71.25659943    0.28000000    0.05000000
   18.10000038   68.78630066    0.28000000    0.05000000
   18.10305595   68.72440338    0.28000000    0.05000000
   18.10639000   69.23090363    0.28000000    0.05000000
   18.10944557   69.15299988    0.28000000    0.05000000
   18.11027908   72.38030243    0.28000000    0.05000000
   18.11583328   72.38030243    0.28000000    0.05000000
   18.12000084   69.72840118    0.28000000    0.05000000
   18.12333298   69.51499939    0.28000000    0.05000000
   18.12666702   69.74019623    0.28000000    0.05000000
   18.12972260   69.76760101    0.28000000    0.05000000
   18.13305473   70.41639709    0.28000000    0.05000000
   18.13638878   70.87930298    0.28000000    0.05000000
   18.13944435   69.77459717    0.28000000    0.05000000
   18.14277840   70.90879822    0.28000000    0.05000000
   18.14361191   69.45619965    0.28000000    0.05000000
   18.14638901   69.01640320    0.28000000    0.05000000
   18.14972115   69.64540100    0.28000000    0.05000000
   18.15277672   68.31449890    0.28000000    0.05000000
   18.15888786   68.31449890    0.28000000    0.05000000
   18.16305542   69.52780151    0.28000000    0.05000000
   18.16611099   68.90180206    0.28000000    0.05000000
   18.16944313   89.37899780    0.28000000    0.05000000
   18.17277718   80.53269958    0.28000000    0.05000000
   18.17583275   95.13999939    0.28000000    0.05000000
   18.17694473   80.21710205    0.28000000    0.05000000
   18.17944336  105.81600189    0.28000000    0.05000000
   18.18249893   78.03820038    0.28000000    0.05000000
   18.18583298   73.83080292    0.28000000    0.05000000
   18.18916512   71.03410339    0.28000000    0.05000000
   18.19222069   69.12290192    0.28000000    0.05000000
   18.19555473   78.88159943    0.28000000    0.05000000
   18.20166779   78.88159943    0.28000000    0.05000000
   18.20583344   82.87049866    0.28000000    0.05000000
   18.20888901   83.92739868    0.28000000    0.05000000
   18.21027946   87.12259674    0.28000000    0.05000000
   18.21277809   96.40149689    0.28000000    0.05000000
   18.21611214  100.05500031    0.28000000    0.05000000
   18.21916771   77.31259918    0.28000000    0.05000000
   18.22249985   75.11830139    0.28000000    0.05000000
   18.22555542   70.11000061    0.28000000    0.05000000
   18.22888947   73.57070160    0.28000000    0.05000000
   18.23222351   79.04440308    0.28000000    0.05000000
   18.23527718   73.66919708    0.28000000    0.05000000
   18.23861122   90.77100372    0.28000000    0.05000000
   18.24444389   90.77100372    0.28000000    0.05000000
   18.24861145  135.23399353    0.28000000    0.05000000
   18.25194359   98.97429657    0.28000000    0.05000000
   18.25499916   81.41089630    0.28000000    0.05000000
   18.25833321   73.01629639    0.28000000    0.05000000
   18.26166725   97.20249939    0.28000000    0.05000000
   18.26472282   99.18440247    0.28000000    0.05000000
   18.26805496   87.73169708    0.28000000    0.05000000
   18.27111053   93.03330231    0.28000000    0.05000000
   18.27444458  143.55799866    0.28000000    0.05000000
   18.27694511   97.10030365    0.28000000    0.05000000
   18.27805519   77.75849915    0.28000000    0.05000000
   18.28138924   81.20809937    0.28000000    0.05000000
   18.28722191   81.20809937    0.28000000    0.05000000
   18.29138756   75.10530090    0.28000000    0.05000000
   18.29472160   94.14550018    0.28000000    0.05000000
   18.29805565   92.13469696    0.28000000    0.05000000
   18.30111122  102.68599701    0.28000000    0.05000000
   18.30444336   -1.00000000    0.28000000    0.05000000
   18.30749893   92.34089661    0.28000000    0.05000000
   18.31027794   82.59919739    0.28000000    0.05000000
   18.31138802   97.11190033    0.28000000    0.05000000
   18.31472206   96.68710327    0.28000000    0.05000000
   18.31777954   92.43699646    0.28000000    0.05000000
   18.32722282   -1.00000000   -1.00000000   -1.00000000
   18.33611107   -1.00000000   -1.00000000   -1.00000000
