    HOUR (UT)   FLARE FACTOR    SKY TESTER    SUN TESTER
   10.88138866   -1.00000000   -1.00000000   -1.00000000
   10.91444397  348.18899536    4.82999992    1.80999994
   10.91777802  319.95001221    4.80000019    1.83000004
   10.92083359  334.82199097    4.76000023    1.83000004
   10.92416668  313.42700195    4.76000023    1.83000004
   10.92750072  336.72299194    4.78000021    1.83000004
   10.93055630  316.72601318    4.80999994    1.85000002
   10.93472195  316.72601318    4.82999992    1.85000002
   10.93888855  336.55801392    4.80999994    1.85000002
   10.94222260  311.71899414    4.80999994    1.86000001
   10.94527817  350.94900513    4.80999994    1.86000001
   10.94750023  342.11300659    4.82999992    1.85000002
   10.94916630  318.60000610    4.80999994    1.86000001
   10.95222187  339.98699951    4.80000019    1.86000001
   10.95555496  372.70401001    4.80999994    1.86000001
   10.95888901  323.21798706    4.80000019    1.86000001
   10.96194458  329.08099365    4.76000023    1.86000001
   10.96527767  363.68600464    4.73999977    1.88000000
   10.96861076  328.18499756    4.73999977    1.88000000
   10.97166634  403.18301392    4.76000023    1.88000000
   10.97388840  419.86999512    4.76000023    1.88000000
   10.97499943  387.98599243    4.76000023    1.88000000
   10.97638798  350.83599854    4.80000019    1.89999998
   10.97777748  413.04199219    4.80999994    1.88000000
   10.97916603  351.57101440    4.82999992    1.88000000
   10.98055553  353.75100708    4.80999994    1.89999998
   10.98194408  370.27200317    4.80999994    1.89999998
   10.98333359  422.63000488    4.82999992    1.89999998
   10.98472214  380.74899292    4.82999992    1.89999998
   10.98611164  399.28900146    4.84999990    1.89999998
   10.98750019  310.08999634    4.84999990    1.91999996
   10.98777771  339.98699951    4.80000019    1.86000001
   10.98777771  372.70401001    4.80999994    1.86000001
   10.98777771  323.21798706    4.80000019    1.86000001
   10.98805618  329.08099365    4.76000023    1.86000001
   10.98805618  363.68600464    4.73999977    1.88000000
   10.98805618  328.18499756    4.73999977    1.88000000
   10.98833370  403.18301392    4.76000023    1.88000000
   10.98833370  350.94900513    4.80999994    1.86000001
   10.98833370  318.60000610    4.80999994    1.86000001
   10.98888874  316.10900879    4.84999990    1.89999998
   10.99222279  380.28900146    4.82999992    1.89999998
   10.99555588  369.49099731    4.80999994    1.89999998
   10.99861145  280.41000366    4.80000019    1.91999996
   11.00194454  294.90600586    4.80999994    1.91999996
   11.00833321  294.90600586    4.80000019    1.91999996
   11.01249981  310.51800537    4.80000019    1.94000006
   11.01583290  308.06900024    4.82999992    1.94000006
   11.01888847  285.50100708    4.86999989    1.94000006
   11.02138901  316.12298584    4.82999992    1.94000006
   11.02277756  311.64001465    4.84999990    1.94000006
   11.02583313  280.56500244    4.90999985    1.94000006
   11.02916622  261.64498901    4.90999985    1.94000006
   11.03249931  290.89001465    4.86999989    1.94000006
   11.03555584  281.37399292    4.90999985    1.96000004
   11.03888893  308.86700439    4.88999987    1.96000004
   11.04222298  292.10598755    4.88999987    1.96000004
   11.04527855  299.27398682    4.90999985    1.96000004
   11.05111122  299.27398682    4.90999985    1.96000004
   11.05527782  293.28399658    4.90999985    1.98000002
   11.05861092  273.43200684    4.90999985    1.98000002
   11.06166649  271.91101074    4.90999985    1.98000002
   11.06500053  257.57800293    4.90999985    1.98000002
   11.06833363  265.29299927    4.90999985    1.98000002
   11.07138920  262.71899414    4.90999985    1.98000002
   11.07472229  269.26901245    4.90999985    1.98000002
   11.07805538  258.78900146    4.90999985    1.98000002
   11.08111095  248.75900269    4.90999985    1.98000002
   11.08444405  248.06700134    4.90999985    1.98000002
   11.08749962  256.60198975    4.90999985    2.00000000
   11.08805561  263.79800415    4.90999985    2.00000000
   11.09416676  263.79800415    4.84999990    2.00000000
   11.09805489  241.92100525    4.82999992    2.01999998
   11.10138893  247.08399963    4.78000021    2.01999998
   11.10472298  246.20300293    4.71999979    2.01999998
   11.10777855  228.74200439    4.65999985    2.01999998
   11.11111164  243.66499329    4.57999992    2.03999996
   11.11444473  261.55801392    4.53000021    2.03999996
   11.11750031  248.93600464    4.51000023    2.03999996
   11.12083340  249.55499268    4.53000021    2.03999996
   11.12138939  242.15800476    4.53999996    2.03999996
   11.12444496  259.02499390    4.61999989    2.05999994
   11.12777805  243.25500488    4.63999987    2.03999996
   11.13083363  233.36999512    4.69999981    2.03999996
   11.13694477  233.36999512    4.71999979    2.03999996
   11.14111137   -1.00000000    4.67999983    2.05999994
   11.14416695  343.03500366    4.65999985    2.03999996
   11.14750004  267.15499878    4.67999983    2.05999994
   11.15083313  240.65699768    4.67999983    2.05999994
   11.15388870  229.81799316    4.67999983    2.05999994
   11.15472221  234.48399353    4.67999983    2.05999994
   11.15749931  258.18600464    4.65999985    2.05999994
   11.16083336  234.18600464    4.61999989    2.05999994
   11.16388893  277.27301025    4.59999990    2.07999992
   11.16722298  231.06399536    4.53000021    2.07999992
   11.17055607  232.56700134    4.51000023    2.07999992
   11.17361164  239.49499512    4.46999979    2.07999992
   11.17972279  239.49499512    4.42999983    2.09999990
   11.18388939  223.81599426    4.40999985    2.07999992
   11.18722248  240.60299683    4.38999987    2.09999990
   11.18805599  242.76499939    4.38999987    2.09999990
   11.19083309  229.28999329    4.38999987    2.09999990
   11.19416714  238.39199829    4.38999987    2.09999990
   11.19722271  251.87399292    4.36999989    2.09999990
   11.20055580  226.30999756    4.34999990    2.09999990
   11.20388889  203.94799805    4.30999994    2.11999989
   11.20694447  203.27200317    4.30999994    2.09999990
   11.21027756  222.78799438    4.26999998    2.11999989
   11.21333313  209.31599426    4.26000023    2.11999989
   11.21666622  211.76899719    4.23999977    2.11999989
   11.22249985  211.76899719    4.13999987    2.11999989
   11.22666645  214.87100220    4.07999992    2.13000011
   11.22999954  213.53100586    4.03999996    2.13000011
   11.23305511  223.19599915    3.99000001    2.13000011
   11.23638916  215.53300476    3.93000007    2.13000011
   11.23972225  213.34100342    3.89000010    2.13000011
   11.24277782  211.60400391    3.84999990    2.13000011
   11.24611092  208.14500427    3.82999992    2.15000010
   11.24944496  214.55499268    3.82999992    2.15000010
   11.25249958  198.33799744    3.84999990    2.15000010
   11.25472260  200.12699890    3.82999992    2.15000010
   11.25611115  219.72900391    3.82999992    2.15000010
   11.25944424  222.68099976    3.82999992    2.15000010
   11.26555538  222.68099976    3.82999992    2.17000008
   11.26944447  208.60899353    3.78999996    2.17000008
   11.27277756  213.20700073    3.75000000    2.17000008
   11.27611065  207.85099792    3.70000005    2.17000008
   11.27916622  193.91299438    3.68000007    2.17000008
   11.28249931  194.14999390    3.68000007    2.17000008
   11.28583336  190.63099670    3.68000007    2.17000008
   11.28805637  202.47300720    3.64000010    2.17000008
   11.28944492  207.92500305    3.64000010    2.17000008
   11.29277802  187.15400696    3.61999989    2.19000006
   11.29583359  187.30000305    3.59999990    2.19000006
   11.29916668  187.40899658    3.57999992    2.17000008
   11.30249977  199.68800354    3.53999996    2.19000006
   11.30833340  199.68800354    3.51999998    2.19000006
   11.31250000  180.95300293    3.53999996    2.19000006
   11.31555557  184.92700195    3.68000007    2.19000006
   11.31888866  186.76899719    3.59999990    2.19000006
   11.32138920  182.67900085    3.59999990    2.19000006
   11.32250023  182.43800354    3.59999990    2.21000004
   11.32583332  182.50100708    3.53999996    2.21000004
   11.32888889  177.69700623    3.51999998    2.21000004
   11.33222198  180.03599548    3.51999998    2.21000004
   11.33555508  180.91000366    3.59999990    2.21000004
   11.33861065  178.98300171    3.68000007    2.21000004
   11.34194374  191.61099243    3.68000007    2.21000004
   11.34499931  177.07800293    3.72000003    2.21000004
   11.35111141  177.07800293    3.76999998    2.21000004
   11.35527802  185.52200317    3.80999994    2.21000004
   11.35861111  175.93400574    3.78999996    2.23000002
   11.36166668  182.50799561    3.73000002    2.23000002
   11.36500072  181.57400513    3.72000003    2.23000002
   11.36805534  177.74000549    3.68000007    2.21000004
   11.37138939  179.86599731    3.64000010    2.23000002
   11.37472248  185.52200317    3.59999990    2.23000002
   11.37777805  179.27900696    3.50000000    2.23000002
   11.38111115  173.37100220    3.43000007    2.23000002
   11.38444424  178.83999634    3.32999992    2.25000000
   11.38749981  180.31100464    3.25000000    2.25000000
   11.38805580  186.06300354    3.23000002    2.25000000
   11.39388847  186.06300354    3.07999992    2.25000000
   11.39805508  172.46400452    2.93000007    2.25000000
   11.40138817  181.35099792    2.89000010    2.25000000
   11.40472221  182.91700745    2.86999989    2.26999998
   11.40777779  177.94099426    2.86999989    2.26999998
   11.41111088  165.00799561    2.89000010    2.26999998
   11.41416645  170.53399658    2.89000010    2.26999998
   11.41750050  171.19200134    2.86999989    2.26999998
   11.42083359  178.39500427    2.86999989    2.26999998
   11.42166710  179.42100525    2.86999989    2.26999998
   11.42444515  175.93600464    2.84999990    2.26999998
   11.42777824  168.42900085    2.82999992    2.26999998
   11.43083382  170.50799561    2.86999989    2.26999998
   11.43694496  170.50799561    2.96000004    2.28999996
   11.44083309  179.00399780    3.00000000    2.28999996
   11.44416714  205.57600403    3.03999996    2.28999996
   11.44750023  195.57299805    3.07999992    2.28999996
   11.45055580  220.72999573    3.11999989    2.28999996
   11.45388889  204.14599609    3.14000010    2.28999996
   11.45499992  208.85499573    3.14000010    2.28999996
   11.45749950  190.69299316    3.14000010    2.28999996
   11.46083355  183.39599609    3.18000007    2.28999996
   11.46388912  218.46499634    3.21000004    2.28999996
   11.46722221  198.27200317    3.25000000    2.28999996
   11.47055531  199.77000427    3.26999998    2.28999996
   11.47361088  198.77600098    3.28999996    2.28999996
   11.47972202  198.77600098    3.25000000    2.28999996
   11.48388958  185.47500610    3.21000004    2.30999994
   11.48694515  176.47799683    3.20000005    2.30999994
   11.48833370  192.20599365    3.20000005    2.30999994
   11.49055576  172.65199280    3.16000009    2.30999994
   11.49388885  206.88299561    3.11999989    2.30999994
   11.49694443  194.59500122    3.03999996    2.30999994
   11.50027752  170.36000061    3.01999998    2.30999994
   11.50361156  170.75599670    3.03999996    2.30999994
   11.50666714  166.29699707    3.03999996    2.30999994
   11.51000023  174.71699524    3.00000000    2.30999994
   11.51333332  175.28199768    2.94000006    2.32999992
   11.51638889  184.89500427    2.84999990    2.32999992
   11.52250004  184.89500427    2.76999998    2.32999992
   11.52666664  168.10299683    2.73000002    2.32999992
   11.52999973  176.43299866    2.73000002    2.32999992
   11.53305531  171.45799255    2.75000000    2.32999992
   11.53638935  179.97799683    2.75000000    2.32999992
   11.53944492  169.68600464    2.76999998    2.32999992
   11.54277802  172.67199707    2.76999998    2.34999990
   11.54611111  165.15100098    2.78999996    2.32999992
   11.54916668  173.45599365    2.73000002    2.34999990
   11.55249977  170.85099792    2.73000002    2.34999990
   11.55500031  161.82200623    2.73000002    2.34999990
   11.55611134  172.96899414    2.75000000    2.34999990
   11.55944443  193.90600586    2.82999992    2.34999990
   11.56527805  193.90600586    2.80999994    2.34999990
   11.56944466  161.83900452    2.78999996    2.34999990
   11.57277775  168.24299622    2.75000000    2.34999990
   11.57583332  170.28100586    2.76999998    2.34999990
   11.57916641  159.80000305    2.75000000    2.34999990
   11.58249950  165.74400330    2.75000000    2.36999989
   11.58555508  159.24800110    2.75000000    2.36999989
   11.58833313  163.22500610    2.75000000    2.36999989
   11.58916664  155.58399963    2.76999998    2.36999989
   11.59249973  162.77000427    2.75000000    2.36999989
   11.59555531  162.01699829    2.71000004    2.36999989
   11.59888840  161.26800537    2.75000000    2.36999989
   11.60222244  158.79600525    2.78999996    2.36999989
   11.60833359  158.79600525    2.89000010    2.36999989
   11.61222267  168.17300415    2.91000009    2.36999989
   11.61555576  168.15899658    2.93000007    2.36999989
   11.61888885  162.74000549    2.89000010    2.39000010
   11.62166691  165.54499817    2.89000010    2.39000010
   11.62222195  173.18099976    2.89000010    2.39000010
   11.62555599  170.01400757    2.89000010    2.39000010
   11.62861156  167.72099304    2.91000009    2.36999989
   11.63194466  172.40899658    2.94000006    2.36999989
   11.63527775  163.80799866    2.98000002    2.36999989
   11.63833332  174.45899963    3.01999998    2.39000010
   11.64166641  163.88400269    3.05999994    2.39000010
   11.64499950  168.37699890    3.09999990    2.39000010
   11.65111065  168.37699890    3.14000010    2.39000010
   11.65527725  164.45199585    3.14000010    2.39000010
   11.65833282  160.96800232    3.11999989    2.39000010
   11.66166592  173.61900330    3.11999989    2.39000010
   11.66499996  166.78500366    3.11999989    2.39000010
   11.66805553  162.10899353    3.09999990    2.39000010
   11.67138958  166.24600220    3.05999994    2.39000010
   11.67444515  170.07000732    3.01999998    2.39000010
   11.67777824  160.49200439    2.96000004    2.39000010
   11.68111134  159.28599548    2.93000007    2.40000010
   11.68416691  162.39799500    2.91000009    2.40000010
   11.68750000  166.18299866    2.91000009    2.40000010
   11.68833351  165.14100647    2.89000010    2.40000010
   11.69388866  165.14100647    2.80999994    2.40000010
   11.69805527  166.46200562    2.76999998    2.42000008
   11.70111084  161.43400574    2.78999996    2.40000010
   11.70444393  159.54400635    2.75000000    2.42000008
   11.70777798  164.80499268    2.71000004    2.40000010
   11.71083355  162.88499451    2.67000008    2.42000008
   11.71416664  162.15199280    2.71000004    2.40000010
   11.71749973  166.96499634    2.80999994    2.42000008
   11.72055531  169.36500549    2.86999989    2.40000010
   11.72166634  156.91499329    2.91000009    2.40000010
   11.72416592  164.70300293    2.94000006    2.40000010
   11.72749996  158.71099854    2.96000004    2.42000008
   11.73083305  154.32200623    2.94000006    2.42000008
   11.73666668  154.32200623    3.03999996    2.40000010
   11.74083328  153.97700500    3.07999992    2.40000010
   11.74416733  161.28300476    3.07999992    2.42000008
   11.74722290  155.54499817    3.01999998    2.42000008
   11.75055599  152.52900696    2.94000006    2.42000008
   11.75388908  155.79499817    2.91000009    2.42000008
   11.75500011  157.14500427    2.86999989    2.44000006
   11.75722218  160.85699463    2.82999992    2.42000008
   11.76055527  162.55799866    2.71000004    2.42000008
   11.76388931  157.66099548    2.59999990    2.42000008
   11.76694393  157.85699463    2.50000000    2.44000006
   11.77027798  157.61999512    2.51999998    2.44000006
   11.77333355  152.70599365    2.59999990    2.44000006
   11.77944374  152.70599365    2.73000002    2.44000006
   11.78361130  156.45199585    2.73000002    2.44000006
   11.78694534  169.06900024    2.73000002    2.44000006
   11.78833389  165.93899536    2.75000000    2.44000006
   11.79055595  156.69000244    2.84999990    2.42000008
   11.79388905  159.28599548    2.96000004    2.44000006
   11.79722309  161.43499756    2.98000002    2.44000006
   11.80027771  152.52400208    2.96000004    2.44000006
   11.80361176  161.28300476    2.89000010    2.44000006
   11.80666733  154.56100464    2.80999994    2.44000006
   11.81000042  158.90299988    2.66000009    2.46000004
   11.81333351  151.98300171    2.46000004    2.46000004
   11.81638908  157.93899536    2.28999996    2.46000004
   11.82250023  157.93899536    2.15000010    2.46000004
   11.82666683  146.72200012    2.21000004    2.46000004
   11.82972240  148.19400024    2.26999998    2.46000004
   11.83305550  156.27400208    2.32999992    2.46000004
   11.83611107  147.05099487    2.39000010    2.46000004
   11.83944416  147.48800659    2.42000008    2.46000004
   11.84277725  154.32000732    2.44000006    2.46000004
   11.84611034  154.20799255    2.46000004    2.46000004
   11.84916592  145.46000671    2.44000006    2.48000002
   11.85249996  148.91700745    2.46000004    2.48000002
   11.85500050  145.76899719    2.48000002    2.46000004
   11.85611153  151.79299927    2.48000002    2.46000004
   11.85944462  157.36900330    2.48000002    2.48000002
   11.86527824  157.36900330    2.39000010    2.46000004
   11.86944485  146.62600708    2.28999996    2.48000002
   11.87250042  145.51300049    2.21000004    2.48000002
   11.87583351  147.25700378    2.25000000    2.48000002
   11.87916660  141.43499756    2.25000000    2.48000002
   11.88222218  144.81599426    2.19000006    2.48000002
   11.88555527  143.82400513    2.26999998    2.48000002
   11.88833332  144.99899292    2.40000010    2.48000002
   11.88916683  164.22799683    2.44000006    2.48000002
   11.89249992  158.22000122    2.51999998    2.48000002
   11.89583302  152.29800415    2.50000000    2.48000002
   11.89888859  177.67700195    2.50000000    2.48000002
   11.90222168  151.89999390    2.50000000    2.48000002
   11.90805531  151.89999390    2.55999994    2.48000002
   11.91222191  143.89700317    2.61999989    2.48000002
   11.93138885  143.17599487    2.50000000    2.50000000
   11.93222237  154.31399536    2.50000000    2.50000000
   11.93527794  146.41200256    2.42000008    2.50000000
   11.93861103  152.51100159    2.40000010    2.50000000
   11.94194412  146.08500671    2.42000008    2.51999998
   11.94499969  145.62100220    2.48000002    2.50000000
   11.95111084  145.62100220    2.55999994    2.50000000
   11.95499992  146.81799316    2.53999996    2.50000000
   11.95833302  146.62800598    2.51999998    2.50000000
   11.96166611  154.38900757    2.64000010    2.50000000
   11.96472168  153.75999451    2.71000004    2.50000000
   11.96500015  149.64599609    2.71000004    2.50000000
   11.96833324  152.54100037    2.76999998    2.50000000
   11.97166634  151.92199707    2.80999994    2.50000000
   11.97472191  147.90299988    2.80999994    2.50000000
   11.97805500  147.16299438    2.75000000    2.50000000
   11.98138809  144.44500732    2.66000009    2.50000000
   11.98444462  137.94999695    2.55999994    2.50000000
   11.98777771  146.11799622    2.50000000    2.51999998
   11.99388885  146.11799622    2.46000004    2.51999998
   11.99805546  146.79400635    2.46000004    2.51999998
   11.99833393  145.17300415    2.46000004    2.51999998
   12.00166702  154.33799744    2.34999990    2.51999998
   12.00500011  146.60699463    2.30999994    2.51999998
   12.00805569  141.08399963    2.25000000    2.51999998
   12.01138878  157.81300354    2.19000006    2.53999996
   12.01472187  151.59100342    2.13000011    2.51999998
   12.01777744  146.35899353    2.21000004    2.53999996
   12.02111053  149.68800354    2.26999998    2.53999996
   12.02444458  146.68499756    2.30999994    2.53999996
   12.02750015  163.61300659    2.40000010    2.51999998
   12.03083324  149.67799377    2.50000000    2.51999998
   12.03138828  151.13099670    2.53999996    2.53999996
   12.03666687  151.13099670    2.66000009    2.53999996
   12.04083347  163.91099548    2.59999990    2.51999998
   12.04416752  146.35499573    2.53999996    2.51999998
   12.04722309  141.91799927    2.44000006    2.53999996
   12.05055618  146.80700684    2.40000010    2.53999996
   12.05361176  151.78700256    2.34999990    2.51999998
   12.05694485  149.88999939    2.34999990    2.53999996
   12.06027794  143.19099426    2.30999994    2.53999996
   12.06333351  174.47399902    2.25000000    2.53999996
   12.06472206  161.94799805    2.23000002    2.53999996
   12.06722260  157.90499878    2.23000002    2.55999994
   12.07027817  152.53199768    2.17000008    2.53999996
   12.07361126  143.99600220    2.15000010    2.53999996
   12.07944393  143.99600220    2.25000000    2.53999996
   12.08361053  157.06799316    2.25000000    2.55999994
   12.08694458  166.41000366    2.23000002    2.53999996
   12.09000015  148.56100464    2.26999998    2.53999996
   12.09333324  143.45100403    2.39000010    2.53999996
   12.09666634  164.66000366    2.46000004    2.53999996
   12.09805489  153.19799805    2.50000000    2.53999996
   12.10027790  155.11099243    2.55999994    2.53999996
   12.10333347  164.07499695    2.61999989    2.53999996
   12.10666752  169.11000061    2.59999990    2.53999996
   12.10972214  185.37800598    2.61999989    2.53999996
   12.11305618  153.13499451    2.64000010    2.53999996
   12.11638927  153.78900146    2.66000009    2.53999996
   12.12250042  153.78900146    2.55999994    2.53999996
   12.12638855  173.79200745    2.53999996    2.55999994
   12.12972260  170.50599670    2.53999996    2.55999994
   12.13138866  178.02999878    2.53999996    2.53999996
   12.13361073  159.65199280    2.55999994    2.53999996
   12.13666630  188.19299316    2.59999990    2.53999996
   12.14000034  164.19799805    2.57999992    2.55999994
   12.14305496  177.90600586    2.44000006    2.55999994
   12.14638901  183.25100708    2.28999996    2.55999994
   12.14972210  176.64500427    2.17000008    2.55999994
   12.15277767  163.21800232    2.11999989    2.55999994
   12.15611076  185.15400696    2.05999994    2.55999994
   12.15944386  175.27099609    2.03999996    2.55999994
   12.16527748  175.27099609    2.01999998    2.57999992
   12.16944504  189.67100525    1.98000002    2.57999992
   12.17250061  174.67900085    2.01999998    2.57999992
   12.17583370  170.61000061    2.09999990    2.57999992
   12.17916679  169.79200745    2.09999990    2.55999994
   12.18222237  161.15299988    1.98000002    2.57999992
   12.18555546  164.09899902    1.98000002    2.57999992
   12.18888855  170.00199890    2.01999998    2.57999992
   12.19194412  168.52900696    2.07999992    2.57999992
   12.19527817  175.96000671    2.09999990    2.57999992
   12.19805527  164.08599854    2.13000011    2.57999992
   12.19888878  189.36199951    2.13000011    2.57999992
   12.20194435  156.79100037    2.21000004    2.57999992
   12.20805550  156.79100037    2.17000008    2.55999994
   12.21222210  158.46200562    2.05999994    2.57999992
   12.21555519  150.05999756    2.03999996    2.57999992
   12.21861076  141.52799988    1.96000004    2.57999992
   12.22194386  153.49699402    1.94000006    2.57999992
   12.22499943  147.04800415    1.86000001    2.57999992
   12.22833252  139.70599365    1.86000001    2.59999990
   12.23138809  154.44400024    1.86000001    2.59999990
   12.23222160  159.04100037    1.86000001    2.59999990
   12.23555565  143.20899963    1.89999998    2.59999990
   12.23888874  145.67199707    1.91999996    2.59999990
   12.24222279  151.00300598    1.85000002    2.59999990
   12.24527836  149.72300720    1.85000002    2.59999990
   12.25083351  149.72300720    1.86000001    2.57999992
   12.25500011  148.49800110    1.86000001    2.59999990
   12.25833321  151.64199829    1.83000004    2.57999992
   12.26138878  157.46699524    1.83000004    2.59999990
   12.26472187  148.34700012    1.58000004    2.61999989
   12.26527786  144.23300171    1.58000004    2.61999989
   12.26833344  149.11799622    1.58000004    2.59999990
   12.27166653  153.03599548    1.63000000    2.59999990
   12.27472210  149.70500183    1.76999998    2.59999990
   12.27805519  151.72599792    1.76999998    2.59999990
   12.28138828  160.44500732    1.80999994    2.59999990
   12.28444481  150.32400513    1.96000004    2.59999990
   12.28777790  153.64599609    2.03999996    2.59999990
   12.29388905  153.64599609    1.98000002    2.59999990
   12.29777813  162.68200684    2.00000000    2.59999990
   12.29833412  152.79800415    1.96000004    2.61999989
   12.30166721  152.90100098    1.86000001    2.59999990
   12.30500031  161.81100464    1.86000001    2.61999989
   12.30805588  149.27600098    1.85000002    2.61999989
   12.31138897  156.53399658    1.85000002    2.57999992
   12.31472206  142.77999878    1.83000004    2.59999990
   12.31777763  143.45399475    1.83000004    2.59999990
   12.32111073  152.07000732    1.94000006    2.59999990
   12.32416630  154.50999451    1.85000002    2.61999989
   12.32750034  142.58900452    1.69000006    2.61999989
   12.33083344  149.88099670    2.23000002    2.59999990
   12.33166695  149.55000305    2.23000002    2.59999990
   12.33666611  149.55000305    2.09999990    2.61999989
   12.34083271  149.19099426    1.98000002    2.61999989
   12.34388828  155.53999329    1.89999998    2.61999989
   12.34722233  144.88699341    1.89999998    2.61999989
   12.35055637  153.60699463    1.88000000    2.61999989
   12.35361195  145.62800598    1.80999994    2.61999989
   12.35694504  134.39599609    1.55999994    2.61999989
   12.36027813  146.91799927    1.50000000    2.64000010
   12.36333370  149.71299744    1.50000000    2.64000010
   12.36500072  149.69599915    1.48000002    2.61999989
   12.36694431  156.79299927    1.48000002    2.61999989
   12.37027836  148.73199463    1.71000004    2.61999989
   12.37333393  149.85099792    1.80999994    2.61999989
   12.37944412  149.85099792    1.78999996    2.61999989
   12.38361073  146.37699890    1.83000004    2.61999989
   12.38694477  147.37199402    1.83000004    2.61999989
   12.39000034  150.04200745    1.71000004    2.61999989
   12.39333344  143.21200562    1.66999996    2.61999989
   12.39638901  146.15800476    1.60000002    2.64000010
   12.39833355  154.66000366    1.58000004    2.64000010
   12.39999962  148.67599487    1.58000004    2.64000010
   12.40333271  148.20899963    1.58000004    2.64000010
   12.40638828  145.80900574    1.55999994    2.64000010
   12.40972137  142.63699341    1.61000001    2.64000010
   12.41305542  154.58399963    1.71000004    2.64000010
   12.41611099  159.41999817    1.75000000    2.64000010
   12.42222214  159.41999817    1.75000000    2.64000010
   12.42638874  171.35600281    1.78999996    2.64000010
   12.42972279  175.72099304    1.64999998    2.64000010
   12.43194485  166.46499634    1.55999994    2.64000010
   12.43333340  167.12399292    1.55999994    2.64000010
   12.43666649  170.57699585    1.53999996    2.64000010
   12.43972206  183.62199402    1.55999994    2.64000010
   12.44305515  164.15800476    1.58000004    2.64000010
   12.44638920  175.56799316    1.58000004    2.64000010
   12.44944477  192.63099670    1.66999996    2.64000010
   12.45277786  166.30000305    1.64999998    2.64000010
   12.45611095  178.35400391    1.64999998    2.64000010
   12.45916653  202.86900330    1.61000001    2.64000010
   12.46500015  202.86900330    1.61000001    2.64000010
   12.46916580  171.15800476    1.66999996    2.64000010
   12.47249985  167.71400452    1.71000004    2.64000010
   12.47583294  178.08799744    1.78999996    2.64000010
   12.47888851  178.77999878    1.83000004    2.64000010
   12.48222160  171.45500183    1.76999998    2.64000010
   12.48527813  182.45799255    1.64999998    2.64000010
   12.48861122  147.68200684    1.64999998    2.64000010
   12.49194431  149.69000244    1.61000001    2.64000010
   12.49499989  150.02499390    1.69000006    2.64000010
   12.49833393  158.18699646    1.66999996    2.64000010
   12.50027752  148.66400146    1.66999996    2.64000010
   12.50194454  152.44299316    1.66999996    2.64000010
   12.50805569  152.44299316    1.66999996    2.64000010
   12.51222229  150.11599731    1.78999996    2.66000009
   12.51527786  147.98599243    1.71000004    2.64000010
   12.51861095  157.49699402    1.69000006    2.64000010
   12.52194405  168.58700562    1.71000004    2.64000010
   12.52499962  150.95700073    1.66999996    2.66000009
   12.52833271  160.50500488    1.66999996    2.66000009
   12.53138828  178.36999512    1.63000000    2.64000010
   12.53361130  161.57499695    1.66999996    2.66000009
   12.53500080  171.39599609    1.66999996    2.66000009
   12.53833389  168.72200012    1.71000004    2.66000009
   12.54166698  166.29699707    1.75000000    2.64000010
   12.54472256  175.19999695    1.78999996    2.66000009
   12.55083370  175.19999695    1.85000002    2.66000009
   12.55500031  168.36199951    1.91999996    2.66000009
   12.55805588  141.22300720    1.85000002    2.64000010
   12.56138897  143.41700745    1.64999998    2.66000009
   12.56472206  156.02799988    1.63000000    2.66000009
   12.56694412  156.67700195    1.63000000    2.66000009
   12.56833363  144.81100464    1.60000002    2.66000009
   12.57166672  150.08900452    1.53999996    2.66000009
   12.57472229  159.20199585    1.34000003    2.67000008
   12.57805538  155.64399719    1.38000000    2.67000008
   12.58138847  145.24800110    1.38000000    2.67000008
   12.58444405  153.53500366    1.36000001    2.66000009
   12.58777714  158.55099487    1.36000001    2.67000008
   12.59361076  158.55099487    1.34000003    2.66000009
   12.59777737  147.36799622    1.34000003    2.67000008
   12.60027790  160.11599731    1.41999996    2.67000008
   12.60138893  145.01699829    1.41999996    2.67000008
   12.60472298  150.83700562    1.50000000    2.67000008
   12.60777855  154.60800171    1.60000002    2.66000009
   12.61111164  147.13999939    1.69000006    2.66000009
   12.61444473  143.42399597    2.07999992    2.64000010
   12.61750031  144.85200500    2.03999996    2.66000009
   12.62083340  154.83299255    2.05999994    2.66000009
   12.62388897  151.66099548    2.11999989    2.66000009
   12.62722206  153.51499939    2.07999992    2.66000009
   12.63055611  148.00799561    2.07999992    2.66000009
   12.63638878  148.00799561    2.05999994    2.66000009
   12.64055538  149.47700500    2.00000000    2.66000009
   12.64388847  148.71699524    1.98000002    2.66000009
   12.64722252  160.22900391    1.96000004    2.66000009
   12.65027714  152.81700134    1.75000000    2.67000008
   12.65361118  159.96099854    1.71000004    2.67000008
   12.65666676  153.78700256    1.69000006    2.67000008
   12.65999985  165.00599670    1.69000006    2.67000008
   12.66333294  163.23199463    1.61000001    2.66000009
   12.66638851  153.20199585    1.66999996    2.67000008
   12.66750050  156.66200256    1.69000006    2.67000008
   12.67000008  173.70300293    1.69000006    2.67000008
   12.67333412  157.88699341    1.69000006    2.67000008
   12.67944431  157.88699341    1.71000004    2.67000008
   12.68361092  166.72399902    1.73000002    2.67000008
   12.68666649  160.91600037    1.85000002    2.67000008
   12.69000053  176.76400757    1.96000004    2.66000009
   12.69333363  176.19500732    1.96000004    2.66000009
   12.69638920  180.31900024    1.89999998    2.67000008
   12.69972229  183.88600159    1.89999998    2.67000008
   12.70083332  186.57899475    2.01999998    2.67000008
   12.70333290  160.36399841    2.11999989    2.67000008
   12.70666695  155.24899292    2.09999990    2.67000008
   12.71000004  174.78100586    2.07999992    2.67000008
   12.71305561  185.23300171    2.13000011    2.66000009
   12.71638870  171.77799988    2.15000010    2.67000008
   12.72222137  171.77799988    2.17000008    2.67000008
   12.72638798  197.35200500    2.13000011    2.67000008
   12.72944355  196.96800232    1.98000002    2.67000008
   12.73277760  171.64999390    1.88000000    2.69000006
   12.73416710  161.69400024    1.88000000    2.67000008
   12.73638916  147.00500488    1.86000001    2.67000008
   12.73972225  175.82299805    1.86000001    2.67000008
   12.74277782  191.12199402    1.85000002    2.67000008
   12.74611092  205.22999573    1.66999996    2.69000006
   12.74944496  186.52099609    1.66999996    2.69000006
   12.75249958  200.80299377    1.64999998    2.69000006
   12.75583363  167.95700073    1.89999998    2.67000008
   12.75916672  173.62100220    2.05999994    2.67000008
   12.76500034  173.62100220    2.26999998    2.67000008
   12.76916599  173.90699768    2.23000002    2.67000008
   12.77250004  174.26499939    2.15000010    2.67000008
   12.77555561  159.19799805    2.17000008    2.67000008
   12.77888870  141.18899536    2.21000004    2.67000008
   12.78222179  159.74499512    2.21000004    2.67000008
   12.78527832  156.49000549    2.13000011    2.67000008
   12.78861141  168.61300659    2.03999996    2.67000008
   12.79166698  145.80200195    1.86000001    2.69000006
   12.79500008  144.10800171    1.85000002    2.69000006
   12.79833412  153.53999329    1.85000002    2.69000006
   12.80111122  170.21299744    1.85000002    2.69000006
   12.80194473  146.25999451    1.85000002    2.69000006
   12.80777836  146.25999451    1.94000006    2.67000008
   12.81194496  152.60600281    1.94000006    2.67000008
   12.81527805  144.66600037    1.94000006    2.67000008
   12.81861115  150.75900269    1.94000006    2.67000008
   12.82166672  154.71000671    1.85000002    2.69000006
   12.82499981  154.42900085    1.83000004    2.67000008
   12.82833290  150.05900574    1.91999996    2.67000008
   12.83138847  142.31100464    1.94000006    2.69000006
   12.83444405  150.91200256    1.94000006    2.69000006
   12.83500004  164.13400269    1.85000002    2.69000006
   12.83833313  154.48699951    2.07999992    2.69000006
   12.84138870  165.13999939    2.09999990    2.69000006
   12.84472179  162.49400330    2.09999990    2.69000006
   12.85083389  162.49400330    2.03999996    2.69000006
   12.85500050  168.81900024    1.98000002    2.69000006
   12.85805607  151.46099854    1.89999998    2.69000006
   12.86138916  145.54800415    1.88000000    2.71000004
   12.86444473  146.17599487    1.88000000    2.69000006
   12.86777782  157.14100647    2.15000010    2.69000006
   12.86805534  153.94700623    2.15000010    2.69000006
   12.87138939  142.85699463    2.19000006    2.69000006
   12.87444496  142.65199280    2.28999996    2.69000006
   12.87777805  146.01100159    2.28999996    2.69000006
   12.88111115  144.09899902    2.36999989    2.69000006
   12.88416672  156.70899963    2.39000010    2.69000006
   12.88749981  156.90699768    2.34999990    2.67000008
   12.89361095  156.90699768    2.32999992    2.69000006
   12.89777756  151.83799744    2.26999998    2.69000006
   12.90111065  150.83000183    2.36999989    2.69000006
   12.90138817  161.03500366    2.36999989    2.69000006
   12.90472221  139.11000061    2.40000010    2.69000006
   12.90777779  148.14199829    2.39000010    2.69000006
   12.91111088  162.15499878    2.28999996    2.69000006
   12.91444397  152.25700378    2.23000002    2.69000006
   12.91750050  153.41200256    2.09999990    2.69000006
   12.92083359  188.68699646    1.91999996    2.69000006
   12.92416668  186.35800171    1.80999994    2.69000006
   12.92722225  172.28399658    1.85000002    2.69000006
   12.93055630  181.46200562    1.91999996    2.69000006
   12.95222187  181.46200562    1.50000000    2.71000004
   12.95638847  225.98899841    1.78999996    2.71000004
   12.95944405  218.23399353    1.83000004    2.71000004
   12.96277714  190.10800171    1.89999998    2.69000006
   12.96583271  212.56900024    1.96000004    2.71000004
   12.96916580  202.74800110    1.98000002    2.71000004
   12.97249985  201.59599304    1.98000002    2.69000006
   12.97555542  194.02499390    2.03999996    2.71000004
   12.97888851  206.96600342    2.09999990    2.69000006
   12.98222160  212.91799927    2.05999994    2.71000004
   12.98277760  230.42900085    2.01999998    2.71000004
   12.98555565  169.80000305    2.00000000    2.71000004
   12.98888874  234.89599609    1.86000001    2.71000004
   12.99472237  234.89599609    1.75000000    2.71000004
   12.99888897  198.12800598    1.71000004    2.71000004
   13.00222206  216.50999451    1.76999998    2.71000004
   13.00555515  176.27699280    1.71000004    2.71000004
   13.00861073  216.87300110    1.63000000    2.71000004
   13.01194477  194.91700745    1.69000006    2.71000004
   13.01527786  167.52799988    1.69000006    2.71000004
   13.01638889  182.21400452    1.71000004    2.73000002
   13.01861095  195.71800232    1.71000004    2.73000002
   13.02194405  178.88800049    1.66999996    2.71000004
   13.02499962  206.65499878    1.58000004    2.73000002
   13.02833271  163.95799255    1.51999998    2.73000002
   13.03166676  180.80200195    1.39999998    2.71000004
   13.03777790  180.80200195    1.44000006    2.73000002
   13.04194450  168.26899719    1.48000002    2.73000002
   13.04500008  188.71299744    1.63000000    2.73000002
   13.04833412  203.52600098    1.63000000    2.73000002
   13.04972267  204.95700073    1.63000000    2.73000002
   13.05194473  195.99899292    1.63000000    2.73000002
   13.05527782  202.99299622    1.63000000    2.71000004
   13.05833340  206.46000671    1.61000001    2.73000002
   13.06166649  165.68400574    1.55999994    2.73000002
   13.06500053  184.81500244    1.58000004    2.73000002
   13.06805515  178.16600037    1.63000000    2.75000000
   13.07138920  191.91499329    1.55999994    2.73000002
   13.07472229  209.96800232    1.46000004    2.73000002
   13.08055592  209.96800232    1.46000004    2.73000002
   13.08472157  176.32200623    1.41999996    2.73000002
   13.08805561  201.86099243    1.34000003    2.73000002
   13.09111118  175.55200195    1.28999996    2.73000002
   13.09444427  205.90499878    1.28999996    2.73000002
   13.09749985  170.09599304    1.28999996    2.73000002
   13.10083389  173.15800476    1.25000000    2.73000002
   13.10416698  190.67799377    1.23000002    2.73000002
   13.10722256  182.81399536    1.14999998    2.75000000
   13.11055565  171.05299377    1.14999998    2.75000000
   13.11388969  201.52400208    1.25000000    2.75000000
   13.11638927  168.79200745    1.48000002    2.75000000
   13.11750031  189.62699890    1.48000002    2.75000000
   13.12333393  189.62699890    1.48000002    2.75000000
   13.12750053  171.83999634    1.30999994    2.75000000
   13.13083363  163.97900391    1.41999996    2.73000002
   13.13388920  171.85499573    1.44000006    2.73000002
   13.13722229  169.61099243    1.53999996    2.73000002
   13.14055538  186.68800354    1.55999994    2.73000002
   13.14361095  171.31100464    1.55999994    2.73000002
   13.14694405  169.25799561    1.61000001    2.73000002
   13.14972210  169.94400024    1.61000001    2.73000002
   13.15055561  173.32699585    1.61000001    2.73000002
   13.15388870  177.26300049    1.60000002    2.73000002
   13.15694427  159.29400635    1.63000000    2.73000002
   13.16027737  192.36399841    1.53999996    2.73000002
   13.16638851  192.36399841    1.61000001    2.73000002
   13.17027855  183.20300293    1.60000002    2.73000002
   13.17361164  176.91999817    1.55999994    2.73000002
   13.17694473  188.49299622    1.48000002    2.73000002
   13.18000031  184.46600342    1.46000004    2.73000002
   13.18333340  203.47200012    1.44000006    2.75000000
   13.18361092  176.88900757    1.44000006    2.75000000
   13.18694496  169.37399292    1.38000000    2.75000000
   13.19000053  167.09199524    1.26999998    2.73000002
   13.19333363  160.63800049    1.30999994    2.75000000
   13.19666672  145.84700012    1.26999998    2.75000000
   13.19972229  163.08099365    1.26999998    2.75000000
   13.20305538  151.82899475    1.33000004    2.75000000
   13.20916653  151.82899475    1.46000004    2.75000000
   13.21333313  180.64199829    1.44000006    2.73000002
   13.21638870  166.81799316    1.44000006    2.73000002
   13.21694374  161.28500366    1.44000006    2.73000002
   13.22027779  152.74499512    1.46000004    2.75000000
   13.22333336  165.15100098    1.46000004    2.75000000
   13.22666645  184.83000183    1.46000004    2.75000000
   13.22999954  174.14100647    1.44000006    2.75000000
   13.23305511  155.55000305    1.55999994    2.75000000
   13.23638916  171.24299622    1.73000002    2.73000002
   13.23972225  164.15100098    1.73000002    2.73000002
   13.24277782  169.95300293    1.71000004    2.73000002
   13.24611092  166.71099854    1.61000001    2.75000000
   13.25194454  166.71099854    1.63000000    2.75000000
   13.25611115  158.24099731    1.50000000    2.75000000
   13.25944424  161.93600464    1.16999996    2.75000000
   13.26249981  161.54600525    1.16999996    2.75000000
   13.26583290  173.52699280    1.19000006    2.75000000
   13.26888847  162.51699829    1.30999994    2.75000000
   13.27222157  164.97700500    1.19000006    2.75000000
   13.27555561  167.45500183    1.21000004    2.75000000
   13.27861118  160.28199768    1.21000004    2.75000000
   13.28194427  151.20399475    1.21000004    2.75000000
   13.28305531  154.35000610    1.25000000    2.75000000
   13.28555584  161.58700562    1.25000000    2.75000000
   13.28888893  168.97900391    1.16999996    2.75000000
   13.29472256  168.97900391    1.11000001    2.75000000
   13.29888916  158.25799561    1.11000001    2.75000000
   13.30222225  156.08200073    1.16999996    2.75000000
   13.30555534  168.01499939    1.16999996    2.75000000
   13.30861092  161.94400024    1.16999996    2.76999998
   13.31194496  169.78100586    1.11000001    2.75000000
   13.31527805  147.69799805    1.21000004    2.75000000
   13.31638908  154.93600464    1.21000004    2.75000000
   13.31861115  167.53799438    1.21000004    2.75000000
   13.32194424  164.40100098    1.21000004    2.76999998
   13.32499981  163.22000122    1.21000004    2.75000000
   13.32833290  167.34300232    1.16999996    2.76999998
   13.33166695  175.00199890    1.33000004    2.75000000
   13.33777714  175.00199890    1.33000004    2.75000000
   13.34166622  158.74200439    1.33000004    2.75000000
   13.34499931  172.85299683    1.33000004    2.75000000
   13.34833336  196.18899536    1.33000004    2.75000000
   13.35000038  197.19200134    1.34000003    2.75000000
   13.35194492  183.80499268    1.34000003    2.75000000
   13.35527802  188.18400574    1.46000004    2.75000000
   13.35833359  183.22900391    1.50000000    2.75000000
   13.36166668  192.61399841    1.38000000    2.75000000
   13.36472225  179.41099548    1.46000004    2.75000000
   13.36805534  159.23300171    1.46000004    2.75000000
   13.37138939  177.97799683    1.38000000    2.76999998
   13.37444496  176.73300171    0.81999999    2.76999998
   13.38055611  176.73300171    0.83999997    2.76999998
   13.38472176  162.97399902    0.92000002    2.76999998
   13.38777733  168.92700195    1.00000000    2.76999998
   13.39111137  178.73100281    1.09000003    2.76999998
   13.39444447  174.41099548    1.05999994    2.76999998
   13.39750004  167.00300598    1.05999994    2.78999996
   13.40083313  171.63200378    1.09000003    2.76999998
   13.40388870  178.74099731    1.09000003    2.76999998
   13.40722179  172.74099731    1.13000000    2.78999996
   13.41055489  176.25199890    1.13000000    2.76999998
   13.41361046  177.59300232    1.26999998    2.76999998
   13.41666698  167.24099731    1.26999998    2.76999998
   13.41722298  169.55499268    1.26999998    2.76999998
   13.42333412  169.55499268    1.39999998    2.75000000
   13.42750072  165.32000732    1.39999998    2.75000000
   13.43083382  160.89599609    1.44000006    2.76999998
   13.43388939  162.37399292    1.53999996    2.75000000
   13.43722248  162.12899780    1.34000003    2.76999998
   13.44027805  166.92700195    1.33000004    2.76999998
   13.44361115  174.90400696    1.30999994    2.76999998
   13.44694424  173.25399780    1.30999994    2.76999998
   13.44999981  163.54600525    1.33000004    2.75000000
   13.45055580  175.09199524    1.33000004    2.75000000
   13.45361137  174.81599426    1.34000003    2.75000000
   13.45694447  172.35000610    1.28999996    2.76999998
   13.46027756  167.18499756    1.28999996    2.76999998
   13.46611118  167.18499756    1.19000006    2.76999998
   13.47027779  165.35899353    1.21000004    2.76999998
   13.47361088  161.18499756    1.28999996    2.76999998
   13.47666645  169.11799622    1.25000000    2.76999998
   13.47999954  157.13099670    1.25000000    2.76999998
   13.48333359  175.54400635    1.33000004    2.76999998
   13.48388958  164.32000732    1.33000004    2.76999998
   13.48722267  164.29299927    1.39999998    2.76999998
   13.49055576  164.48699951    1.39999998    2.76999998
   13.49361134  171.21099854    1.30999994    2.76999998
   13.49694443  174.48399353    1.41999996    2.76999998
   13.50027752  173.33299255    1.41999996    2.76999998
   13.50333309  173.77099609    1.41999996    2.78999996
   13.50888920  173.77099609    1.16999996    2.76999998
   13.51305580  174.93499756    1.13000000    2.76999998
   13.51638889  193.44299316    1.11000001    2.78999996
   13.51722240  181.04299927    1.07000005    2.78999996
   13.51999950  176.92300415    1.13000000    2.76999998
   13.52333355  167.68699646    1.26999998    2.76999998
   13.52666664  183.17999268    1.33000004    2.76999998
   13.52972221  171.37500000    1.41999996    2.75000000
   13.53305531  184.57299805    1.41999996    2.76999998
   13.53638935  190.47599792    1.44000006    2.76999998
   13.53944492  163.96400452    1.44000006    2.76999998
   13.54277802  161.91600037    1.41999996    2.76999998
   13.54583359  178.82600403    1.41999996    2.76999998
   13.55194473  178.82600403    1.51999998    2.76999998
   13.55611134  173.78700256    1.50000000    2.76999998
   13.55916691  169.14700317    1.46000004    2.78999996
   13.56250000  158.12500000    1.38000000    2.76999998
   13.56555557  167.36199951    1.26999998    2.76999998
   13.56888866  166.54100037    1.34000003    2.76999998
   13.57222176  160.69599915    1.36000001    2.76999998
   13.57527733  164.89100647    1.28999996    2.76999998
   13.57861137  169.94900513    1.25000000    2.78999996
   13.58194447  180.03799438    1.25000000    2.78999996
   13.58388901  192.36099243    1.25000000    2.76999998
   13.58527756  158.91400146    1.25000000    2.76999998
   13.58861065  181.88299561    1.30999994    2.76999998
   13.59472179  181.88299561    1.39999998    2.76999998
   13.59888840  174.85099792    1.41999996    2.78999996
   13.60194492  178.20399475    1.44000006    2.78999996
   13.60527802  156.81100464    1.39999998    2.78999996
   13.60861111  150.19599915    1.38000000    2.76999998
   13.61166668  175.72099304    1.53999996    2.76999998
   13.61500072  146.07400513    1.60000002    2.76999998
   13.61722279  165.83299255    1.58000004    2.76999998
   13.61861134  166.43899536    1.58000004    2.76999998
   13.62194443  169.93200684    1.58000004    2.76999998
   13.62527752  171.97300720    1.55999994    2.76999998
   13.62833309  164.08900452    1.53999996    2.76999998
   13.63166714  172.22599792    1.61000001    2.76999998
   13.63749981  172.22599792    1.61000001    2.76999998
   13.64166641  161.46899414    1.55999994    2.78999996
   13.64499950  164.87800598    1.58000004    2.76999998
   13.64805508  158.34300232    1.63000000    2.76999998
   13.65055561  166.29600525    1.51999998    2.78999996
   13.65194416  165.19799805    1.51999998    2.78999996
   13.65499973  156.83599854    1.51999998    2.78999996
   13.65833282  162.12699890    1.69000006    2.76999998
   13.66138840  170.54899597    1.69000006    2.76999998
   13.66472149  156.21899414    1.71000004    2.78999996
   13.66805553  167.53300476    1.71000004    2.78999996
   13.67111111  177.19299316    1.46000004    2.78999996
   13.67444515  156.84700012    1.48000002    2.78999996
   13.68027782  156.84700012    1.53999996    2.78999996
   13.68444443  155.61900330    1.53999996    2.78999996
   13.68777752  169.51400757    1.53999996    2.78999996
   13.69111156  150.22900391    1.53999996    2.78999996
   13.69416714  161.00799561    1.53999996    2.78999996
   13.69750023  170.47099304    1.50000000    2.78999996
   13.70055580  155.91999817    1.51999998    2.78999996
   13.70388889  162.97999573    1.55999994    2.78999996
   13.70722198  177.99600220    1.60000002    2.78999996
   13.71027756  159.11300659    1.58000004    2.78999996
   13.71361065  163.26300049    1.58000004    2.78999996
   13.71694374  173.02699280    1.50000000    2.78999996
   13.71722221  166.40499878    1.50000000    2.78999996
   13.72333336  166.40499878    1.55999994    2.78999996
   13.72722149  153.29200745    1.75000000    2.76999998
   13.73055553  164.23399353    1.80999994    2.78999996
   13.73388958  177.86700439    1.83000004    2.76999998
   13.73694515  163.08700562    1.85000002    2.76999998
   13.74027824  161.14199829    1.85000002    2.78999996
   13.74361134  175.02799988    1.64999998    2.76999998
   13.74666691  218.81799316    1.63000000    2.78999996
   13.75000000  248.61099243    1.60000002    2.78999996
   13.75055599  277.71398926    1.60000002    2.78999996
   13.75361156  252.17100525    1.55999994    2.78999996
   13.75694466  279.57299805    1.51999998    2.78999996
   13.76000023  259.46798706    1.51999998    2.78999996
   13.76611137  259.46798706    1.55999994    2.78999996
   13.77027798  248.95899963    1.50000000    2.78999996
   13.77333355  263.74600220    1.48000002    2.78999996
   13.77666664  240.20500183    1.38000000    2.78999996
   13.77999973  204.78700256    1.33000004    2.78999996
   13.78305531  194.92300415    1.33000004    2.78999996
   13.78388977  206.25199890    1.33000004    2.78999996
   13.78666687  188.50500488    1.33000004    2.80999994
   13.79000092  200.55299377    1.44000006    2.78999996
   13.79305553  204.43200684    1.44000006    2.78999996
   13.79638958  217.10099792    1.46000004    2.78999996
   13.79972267  217.57200623    1.48000002    2.78999996
   13.80277824  216.58900452    1.66999996    2.78999996
   13.80888939  216.58900452    1.71000004    2.78999996
   13.81305599  209.95599365    1.69000006    2.78999996
   13.81638908  207.49800110    1.53999996    2.78999996
   13.81722260  202.93499756    1.53999996    2.78999996
   13.81999969  227.63400269    1.53999996    2.78999996
   13.82333374  199.07000732    1.60000002    2.78999996
   13.82638836  221.08099365    1.55999994    2.78999996
   13.82972240  204.55400085    1.50000000    2.78999996
   13.83305550  203.06199646    1.33000004    2.78999996
   13.83611107  228.85200500    1.33000004    2.78999996
   13.83944416  211.81799316    1.39999998    2.80999994
   13.84249973  209.41799927    1.44000006    2.78999996
   13.84583282  229.55999756    1.39999998    2.80999994
   13.85166740  229.55999756    1.80999994    2.78999996
   13.85583401  209.10099792    1.83000004    2.78999996
   13.85916710  201.12699890    1.83000004    2.78999996
   13.86222267  225.28399658    1.94000006    2.78999996
   13.86555576  197.84199524    2.21000004    2.76999998
   13.86888885  215.87500000    2.34999990    2.76999998
   13.87194443  219.35800171    2.39000010    2.76999998
   13.87527752  205.55999756    2.23000002    2.76999998
   13.87861156  213.93499756    2.03999996    2.78999996
   13.88166714  200.85699463    2.00000000    2.78999996
   13.88416672  169.86799622    1.96000004    2.78999996
   13.88527775  198.86500549    1.94000006    2.78999996
   13.88861084  194.98300171    1.89999998    2.78999996
   13.89472198  194.98300171    1.83000004    2.78999996
   13.89861107  220.36500549    1.80999994    2.78999996
   13.90194416  224.91099548    1.76999998    2.78999996
   13.90527725  184.77000427    1.78999996    2.78999996
   13.90833282  184.14300537    1.78999996    2.78999996
   13.91166592  208.77799988    1.78999996    2.57999992
   13.91499996  190.78399658    1.80999994    2.67000008
   13.91750050  207.54299927    1.85000002    2.78999996
   13.91861153  174.83900452    1.86000001    2.78999996
   13.92194462  204.46299744    1.88000000    2.78999996
   13.92500019  164.38499451    1.88000000    2.78999996
   13.92833328  168.46099854    1.96000004    2.76999998
   13.93166733  160.69799805    1.96000004    2.78999996
   13.93750000  160.69799805    2.11999989    2.78999996
   13.94166660  204.28700256    2.05999994    2.78999996
   13.94472218  192.26899719    2.09999990    2.78999996
   13.94805527  191.67300415    2.09999990    2.78999996
   13.96555519  196.53300476    1.88000000    2.78999996
   13.96805477  204.16499329    1.88000000    2.78999996
   13.97138882  201.21299744    1.89999998    2.78999996
   13.97444439  190.21299744    1.96000004    2.78999996
   13.98055553  190.21299744    1.86000001    2.80999994
   13.98472214  194.12699890    1.64999998    2.78999996
   13.98777771  210.35400391    1.60000002    2.80999994
   13.99111176  195.52200317    1.58000004    2.80999994
   13.99444485  204.73399353    1.58000004    2.80999994
   13.99750042  195.77099609    1.55999994    2.80999994
   13.99888897  191.08000183    1.55999994    2.80999994
   14.00138855  195.92399597    1.58000004    2.78999996
   14.00444412  211.65699768    1.58000004    2.78999996
   14.00777817  196.60499573    1.64999998    2.80999994
   14.01111126  209.29699707    1.71000004    2.80999994
   14.01416683  183.88800049    1.51999998    2.78999996
   14.01749992  206.34599304    1.51999998    2.78999996
   14.02333355  206.34599304    1.51999998    2.78999996
   14.02750015  208.28799438    1.39999998    2.80999994
   14.03083324  210.04699707    1.36000001    2.80999994
   14.03222179  209.05000305    1.39999998    2.82999992
   14.03444481  219.88299561    1.38000000    2.80999994
   14.03750038  213.97000122    1.38000000    2.80999994
   14.04083347  231.12699890    1.39999998    2.82999992
   14.04416752  211.26899719    1.38000000    2.82999992
   14.04750061  204.16900635    1.39999998    2.80999994
   14.05055618  238.30000305    1.53999996    2.80999994
   14.05388927  237.44299316    1.53999996    2.80999994
   14.05722237  226.33900452    1.46000004    2.80999994
   14.06027794  199.34800720    1.41999996    2.80999994
   14.06611156  199.34800720    1.44000006    2.80999994
   14.07027817  218.38099670    1.39999998    2.80999994
   14.07361126  237.60600281    1.39999998    2.80999994
   14.07666683  219.46600342    1.39999998    2.80999994
   14.07999992  216.80999756    1.44000006    2.80999994
   14.08333302  225.04699707    1.48000002    2.80999994
   14.08638859  212.55499268    1.51999998    2.80999994
   14.08972168  227.62699890    1.36000001    2.80999994
   14.09305477  227.87500000    1.33000004    2.80999994
   14.09611034  224.72300720    1.33000004    2.80999994
   14.09888840  235.13699341    1.38000000    2.80999994
   14.10000038  225.36500549    1.38000000    2.80999994
   14.10305595  228.83099365    1.38000000    2.80999994
   14.10916710  228.83099365    1.38000000    2.80999994
   14.11305618  221.29400635    1.41999996    2.82999992
   14.11638927  258.83801270    1.41999996    2.82999992
   14.11972237  217.03399658    1.36000001    2.80999994
   14.12277794  230.21800232    1.41999996    2.80999994
   14.12611103  233.69000244    1.38000000    2.80999994
   14.12944412  227.34399414    1.44000006    2.80999994
   14.13222218  224.89599609    1.44000006    2.80999994
   14.13305569  229.42900085    1.44000006    2.80999994
   14.13611126  217.51499939    1.46000004    2.82999992
   14.13944435  235.46899414    1.44000006    2.82999992
   14.14277744  240.90400696    1.44000006    2.82999992
   14.14583302  230.32299805    1.41999996    2.78999996
   14.15194416  230.32299805    1.48000002    2.80999994
   14.15611076  235.38200378    1.39999998    2.82999992
   14.15916634  233.70100403    1.39999998    2.80999994
   14.16249943  228.93899536    1.44000006    2.80999994
   14.16555500  215.30700684    1.44000006    2.80999994
   14.16694450  217.43600464    1.44000006    2.80999994
   14.17027855  220.78100586    1.51999998    2.80999994
   14.17333412  220.99699402    1.51999998    2.80999994
   14.17666721  215.86799622    1.53999996    2.80999994
   14.17972279  216.93800354    1.53999996    2.80999994
   14.18305588  224.41499329    1.64999998    2.80999994
   14.18638897  241.89999390    1.63000000    2.82999992
   14.18944454  228.37300110    1.63000000    2.82999992
   14.19472218  228.37300110    1.51999998    2.82999992
   14.19888878  220.75999451    1.50000000    2.80999994
   14.19944477  226.72000122    1.38000000    2.80999994
   14.20277786  243.61399841    1.41999996    2.80999994
   14.20583344  227.38400269    1.44000006    2.80999994
   14.20916653  231.83299255    1.46000004    2.82999992
   14.21222210  254.93800354    1.50000000    2.82999992
   14.21555519  251.40100098    1.51999998    2.82999992
   14.21888828  205.95799255    1.51999998    2.80999994
   14.22194386  229.38200378    1.50000000    2.80999994
   14.22527695  248.47700500    1.50000000    2.80999994
   14.22861099  230.78900146    1.44000006    2.82999992
   14.23166656  227.27900696    1.50000000    2.80999994
   14.23222160  237.40699768    1.50000000    2.80999994
   14.23750019  237.40699768    1.58000004    2.80999994
   14.24166679  207.43899536    1.53999996    2.82999992
   14.24499989  213.41700745    1.53999996    2.82999992
   14.24833393  187.42799377    1.55999994    2.82999992
   14.25138855  227.55599976    1.58000004    2.82999992
   14.25472260  201.16400146    1.60000002    2.82999992
   14.25777817  222.41799927    1.48000002    2.82999992
   14.26111126  219.02099609    1.48000002    2.80999994
   14.26444435  226.74800110    1.48000002    2.80999994
   14.26555538  213.07299805    1.51999998    2.82999992
   14.26805496  210.82200623    1.51999998    2.82999992
   14.27138901  203.54100037    1.58000004    2.80999994
   14.27444458  211.22999573    1.63000000    2.80999994
   14.28055573  211.22999573    1.61000001    2.82999992
   14.28444481  207.39700317    1.64999998    2.82999992
   14.28777790  208.55999756    1.66999996    2.82999992
   14.29111195  196.47999573    1.58000004    2.80999994
   14.29416752  203.06799316    1.53999996    2.82999992
   14.29750061  206.57200623    1.51999998    2.80999994
   14.29888916  211.28700256    1.46000004    2.82999992
   14.30111122  205.23199463    1.44000006    2.82999992
   14.30444431  203.04800415    1.41999996    2.80999994
   14.30749989  204.93400574    1.48000002    2.82999992
   14.31194496  186.00000000    1.48000002    2.82999992
   14.31527805  190.94400024    1.53999996    2.82999992
   14.31833363  199.80200195    1.55999994    2.80999994
   14.32333374  199.80200195    1.53999996    2.82999992
   14.32750034  193.85099792    1.58000004    2.82999992
   14.33055592  192.81199646    1.51999998    2.82999992
   14.33222198  192.34199524    1.51999998    2.82999992
   14.33416653  196.24699402    1.46000004    2.82999992
   14.33749962  173.03199768    1.50000000    2.80999994
   14.34055519  186.13900757    1.50000000    2.80999994
   14.34388828  193.55200195    1.46000004    2.80999994
   14.34694386  167.93899536    1.36000001    2.82999992
   14.35027790  181.26199341    1.38000000    2.82999992
   14.35361195  180.32600403    1.38000000    2.82999992
   14.35666752  181.94599915    1.26999998    2.82999992
   14.36000061  177.66999817    1.26999998    2.82999992
   14.36611176  177.66999817    1.25000000    2.82999992
   14.37027836  165.56300354    1.21000004    2.82999992
   14.37361145  169.41299438    1.19000006    2.82999992
   14.37666702  190.46899414    1.19000006    2.82999992
   14.38000011  182.73800659    1.23000002    2.82999992
   14.38305569  188.64700317    1.23000002    2.82999992
   14.38638878  176.44299316    1.21000004    2.82999992
   14.38972187  175.80599976    1.25000000    2.82999992
   14.39305496  165.37399292    1.21000004    2.82999992
   14.39611053  156.68899536    1.19000006    2.82999992
   14.39888859  184.47500610    1.19000006    2.82999992
   14.39972210  154.72500610    1.19000006    2.82999992
   14.40277767  167.26499939    1.19000006    2.82999992
   14.40888882  167.26499939    1.16999996    2.82999992
   14.41305542  182.15699768    1.16999996    2.84999990
   14.41638851  170.72099304    1.16999996    2.82999992
   14.41944504  163.31300354    1.16999996    2.82999992
   14.42277813  176.27699280    1.34000003    2.82999992
   14.42611122  171.03199768    1.34000003    2.82999992
   14.42916679  173.47099304    1.38000000    2.82999992
   14.43222237  167.39599609    1.38000000    2.82999992
   14.43277836  170.51699829    1.39999998    2.82999992
   14.43583298  166.79400635    1.39999998    2.82999992
   14.43916702  171.79400635    1.39999998    2.82999992
   14.44250011  156.28599548    1.39999998    2.82999992
   14.44555569  165.14500427    1.39999998    2.82999992
   14.45194435  165.14500427    1.44000006    2.82999992
   14.45583344  166.04299927    1.44000006    2.82999992
   14.45916653  149.98800659    1.51999998    2.82999992
   14.46249962  158.29600525    1.55999994    2.82999992
   14.46555519  159.02099609    1.63000000    2.82999992
   14.46611118  165.55400085    1.63000000    2.82999992
   14.46944427  164.50900269    1.64999998    2.82999992
   14.47249985  154.80299377    1.64999998    2.82999992
   14.47583294  163.57299805    1.66999996    2.80999994
   14.47888851  157.03100586    1.60000002    2.80999994
   14.48222160  153.02499390    1.61000001    2.82999992
   14.48555565  168.21499634    1.60000002    2.82999992
   14.48861122  164.83200073    1.51999998    2.82999992
   14.49472237  164.83200073    1.60000002    2.82999992
   14.49888897  147.91099548    1.60000002    2.82999992
   14.49944496  162.40499878    1.60000002    2.82999992
   14.50249958  141.12899780    1.63000000    2.82999992
   14.50583363  160.81799316    1.60000002    2.82999992
   14.50916672  160.33500671    1.60000002    2.80999994
   14.51222229  156.82099915    1.63000000    2.80999994
   14.51555538  164.10600281    1.64999998    2.82999992
   14.51861095  152.62399292    1.66999996    2.82999992
   14.52194405  151.77200317    1.73000002    2.82999992
   14.52527714  156.42399597    1.73000002    2.82999992
   14.52833271  151.28399658    1.71000004    2.82999992
   14.53166676  152.20700073    1.71000004    2.82999992
   14.53277779  139.38400269    1.71000004    2.82999992
   14.53750038  139.38400269    1.69000006    2.82999992
   14.54166698  153.23500061    1.69000006    2.82999992
   14.54472256  154.65400696    1.64999998    2.82999992
   14.54805565  155.02699280    1.61000001    2.82999992
   14.55138874  157.24299622    1.61000001    2.80999994
   14.55472279  153.94599915    1.53999996    2.82999992
   14.55777836  162.75500488    1.53999996    2.82999992
   14.56111145  159.06700134    1.50000000    2.82999992
   14.56416702  157.23800659    1.48000002    2.82999992
   14.56611156  131.76600647    1.46000004    2.82999992
   14.56777763  144.84500122    1.48000002    2.82999992
   14.57111073  144.45899963    1.50000000    2.82999992
   14.57444477  159.91499329    1.53999996    2.82999992
   14.58027744  159.91499329    1.55999994    2.82999992
   14.58444405  167.35299683    1.48000002    2.82999992
   14.58777714  174.68499756    1.51999998    2.82999992
   14.59083271  164.23899841    1.53999996    2.82999992
   14.59416676  177.61500549    1.51999998    2.82999992
   14.59749985  183.85499573    1.48000002    2.82999992
   14.59944439  184.50700378    1.48000002    2.82999992
   14.60083389  207.82099915    1.48000002    2.82999992
   14.60416698  205.16999817    1.48000002    2.82999992
   14.60750008  192.10000610    1.50000000    2.82999992
   14.61055565  203.87500000    1.63000000    2.82999992
   14.61388969  206.22999573    1.63000000    2.82999992
   14.61694431  204.75399780    1.61000001    2.82999992
   14.62333393  204.75399780    1.53999996    2.82999992
   14.62722206  184.21499634    1.33000004    2.82999992
   14.63055611  187.40400696    1.25000000    2.84999990
   14.63277817  186.07099915    1.11000001    2.84999990
   14.63416672  203.59800720    1.11000001    2.84999990
   14.63749981  179.62699890    1.16999996    2.84999990
   14.64083290  195.87300110    1.16999996    2.84999990
   14.64388847  196.36399841    1.16999996    2.84999990
   14.64722252  181.52000427    1.19000006    2.84999990
   14.65055561  180.64999390    1.26999998    2.82999992
   14.65361118  193.66999817    1.19000006    2.84999990
   14.65694427  194.79499817    1.19000006    2.84999990
   14.66027737  200.32699585    1.30999994    2.82999992
   14.66611099  200.32699585    1.39999998    2.82999992
   14.67027855  192.28399658    1.38000000    2.84999990
   14.67333412  189.57200623    1.46000004    2.84999990
   14.67666721  205.08099365    1.48000002    2.82999992
   14.67972279  175.47799683    1.48000002    2.84999990
   14.68305588  194.20899963    1.50000000    2.82999992
   14.68638897  197.74099731    1.50000000    2.82999992
   14.68944454  197.70700073    1.58000004    2.82999992
   14.69277763  190.58000183    1.60000002    2.82999992
   14.69611073  182.22999573    1.60000002    2.82999992
   14.69916630  188.50900269    1.61000001    2.82999992
   14.70111084  187.81199646    1.58000004    2.82999992
   14.70305538  181.10200500    1.58000004    2.82999992
   14.70888901  181.10200500    1.55999994    2.82999992
   14.71305561  184.63999939    1.34000003    2.84999990
   14.71638870  192.52000427    1.33000004    2.84999990
   14.71944427  208.07499695    1.33000004    2.84999990
   14.72277737  200.50799561    1.33000004    2.84999990
   14.72583294  203.15600586    1.25000000    2.84999990
   14.72916603  197.09100342    1.14999998    2.84999990
   14.73249912  195.88600159    1.14999998    2.84999990
   14.73444462  217.57699585    1.14999998    2.84999990
   14.73611164  204.14999390    1.13000000    2.84999990
   14.73916721  182.99000549    1.41999996    2.84999990
   14.74250031  207.16700745    1.48000002    2.82999992
   14.74555588  206.72399902    1.36000001    2.84999990
   14.75166702  206.72399902    1.13000000    2.86999989
   14.75583363  212.94500732    1.16999996    2.84999990
   14.75916672  209.42599487    1.13000000    2.84999990
   14.76222229  204.57000732    1.11000001    2.84999990
   14.76555538  197.22700500    1.13000000    2.84999990
   14.76805496  217.05700684    1.13000000    2.84999990
   14.76916599  205.60400391    1.13000000    2.84999990
   14.77250004  226.98599243    1.13000000    2.84999990
   14.77583313  222.91299438    1.14999998    2.86999989
   14.77888870  214.23300171    1.09000003    2.84999990
   14.78222179  203.44299316    1.14999998    2.84999990
   14.78527832  207.32800293    1.28999996    2.84999990
   14.78861141  207.88600159    1.30999994    2.84999990
   14.79472256  207.88600159    1.39999998    2.84999990
   14.79861164  221.92799377    1.36000001    2.84999990
   14.80138874  215.64900208    1.36000001    2.84999990
   14.80222225  214.00399780    1.36000001    2.84999990
   14.80555534  207.55700684    1.25000000    2.84999990
   14.80888939  217.44500732    1.00000000    2.84999990
   14.81194496  207.84599304    0.98000002    2.84999990
   14.81527805  195.44599915    0.95999998    2.84999990
   14.81833363  200.27600098    0.86000001    2.86999989
   14.82166672  208.17700195    1.11000001    2.84999990
   14.82499981  222.77900696    1.13000000    2.84999990
   14.82805538  199.73500061    1.23000002    2.84999990
   14.83138847  193.28599548    1.19000006    2.84999990
   14.83749962  193.28599548    1.01999998    2.84999990
   14.84166622  210.38000488    0.88000000    2.86999989
   14.84472179  200.99200439    0.88000000    2.86999989
   14.84805489  213.21499634    0.86000001    2.84999990
   14.85111141  223.49400330    0.80000001    2.86999989
   14.85444450  203.58200073    0.83999997    2.86999989
   14.85777855  197.33000183    0.81999999    2.84999990
   14.86083412  202.74200439    0.89999998    2.84999990
   14.86416721  210.79800415    1.00000000    2.86999989
   14.86750031  196.30499268    1.00000000    2.86999989
   14.86833382  210.42700195    1.03999996    2.84999990
   14.87111092  190.18299866    1.03999996    2.84999990
   14.87416649  195.60800171    0.89999998    2.86999989
   14.88027763  195.60800171    0.79000002    2.86999989
   14.88444424  208.21000671    0.76999998    2.86999989
   14.88777733  201.60000610    0.76999998    2.84999990
   14.89083290  194.18699646    0.86000001    2.86999989
   14.89416695  194.36599731    0.64999998    2.86999989
   14.89722252  207.27499390    0.73000002    2.86999989
   14.90055561  195.00799561    0.75000000    2.86999989
   14.90166664  216.62699890    0.79000002    2.84999990
   14.90444374  205.33999634    0.81999999    2.86999989
   14.90749931  203.83299255    0.88000000    2.86999989
   14.91083336  197.49699402    1.00000000    2.84999990
   14.91388893  197.07000732    1.13000000    2.84999990
   14.91722298  194.17599487    1.19000006    2.84999990
   14.92305565  194.17599487    1.33000004    2.84999990
   14.92722225  192.95799255    1.26999998    2.84999990
   14.93055630  197.28999329    1.26999998    2.84999990
   14.93361092  194.40299988    1.28999996    2.84999990
   14.93527794  181.96099854    1.28999996    2.84999990
   14.93722248  183.33799744    1.44000006    2.82999992
   14.94055557  198.32800293    1.58000004    2.82999992
   14.94388866  192.66999817    1.60000002    2.82999992
   14.94694424  193.09899902    1.48000002    2.82999992
   14.95027733  180.13499451    1.51999998    2.82999992
   14.95333290  182.62500000    1.55999994    2.84999990
   14.95666695  183.04800415    1.55999994    2.84999990
   14.96000004  203.02000427    1.48000002    2.84999990
   14.96611118  203.02000427    1.30999994    2.84999990
   14.98444462  194.08999634    1.05999994    2.86999989
   14.98750019  199.25399780    1.21000004    2.84999990
   14.99083328  196.31900024    1.23000002    2.86999989
   14.99416733  194.35099792    1.19000006    2.86999989
   14.99722290  191.97799683    1.14999998    2.84999990
   15.00055599  189.43499756    1.14999998    2.84999990
   15.00361156  178.24200439    1.07000005    2.86999989
   15.00916672  178.24200439    1.13000000    2.84999990
   15.01333332  199.44000244    1.34000003    2.84999990
   15.01638889  184.69299316    1.36000001    2.84999990
   15.01749992  179.32000732    1.41999996    2.84999990
   15.01999950  190.32600403    1.41999996    2.84999990
   15.02333355  194.85699463    1.23000002    2.86999989
   15.02666664  191.61599731    0.98000002    2.84999990
   15.02972221  184.27400208    0.92000002    2.86999989
   15.03305531  172.85800171    0.92000002    2.86999989
   15.03638935  179.50700378    0.92000002    2.86999989
   15.03944492  182.16999817    0.86000001    2.86999989
   15.04277802  179.27000427    0.83999997    2.86999989
   15.04583359  184.61900330    0.83999997    2.86999989
   15.05194473  184.61900330    0.79000002    2.86999989
   15.05611134  178.00799561    1.01999998    2.86999989
   15.05916691  180.60299683    1.03999996    2.86999989
   15.06250000  178.69200134    1.03999996    2.86999989
   15.06583309  180.47599792    1.03999996    2.86999989
   15.06916618  177.10800171    1.03999996    2.84999990
   15.07222176  177.01600647    1.19000006    2.84999990
   15.07555580  172.67199707    1.19000006    2.84999990
   15.07861137  184.99400330    1.38000000    2.84999990
   15.08194447  185.57400513    1.30999994    2.86999989
   15.08416653  191.20799255    1.19000006    2.84999990
   15.08555508  173.89100647    1.19000006    2.84999990
   15.08888817  174.54699707    1.01999998    2.84999990
   15.09472179  174.54699707    0.98000002    2.86999989
   15.09888840  168.36500549    0.98000002    2.86999989
   15.10222244  178.07499695    0.98000002    2.84999990
   15.10527802  164.84399414    1.03999996    2.84999990
   15.10861111  167.96099854    1.03999996    2.84999990
   15.11194515  165.72000122    1.03999996    2.86999989
   15.11500072  172.34899902    1.01999998    2.84999990
   15.11750031  167.46800232    0.98000002    2.86999989
   15.11861134  166.96000671    0.89999998    2.86999989
   15.12194443  169.52299500    0.89999998    2.86999989
   15.12527752  168.33299255    0.86000001    2.86999989
   15.12833309  170.59599304    0.88000000    2.86999989
   15.13166714  174.62800598    0.95999998    2.86999989
   15.13749981  174.62800598    1.05999994    2.86999989
   15.14166641  160.87500000    1.01999998    2.86999989
   15.14499950  178.91000366    1.03999996    2.84999990
   15.14805508  173.61700439    1.01999998    2.84999990
   15.15083313  168.93400574    1.01999998    2.86999989
   15.15166664  167.34700012    0.98000002    2.86999989
   15.15499973  172.59800720    0.94000000    2.86999989
   15.15833282  164.78700256    0.94000000    2.86999989
   15.16138840  167.26600647    0.83999997    2.86999989
   15.16472149  165.04699707    0.86000001    2.86999989
   15.16805553  165.75100708    0.88000000    2.86999989
   15.17111111  163.58000183    1.01999998    2.86999989
   15.17444515  162.31399536    1.00000000    2.84999990
   15.18055630  162.31399536    1.01999998    2.86999989
   15.18444443  164.40499878    1.07000005    2.86999989
   15.18777752  169.05999756    1.07000005    2.86999989
   15.19111156  151.71899414    1.07000005    2.86999989
   15.19416714  170.58299255    1.07000005    2.84999990
   15.19750023  161.41499329    1.13000000    2.86999989
   15.20083332  167.60699463    1.13000000    2.86999989
   15.20388889  158.72300720    1.21000004    2.84999990
   15.20722198  163.56799316    1.25000000    2.86999989
   15.21027756  164.57699585    1.25000000    2.86999989
   15.21361065  164.75700378    1.19000006    2.86999989
   15.21694374  158.86099243    1.25000000    2.84999990
   15.21749973  167.30299377    1.25000000    2.84999990
   15.22333336  167.30299377    1.30999994    2.84999990
   15.22749996  156.64300537    1.53999996    2.84999990
   15.23055553  166.50500488    1.53999996    2.84999990
   15.23388958  166.05299377    1.55999994    2.84999990
   15.23722267  162.84300232    1.55999994    2.84999990
   15.24027824  163.80499268    1.28999996    2.86999989
   15.24361134  157.83000183    1.34000003    2.84999990
   15.24694443  154.86799622    1.38000000    2.86999989
   15.25000000  159.77299500    1.38000000    2.86999989
   15.25083351  159.33900452    1.38000000    2.86999989
   15.25388908  158.74000549    1.34000003    2.84999990
   15.25694466  157.84199524    1.33000004    2.84999990
   15.26027775  154.33099365    1.33000004    2.84999990
   15.26611137  154.33099365    1.46000004    2.84999990
   15.27027798  155.21499634    1.50000000    2.84999990
   15.27361107  161.28799438    1.48000002    2.86999989
   15.27666664  149.71299744    0.98000002    2.86999989
   15.27999973  152.20700073    0.98000002    2.86999989
   15.28305531  153.13099670    0.69000000    2.89000010
   15.28416729  153.63400269    0.76999998    2.89000010
   15.28666687  149.68400574    0.76999998    2.86999989
   15.29000092  151.95599365    0.76999998    2.86999989
   15.29333401  152.19400024    0.76999998    2.86999989
   15.29638958  152.26199341    1.00000000    2.86999989
   15.29972267  158.57600403    0.98000002    2.86999989
   15.30305576  156.91299438    1.36000001    2.86999989
   15.40527725   -1.00000000   -1.00000000   -1.00000000
   15.50249958   -1.00000000   -1.00000000   -1.00000000
   15.60166740   -1.00000000   -1.00000000   -1.00000000
   15.63416672  203.71400452    4.90999985    2.61999989
   15.63749981  187.47000122    4.90999985    2.84999990
   15.64055538  232.67300415    4.90999985    2.69000006
   15.64388847  235.54100037    4.90999985    2.50000000
   15.64722252  187.52799988    4.90999985    2.50000000
   15.65027714  241.18699646    4.90999985    2.69000006
   15.65444374  241.18699646    4.90999985    2.69000006
   15.65861034  223.94099426    4.90999985    2.28999996
   15.66194439  199.03100586    4.90999985    2.55999994
   15.66499996  186.81199646    4.90999985    2.59999990
   15.66750050  239.97300720    4.90999985    2.67000008
   15.66861153  221.53799438    4.90999985    2.57999992
   15.67194462  186.29600525    4.90999985    2.55999994
   15.67527771  256.40499878    4.90999985    2.66000009
   15.67833328  188.42900085    4.90999985    2.50000000
   15.68166733  173.96600342    4.90999985    2.73000002
   15.68472195  180.48100281    4.90999985    2.82999992
   15.68805599  186.71099854    4.90999985    2.76999998
   15.69138908  170.25999451    4.90999985    2.69000006
   15.69722271  170.25999451    4.90999985    2.76999998
   15.70138836  226.69700623    4.90999985    2.64000010
   15.70472240  197.77900696    4.90999985    2.44000006
   15.70805550  185.79800415    4.90999985    2.64000010
   15.71111107  217.74000549    4.90999985    2.67000008
   15.71444416  182.78399658    4.90999985    2.55999994
   15.71749973  177.36999512    4.90999985    2.67000008
   15.72083282  179.35299683    4.90999985    2.73000002
   15.72416592  207.67700195    4.90999985    2.69000006
   15.72722149  269.75100708    4.90999985    2.57999992
   15.73055553  317.29400635    4.90999985    2.46000004
   15.73388958  204.95199585    4.90999985    2.36999989
   15.73416710  240.66200256    4.90999985    2.53999996
   15.74027824  240.66200256    4.90999985    2.53999996
   15.74416733  208.42700195    4.90999985    2.59999990
   15.74750042  205.88699341    4.90999985    2.64000010
   15.75083351  249.24000549    4.90999985    2.46000004
   15.75388908  308.57400513    4.90999985    2.28999996
   15.75722218  201.80599976    4.90999985    2.39000010
   15.76055527  318.67498779    4.90999985    2.21000004
   15.76361084  390.74798584    4.90999985    2.11999989
   15.76694393  316.01000977    4.90999985    2.15000010
   15.76777744  387.33499146    4.90999985    2.21000004
   15.77055550  295.82199097    4.90999985    2.39000010
   15.77388859  321.44000244    4.90999985    2.23000002
   15.77694416  246.58099365    4.90999985    2.26999998
   15.78305531  246.58099365    4.90999985    2.34999990
   15.78722286  335.21200562    4.90999985    2.01999998
   15.79027843  235.79299927    4.90999985    2.30999994
   15.79361153  314.86700439    4.90999985    2.46000004
   15.79694462  142.33299255    4.90999985    2.09999990
   15.80000019  116.16999817    4.90999985    1.96000004
   15.80083370  144.98699951    4.90999985    1.94000006
   15.80361176   -1.00000000    4.90999985    2.03999996
   15.80694485  254.08299255    4.90999985    1.98000002
   15.81000042   88.19010162    4.90999985    2.36999989
   15.81333351   -1.00000000    4.90999985    1.91999996
   15.81666660   -1.00000000    4.90999985    2.09999990
   15.81972218  266.05899048    4.90999985    2.03999996
   15.82999992  213.08399963    4.90999985    2.13000011
   15.83305550  223.33700562    4.90999985    2.50000000
   15.83444405  200.75799561    4.90999985    2.69000006
   15.83666611  225.56300354    4.90999985    2.64000010
   15.84000015  203.99899292    4.90999985    2.78999996
   15.84305477  191.10800171    4.90999985    2.71000004
   15.84638882  159.20199585    4.90999985    2.71000004
   15.84972191  154.39900208    4.90999985    2.76999998
   15.85277843  148.10899353    4.71999979    2.86999989
   15.85611153  156.86099243    4.03999996    2.84999990
   15.85944462  150.97999573    4.90999985    2.84999990
   15.86250019  150.03300476    1.98000002    2.86999989
   15.86861134  150.03300476    1.66999996    2.89000010
   15.87277794  147.24699402    1.69000006    2.89000010
   15.87611103  149.69999695    1.61000001    2.89000010
   15.87944412  149.15199280    1.53999996    2.86999989
   15.88249969  153.97399902    1.53999996    2.89000010
   15.88583279  149.67100525    2.01999998    2.89000010
   15.88888836  143.69999695    3.75000000    2.89000010
   15.89222240  160.57899475    4.28999996    2.89000010
   15.89555550  164.97300720    4.90999985    2.76999998
   15.89861107  173.29499817    4.90999985    2.66000009
   15.90111065  170.88000488    4.90999985    2.64000010
   15.90222168  161.80099487    4.90999985    2.61999989
   15.90555477  163.92599487    4.90999985    2.71000004
   15.91166592  163.92599487    4.90999985    2.75000000
   15.91583252  152.46000671    4.90999985    2.84999990
   15.91888905  145.85899353    2.61999989    2.89000010
   15.92222214  153.33299255    1.16999996    2.89000010
   15.92527771  154.69700623    1.00000000    2.91000009
   15.92861176  151.61300659    1.01999998    2.89000010
   15.93194485  141.19000244    1.28999996    2.89000010
   15.93444443  149.83299255    4.42999983    2.84999990
   15.93555546  163.03599548    4.42999983    2.84999990
   15.93888855  159.42500305    4.90999985    2.75000000
   15.94194412  172.81599426    4.90999985    2.59999990
   15.94527817  160.60899353    4.90999985    2.71000004
   15.94861126  168.45300293    4.90999985    2.75000000
   15.95444393  168.45300293    4.90999985    2.48000002
   15.95861053  192.11700439    4.90999985    2.59999990
   15.96166611  192.00900269    4.90999985    2.76999998
   15.96500015  209.02900696    4.90999985    2.69000006
   15.96777725  207.59899902    4.90999985    2.53999996
   15.96861076  182.42100525    4.90999985    2.50000000
   15.97194386  153.06500244    4.90999985    2.75000000
   15.97499943  165.99200439    4.90999985    2.66000009
   15.97833252  167.59500122    4.90999985    2.80999994
   15.98166656  163.58599854    4.90999985    2.69000006
   15.98472214  158.76699829    4.90999985    2.69000006
   15.98805618  162.31500244    4.90999985    2.71000004
   15.99138927  167.69299316    4.90999985    2.78999996
   15.99722290  167.69299316    4.90999985    2.67000008
   16.00138855  186.95899963    4.90999985    2.76999998
   16.00472260  177.15199280    4.90999985    2.69000006
   16.00777817  169.97999573    4.90999985    2.67000008
   16.01111031  159.03100586    4.90999985    2.73000002
   16.01416588  176.64799500    4.90999985    2.71000004
   16.01749992  166.31900024    4.90999985    2.71000004
   16.02083397  197.62500000    4.90999985    2.61999989
   16.02388954  210.69000244    4.90999985    2.46000004
   16.02722168  204.12899780    4.90999985    2.55999994
   16.03055573  181.50700378    4.90999985    2.30999994
   16.03361130  198.11900330    4.90999985    2.75000000
   16.03444481  200.43600464    4.90999985    2.75000000
   16.03999901  200.43600464    4.90999985    2.28999996
   16.04416656  183.52900696    4.90999985    2.51999998
   16.04749870  168.29400635    4.90999985    2.69000006
   16.05055428  148.05200195    4.90999985    2.76999998
   16.05388832  144.02799988    4.90999985    2.80999994
   16.05722237  163.44299316    4.90999985    2.66000009
   16.06027794  168.03999329    4.65999985    2.80999994
   16.06361008  160.99600220    4.90999985    2.78999996
   16.06694603  162.69500732    4.76000023    2.84999990
   16.06777954  182.36399841    4.17999983    2.86999989
   16.07027817  175.25199890    3.80999994    2.80999994
   16.07361221  170.11799622    3.64000010    2.82999992
   16.07694626  156.37399292    3.28999996    2.86999989
   16.08305550  156.37399292    3.32999992    2.80999994
   16.08694458  151.19400024    1.91999996    2.91000009
   16.09027863  155.62600708    1.05999994    2.91000009
   16.09361267  160.13600159    1.07000005    2.89000010
   16.09666824  161.91799927    1.86000001    2.89000010
   16.10000038  151.45799255    1.60000002    2.89000010
   16.10111237  150.13200378    1.46000004    2.89000010
   16.10361099  154.15899658    1.23000002    2.89000010
   16.10694504  148.58900452    1.23000002    2.89000010
   16.11027908  146.01400757    1.13000000    2.89000010
   16.11333466  152.21600342    0.75000000    2.91000009
   16.11666679  155.47599792    1.39999998    2.89000010
   16.11972237  161.90100098    2.28999996    2.86999989
   16.12583351  161.90100098    1.44000006    2.91000009
   16.13000107  161.99800110    0.69000000    2.91000009
   16.13305473  133.51499939    0.95999998    2.91000009
   16.13444519  144.74200439    1.05999994    2.91000009
   16.13666725  146.77900696    0.81999999    2.91000009
   16.13999939  150.11000061    0.40000001    2.91000009
   16.14333344  156.37199402    0.34000000    2.91000009
   16.14638901  158.77200317    0.41999999    2.91000009
   16.14972115  151.92799377    0.46000001    2.91000009
   16.15277672  146.59399414    0.52999997    2.91000009
   16.15611076  164.63099670    0.73000002    2.91000009
   16.15944481  168.27400208    3.25000000    2.89000010
   16.16250038  262.79699707    4.90999985    2.71000004
   16.16860962  262.79699707    4.90999985    2.39000010
   16.17277718  125.49199677    4.90999985    2.05999994
   16.17611122  273.09500122    4.90999985    2.13000011
   16.17916679  234.89399719    4.90999985    2.40000010
   16.18249893  352.30801392    4.90999985    2.25000000
   16.18555450  177.28300476    4.90999985    2.05999994
   16.18888855  230.39199829    4.90999985    2.07999992
   16.19222069  199.49600220    4.90999985    2.50000000
   16.19527626  164.18200684    4.90999985    2.67000008
   16.19861031  178.66999817    4.90999985    2.73000002
   16.20111275  191.13600159    4.90999985    2.75000000
   16.20222282  179.82699585    4.90999985    2.61999989
   16.20555687  168.45100403    4.90999985    2.78999996
   16.21138954  168.45100403    4.90999985    2.73000002
   16.21555710  179.60099792    4.90999985    2.69000006
   16.21888924  164.50000000    4.90999985    2.82999992
   16.22194481  163.99000549    4.90999985    2.86999989
   16.22527885  160.42799377    4.86999989    2.80999994
   16.22861099  159.36099243    3.91000009    2.86999989
   16.23194504  163.52600098    3.01999998    2.91000009
   16.23444557  171.10299683    4.53999996    2.89000010
   16.23527718  163.92700195    4.48999977    2.91000009
   16.23861122  171.09300232    4.90999985    2.75000000
   16.24194527  174.06599426    4.90999985    2.78999996
   16.24500084  201.31199646    4.90999985    2.69000006
   16.24833298  244.90699768    4.90999985    2.51999998
   16.25444412  244.90699768    4.90999985    2.84999990
   16.25833321  161.62399292    4.90999985    2.89000010
   16.26166725  163.50500488    2.69000006    2.91000009
   16.26499939  164.40899658    1.78999996    2.91000009
   16.26777840  175.39100647    3.21000004    2.89000010
   16.26833344  159.17700195    3.03999996    2.82999992
   16.27166557  175.13600159    3.84999990    2.86999989
   16.27499962  162.75599670    4.23999977    2.82999992
   16.27805519  129.03799438    3.70000005    2.89000010
   16.28138924  161.17999268    4.90999985    2.71000004
   16.28444481  151.83399963    3.93000007    2.89000010
   16.28777695  153.92500305    3.84999990    2.89000010
   16.29111099  152.45700073    4.90999985    2.80999994
   16.29722214  152.45700073    4.90999985    2.67000008
   16.30138779  159.13999939    4.90999985    2.89000010
   16.30444336  184.43800354    4.90999985    2.80999994
   16.30777740  170.33599854    4.90999985    2.76999998
   16.31110954  172.03999329    4.90999985    2.86999989
   16.31416512  166.30200195    3.89000010    2.86999989
   16.31750107  166.64999390    4.61999989    2.69000006
   16.32083511  171.58399963    4.90999985    2.86999989
   16.32389069  175.83500671    4.90999985    2.80999994
   16.32722282  256.82101440    4.90999985    2.66000009
   16.33055687  248.05599976    4.90999985    2.46000004
   16.33361244  220.40800476    4.90999985    2.28999996
   16.33444595  209.97200012    4.90999985    2.28999996
   16.34000015  209.97200012    4.90999985    2.59999990
   16.34416771  208.36000061    4.90999985    2.26999998
   16.34749985  202.08900452    4.90999985    2.67000008
   16.35055542  185.67300415    4.90999985    2.50000000
   16.35388947  168.17199707    4.90999985    2.78999996
   16.35722351  178.85400391    4.90999985    2.61999989
   16.36027908  173.27000427    4.90999985    2.66000009
   16.36361122  175.20599365    4.90999985    2.69000006
   16.36666679  177.86199951    4.90999985    2.73000002
   16.36777878  179.25999451    4.90999985    2.75000000
   16.37027740  187.14500427    4.90999985    2.80999994
   16.37361145  162.93200684    4.90999985    2.78999996
   16.37694550  160.57699585    2.28999996    2.91000009
   16.38277817  160.57699585    0.67000002    2.91000009
   16.38694382  171.61599731    0.64999998    2.89000010
   16.39027786  177.85499573    0.73000002    2.91000009
   16.39333344  164.98599243    0.61000001    2.91000009
   16.39666748  168.90400696    0.73000002    2.91000009
   16.39999962  165.29699707    0.70999998    2.91000009
   16.40111160  171.06300354    0.73000002    2.89000010
   16.40333366  185.63800049    1.03999996    2.89000010
   16.40666580  168.09599304    1.94000006    2.89000010
   16.40999985  181.21800232    2.15000010    2.89000010
   16.41305542  166.71000671    4.90999985    2.78999996
   16.41638756  189.27799988    4.90999985    2.86999989
   16.41972160  208.94200134    4.90999985    2.64000010
   16.42583275  208.94200134    4.90999985    2.69000006
   16.42972183  411.27200317    4.90999985    2.73000002
   16.43194389  411.07299805    4.90999985    2.32999992
   16.43305397  262.15899658    4.90999985    2.30999994
   16.43333244  168.09599304    1.94000006    2.89000010
   16.43333244  181.21800232    2.15000010    2.89000010
   16.43333244  166.71000671    4.90999985    2.78999996
   16.43361092  189.27799988    4.90999985    2.86999989
   16.43361092  208.94200134    4.90999985    2.64000010
   16.43361092  411.27200317    4.90999985    2.73000002
   16.43388748  168.90400696    0.73000002    2.91000009
   16.43388748  165.29699707    0.70999998    2.91000009
   16.43388748  185.63800049    1.03999996    2.89000010
   16.43527603  374.27801514    4.90999985    2.51999998
   16.43833160  219.56700134    4.90999985    2.64000010
   16.44166565  291.41299438    4.90999985    2.89000010
   16.44472122  286.91799927    4.90999985    2.59999990
   16.44805527  217.01300049    4.90999985    2.73000002
   16.45388985  217.01300049    4.90999985    2.44000006
   16.45805550  257.10000610    4.90999985    2.75000000
   16.46138954  203.84500122    4.90999985    2.75000000
   16.46472359  231.43499756    3.89000010    2.84999990
   16.46694565  238.18099976    2.71000004    2.89000010
   16.46833420  246.71800232    2.78999996    2.89000010
   16.47166634  199.71699524    2.59999990    2.86999989
   16.47472191  219.67300415    1.69000006    2.91000009
   16.47805595  232.81300354    1.75000000    2.91000009
   16.48139000  267.24398804    2.26999998    2.89000010
   16.48444557  271.83499146    2.51999998    2.86999989
   16.48777771  247.51100159    2.05999994    2.89000010
   16.49083328  251.96299744    1.85000002    2.91000009
   16.49694443  251.96299744    1.11000001    2.89000010
   16.50083351  200.90899658    1.53999996    2.89000010
   16.50416756  200.60299683    2.15000010    2.89000010
   16.50749969  298.19601440    1.55999994    2.89000010
   16.51055527  207.26600647    1.71000004    2.86999989
   16.51388931  196.41799927    1.89999998    2.91000009
   16.51722145  211.57600403    1.89999998    2.91000009
   16.52027702  298.79501343    1.11000001    2.91000009
   16.52361107  293.46398926    1.11000001    2.91000009
   16.52666664  225.16200256    1.11000001    2.91000009
   16.53000069  261.91299438    0.95999998    2.89000010
   16.53333282  304.12399292    3.91000009    2.89000010
   16.53388786  318.58099365    4.90999985    2.80999994
   16.53972244  318.58099365    3.75000000    2.89000010
   16.54388809  245.52900696    1.21000004    2.89000010
   16.54694366  335.58999634    1.64999998    2.89000010
   16.55027771  274.79400635    1.19000006    2.89000010
   16.55360985  295.38900757    1.07000005    2.91000009
   16.55666542  304.20300293    1.23000002    2.91000009
   16.55999947  288.58700562    1.41999996    2.91000009
   16.56305504  282.72799683    2.00000000    2.86999989
   16.56638718  259.11898804    1.89999998    2.89000010
   16.56722260  269.80899048    1.89999998    2.89000010
   16.57000160  287.53601074    1.00000000    2.89000010
   16.57333374  262.40200806    2.09999990    2.86999989
   16.57666779  249.94200134    1.83000004    2.89000010
   16.58250046  249.94200134    3.14000010    2.84999990
   16.58666801  307.90798950    3.86999989    2.76999998
   16.59000015  299.42700195    4.59999990    2.84999990
   16.59305573  277.25799561    1.71000004    2.91000009
   16.59638977  270.44500732    0.86000001    2.89000010
   16.59944534  243.70100403    0.92000002    2.89000010
   16.60055542  279.34799194    0.92000002    2.89000010
   16.60305595  288.17999268    0.92000002    2.89000010
   16.60639000  287.64700317    1.86000001    2.89000010
   16.60972214  285.06500244    1.86000001    2.89000010
   16.61277771  231.25000000    0.52999997    2.91000009
   16.61611176  244.71499634    0.80000001    2.91000009
   16.61916733  209.15600586    1.30999994    2.91000009
   16.62527847  209.15600586    1.34000003    2.91000009
   16.62944412  272.35101318    0.83999997    2.91000009
   16.63277817  260.52600098    0.63000000    2.91000009
   16.63388824  288.12298584    1.03999996    2.91000009
   16.65277672  273.25201416    0.36000001    2.91000009
   16.65611076  273.43798828    0.34000000    2.91000009
   16.65916634  272.50900269    0.30000001    2.91000009
   16.66250038  268.55899048    0.31999999    2.91000009
   16.66833305  268.55899048    0.34000000    2.91000009
   16.67249870  250.59100342    0.34000000    2.91000009
   16.67583275  270.06298828    0.38000000    2.91000009
   16.67888832  255.71099854    1.33000004    2.89000010
   16.68222237  198.98100281    1.01999998    2.91000009
   16.68527603  245.98300171    0.75000000    2.91000009
   16.68861008  268.13699341    0.76999998    2.89000010
   16.69194412  211.05299377    0.81999999    2.89000010
   16.69499969  229.62500000    1.03999996    2.86999989
   16.69833183  243.74800110    1.50000000    2.89000010
   16.70055580  253.13800049    1.50000000    2.89000010
   16.70194435  216.01600647    0.95999998    2.91000009
   16.70527840  253.87500000    0.81999999    2.89000010
   16.71111107  253.87500000    0.76999998    2.91000009
   16.71527863  263.17599487    0.55000001    2.89000010
   16.71861076  273.55700684    1.98000002    2.91000009
   16.72166634  260.75500488    0.64999998    2.91000009
   16.72500038  277.52801514    0.58999997    2.91000009
   16.72833443  277.13699341    0.55000001    2.91000009
   16.73139000  259.74200439    0.76999998    2.91000009
   16.73388863  266.88900757    0.41999999    2.91000009
   16.73500061  260.03500366    0.41999999    2.91000009
   16.73833275  256.44000244    0.34000000    2.89000010
   16.74166679  180.60699463    0.36000001    2.89000010
   16.74472237  268.53500366    0.36000001    2.91000009
   16.74805641  265.03100586    0.40000001    2.91000009
   16.75416756  265.03100586    0.40000001    2.91000009
   16.75805473  248.73899841    0.44000000    2.91000009
   16.76138878  260.78100586    0.44000000    2.91000009
   16.76472282  261.79098511    0.51999998    2.91000009
   16.76722145  262.54000854    0.52999997    2.91000009
   16.76805496  264.46600342    0.52999997    2.91000009
   16.77138901  253.55000305    1.44000006    2.89000010
   16.77472115  247.55499268    1.16999996    2.91000009
   16.77777672  238.40800476    0.50000000    2.91000009
   16.78111076  257.09298706    0.50000000    2.91000009
   16.78444481  259.43200684    0.50000000    2.91000009
   16.78750038  247.74200439    1.00000000    2.89000010
   16.79083252  223.86199951    0.79000002    2.91000009
   16.79694366  223.86199951    0.44000000    2.91000009
   16.80111122  256.91400146    0.76999998    2.89000010
   16.80416679  245.09399414    0.44000000    2.91000009
   16.80749893  249.26600647    0.40000001    2.91000009
   16.81083298  193.51699829    0.41999999    2.91000009
   16.81388855  258.33999634    0.41999999    2.91000009
   16.81722260  255.19799805    0.40000001    2.91000009
   16.82027817  256.59500122    0.38000000    2.91000009
   16.82361221  264.41500854    0.38000000    2.91000009
   16.82694626  252.64100647    0.40000001    2.91000009
   16.83000183  251.73100281    0.40000001    2.91000009
   16.83333397  222.14199829    0.47999999    2.91000009
   16.83388901  207.44099426    0.47999999    2.91000009
   16.83972359  207.44099426    0.50000000    2.91000009
   16.84388924  246.47000122    0.40000001    2.91000009
   16.84722328  221.64900208    0.44000000    2.91000009
   16.85027885  239.53799438    0.44000000    2.91000009
   16.85361099  239.49200439    0.38000000    2.91000009
   16.85666656  250.48699951    0.40000001    2.91000009
   16.86000061  247.77900696    0.41999999    2.91000009
   16.86333466  246.92500305    0.44000000    2.91000009
   16.86638832  244.06700134    0.40000001    2.91000009
   16.86722183  260.28100586    0.40000001    2.91000009
   16.87027740  244.29899597    0.40000001    2.91000009
   16.87333298  251.71899414    0.38000000    2.91000009
   16.87666702  252.10699463    0.40000001    2.91000009
   16.88249969  252.10699463    0.40000001    2.91000009
   16.88666725  245.80099487    0.41999999    2.91000009
   16.88999939  256.49600220    0.41999999    2.91000009
   16.89305496  252.18400574    0.41999999    2.91000009
   16.89638901  253.50199890    0.50000000    2.89000010
   16.89972115  252.52000427    0.52999997    2.91000009
   16.90055466  250.81199646    0.52999997    2.91000009
   16.90333366  238.55200195    0.56999999    2.91000009
   16.90638924  238.34100342    0.52999997    2.89000010
   16.90972137  234.92599487    0.55000001    2.91000009
   16.91277695  244.53399658    0.55000001    2.91000009
   16.91611099  222.49099731    0.56999999    2.91000009
   16.91944313  232.06399536    0.95999998    2.91000009
   16.92527771  232.06399536    2.07999992    2.84999990
   16.92944336  226.26800537    0.92000002    2.91000009
   16.93277740  168.12899780    0.47999999    2.89000010
   16.93388748  209.35400391    0.47999999    2.89000010
   16.93666649  227.68499756    0.50000000    2.91000009
   16.93999863  211.51100159    0.50000000    2.91000009
   16.94305420  250.30599976    0.55000001    2.89000010
   16.94638824  230.56399536    1.16999996    2.89000010
   16.94972038  192.63999939    1.13000000    2.91000009
   16.95277786  194.43200684    0.75000000    2.91000009
   16.95611191  215.98800659    0.81999999    2.91000009
   16.95944595  206.56599426    1.05999994    2.89000010
   16.96250153  218.08900452    0.86000001    2.89000010
   16.96833420  218.08900452    0.52999997    2.89000010
   16.97249985  218.44999695    0.47999999    2.89000010
   16.97555542  234.60099792    0.63000000    2.89000010
   16.97888947  243.31300354    0.80000001    2.89000010
   16.98194504  233.14999390    4.90999985    2.86999989
   16.98527718  230.09800720    2.28999996    2.91000009
   16.98861122  218.43899536    0.80000001    2.91000009
   16.99166679  212.52600098    0.86000001    2.89000010
   16.99500084  227.71299744    1.34000003    2.89000010
   16.99833298  213.09599304    3.14000010    2.91000009
   17.00055504  209.03999329    1.88000000    2.89000010
   17.00194359  227.45500183    1.66999996    2.91000009
   17.00499916  218.86999512    1.05999994    2.89000010
   17.01111031  218.86999512    0.83999997    2.89000010
   17.01527786  216.36599731    3.03999996    2.91000009
   17.01833344  223.24000549    1.78999996    2.89000010
   17.02166557  209.96899414    2.23000002    2.91000009
   17.02499962  219.17999268    4.90999985    2.80999994
   17.02805519  229.83900452    4.55999994    2.86999989
   17.03138924  218.19900513    4.61999989    2.84999990
   17.03388786  207.00799561    2.84999990    2.84999990
   17.03499985  205.06199646    1.44000006    2.89000010
   17.03805542  217.31399536    0.56999999    2.91000009
   17.04138756  213.07800293    0.70999998    2.89000010
   17.04444313  205.89999390    0.70999998    2.91000009
   17.04777718  189.48899841    0.94000000    2.89000010
   17.05388832  189.48899841    0.92000002    2.91000009
   17.05805397  210.56900024    0.92000002    2.91000009
   17.06138802  214.16200256    0.98000002    2.89000010
   17.06444359  206.24200439    1.16999996    2.89000010
   17.06722260  229.92100525    0.81999999    2.89000010
   17.06833458  226.75199890    0.83999997    2.89000010
   17.07139015  212.89500427    0.86000001    2.93000007
   17.07472229  208.97200012    0.86000001    2.93000007
   17.07805634  212.42500305    0.81999999    2.91000009
   17.08111191  217.26800537    0.75000000    2.91000009
   17.08444595  222.37699890    0.79000002    2.91000009
   17.08750153  214.65100098    0.80000001    2.91000009
   17.09111214  238.61300659    0.80000001    2.91000009
   17.09694481  238.61300659    0.52999997    2.89000010
   17.10083389  219.61300659    0.51999998    2.91000009
   17.10416794  224.05599976    0.51999998    2.91000009
   17.10750008  208.52799988    0.50000000    2.91000009
   17.11055565  208.06199646    0.51999998    2.89000010
   17.11388969  206.19599915    0.73000002    2.91000009
   17.11722183  194.50199890    0.79000002    2.89000010
   17.12027740  209.28300476    0.79000002    2.89000010
   17.12361145  219.55799866    0.92000002    2.89000010
   17.12666702  222.29699707    0.79000002    2.91000009
   17.13000107  213.77600098    4.90999985    2.86999989
   17.13333321  188.95199585    4.88999987    2.80999994
   17.13388824  195.80000305    4.00000000    2.86999989
   17.13972282  195.80000305    0.83999997    2.93000007
   17.14388847  171.44400024    1.58000004    2.86999989
   17.14694405  180.25799561    1.39999998    2.89000010
   17.15027809  206.89500427    0.92000002    2.89000010
   17.15333366  191.55000305    0.69000000    2.91000009
   17.15666580  180.27999878    0.58999997    2.89000010
   17.15999985  171.38999939    0.56999999    2.91000009
   17.16305542  175.16999817    0.56999999    2.91000009
   17.16638756  188.14399719    0.56999999    2.89000010
   17.16722107  182.85299683    0.61000001    2.91000009
   17.17000008  167.25300598    0.61000001    2.91000009
   17.17305565  183.42999268    0.58999997    2.89000010
   17.17638779  177.39700317    0.70999998    2.89000010
   17.18249893  177.39700317    0.67000002    2.89000010
   17.18666649  187.99600220    0.69000000    2.89000010
   17.18999863  192.32000732    0.69000000    2.89000010
   17.19305420  180.44500732    0.55000001    2.91000009
   17.19638824  192.00500488    0.52999997    2.91000009
   17.19944382  197.09300232    0.55000001    2.89000010
   17.20055580  189.89599609    0.56999999    2.91000009
   17.20333481  195.63299561    0.56999999    2.91000009
   17.20639038  188.12300110    0.55000001    2.91000009
   17.20972252  187.68200684    0.61000001    2.89000010
   17.21305656  212.87100220    0.61000001    2.89000010
   17.21611214  201.91099548    0.64999998    2.89000010
   17.21944427  216.58500671    0.69000000    2.89000010
   17.22527885  216.58500671    0.75000000    2.89000010
   17.22944450  205.10899353    0.69000000    2.89000010
   17.23277855  175.38900757    0.73000002    2.89000010
   17.23388863  169.25700378    0.73000002    2.89000010
   17.23638916  194.72099304    0.73000002    2.89000010
   17.23944473  202.70700073    0.81999999    2.89000010
   17.24277878  205.17900085    0.83999997    2.89000010
   17.24611092  194.04600525    0.81999999    2.89000010
   17.24916649  187.80400085    0.81999999    2.89000010
   17.25250053  199.55999756    0.75000000    2.89000010
   17.25555611  197.27900696    0.76999998    2.89000010
   17.25888824  204.38699341    0.76999998    2.89000010
   17.26222229  202.61599731    0.75000000    2.89000010
   17.26805496  202.61599731    0.70999998    2.89000010
   17.27222252  198.52400208    0.73000002    2.89000010
   17.27555466  183.88800049    0.73000002    2.89000010
   17.27888870  180.84700012    0.69000000    2.91000009
   17.28194427  168.33700562    0.67000002    2.91000009
   17.28527641  192.20100403    0.63000000    2.91000009
   17.28833199  182.24899292    0.63000000    2.91000009
   17.29166603  191.89999390    0.63000000    2.91000009
   17.29500008  192.59300232    0.63000000    2.91000009
   17.29805565  197.30599976    0.61000001    2.89000010
   17.30055428  199.84399414    0.63000000    2.89000010
   17.30194283  205.62899780    0.63000000    2.89000010
   17.30499840  193.50599670    0.61000001    2.89000010
   17.31110954  193.50599670    0.61000001    2.89000010
   17.31527710  202.63999939    0.63000000    2.89000010
   17.31833458  187.21899414    0.58999997    2.89000010
   17.32166672  191.32299805    0.58999997    2.89000010
   17.32472229  207.40499878    0.56999999    2.89000010
   17.32805634  184.08700562    0.55000001    2.89000010
   17.33139038  190.02200317    0.56999999    2.91000009
   17.33388901  205.62199402    0.58999997    2.89000010
   17.33500099  196.66700745    0.58999997    2.89000010
   17.33805656  196.04200745    0.56999999    2.91000009
   17.34138870  193.35000610    0.58999997    2.89000010
   17.34472275  185.70500183    0.58999997    2.89000010
   17.34777832  180.83000183    0.61000001    2.91000009
   17.35388947  180.83000183    0.63000000    2.91000009
   17.35805511  183.12800598    0.58999997    2.91000009
   17.36111069  170.09700012    0.58999997    2.89000010
   17.36444473  176.66099548    0.61000001    2.89000010
   17.36722183  170.86300659    0.61000001    2.89000010
   17.36805534  173.07699585    0.61000001    2.89000010
   17.37111092  182.23500061    0.64999998    2.91000009
   17.37444496  179.33799744    0.67000002    2.91000009
   17.37777710  197.95700073    0.67000002    2.91000009
   17.38083267  189.42999268    0.69000000    2.91000009
   17.38416672  168.92999268    0.69000000    2.89000010
   17.38722229  186.03900146    0.76999998    2.89000010
   17.39055634  204.87300110    0.76999998    2.89000010
   17.39666748  204.87300110    0.83999997    2.89000010
   17.40083313  186.95199585    0.89999998    2.89000010
   17.40416718  184.33299255    0.89999998    2.89000010
   17.40722275  184.73899841    0.81999999    2.91000009
   17.41055489  165.80099487    0.86000001    2.89000010
   17.41388893  178.51899719    0.81999999    2.89000010
   17.41694450  176.24499512    0.86000001    2.89000010
   17.42027664  171.61700439    0.86000001    2.89000010
   17.42361069  173.93200684    0.81999999    2.89000010
   17.42666626  173.97599792    0.81999999    2.89000010
   17.43000031  170.69099426    0.81999999    2.89000010
   17.43305397  172.97799683    0.75000000    2.89000010
   17.43388748  164.01400757    0.73000002    2.89000010
   17.43944359  164.01400757    0.73000002    2.89000010
   17.44361115  160.52799988    0.73000002    2.89000010
   17.44694328  157.08900452    0.67000002    2.91000009
   17.45027924  147.92599487    0.67000002    2.91000009
   17.45333481  165.84599304    0.67000002    2.89000010
   17.45666695  169.20599365    0.70999998    2.89000010
   17.46000099  157.15100098    0.70999998    2.89000010
   17.46305656  167.85200500    0.73000002    2.89000010
   17.46638870  165.22700500    0.73000002    2.91000009
   17.46722221  163.60600281    0.73000002    2.91000009
   17.47000122  142.60499573    0.70999998    2.89000010
   17.47333336  140.48699951    0.70999998    2.89000010
   17.47638893  162.10600281    0.70999998    2.89000010
   17.48250008  162.10600281    0.64999998    2.89000010
   17.48666763  144.46600342    0.70999998    2.91000009
   17.48972321  139.48399353    0.70999998    2.89000010
   17.49305534  159.67700195    0.70999998    2.89000010
   17.49638939  157.27000427    0.73000002    2.89000010
   17.49944496  157.57000732    0.75000000    2.89000010
   17.50055504  151.70199585    0.76999998    2.89000010
   17.50305557  162.83099365    0.76999998    2.89000010
   17.50611115  156.12699890    0.75000000    2.89000010
   17.50944519  160.19200134    0.80000001    2.89000010
   17.51277733  161.67599487    0.79000002    2.91000009
   17.51583290  154.77799988    0.70999998    2.91000009
   17.51916695  161.00100708    0.70999998    2.91000009
   17.52527809  161.00100708    0.73000002    2.89000010
   17.52944374  164.22799683    0.70999998    2.89000010
   17.53249931  151.35000610    0.64999998    2.89000010
   17.53388786  168.24499512    0.64999998    2.89000010
   17.53638840  165.36999512    0.75000000    2.89000010
   17.53944397  162.90400696    0.75000000    2.89000010
   17.54277802  150.67300415    0.75000000    2.89000010
   17.54611015  160.68099976    0.75000000    2.89000010
   17.54916573  131.97500610    0.76999998    2.89000010
   17.55249977  163.42199707    0.81999999    2.89000010
   17.55583191  158.36000061    0.95999998    2.89000010
   17.55888748  152.93699646    0.98000002    2.89000010
   17.56222153  152.09800720    0.98000002    2.89000010
   17.56805611  152.09800720    1.00000000    2.89000010
   17.57222366  150.45799255    1.01999998    2.89000010
   17.57555580  149.41000366    1.01999998    2.89000010
   17.57861137  152.33000183    0.98000002    2.89000010
   17.58194542  143.52699280    0.92000002    2.91000009
   17.58527756  146.89300537    0.92000002    2.89000010
   17.58833313  147.36900330    0.92000002    2.89000010
   17.59166718  146.68600464    0.89999998    2.91000009
   17.59472275  151.08599854    0.83999997    2.91000009
   17.59805679  154.64700317    0.83999997    2.89000010
   17.60055542  148.51699829    0.83999997    2.89000010
   17.60166740  144.04899597    0.79000002    2.89000010
   17.60472298  149.05999756    0.79000002    2.89000010
   17.61083412  149.05999756    0.75000000    2.89000010
   17.61499977  140.01800537    0.70999998    2.89000010
   17.61833382  148.03599548    0.76999998    2.89000010
   17.62166595  142.08200073    0.70999998    2.91000009
   17.62472153  154.62399292    0.70999998    2.89000010
   17.62805557  156.22200012    0.70999998    2.89000010
   17.63138962  155.36599731    0.73000002    2.89000010
   17.63388824  152.62500000    0.75000000    2.89000010
   17.63500023  143.70500183    0.75000000    2.89000010
   17.63833237  155.70599365    0.73000002    2.91000009
   17.64138794  158.13999939    0.73000002    2.91000009
   17.64472198  152.12699890    0.70999998    2.89000010
   17.64777756  147.14100647    0.73000002    2.89000010
   17.66860962   91.92829895    0.86000001    2.89000010
   17.66888809   96.45600128    0.86000001    2.89000010
   17.67222214  152.01600647    0.80000001    2.89000010
   17.67527771  172.60400391    0.80000001    2.89000010
   17.67860985  162.34599304    0.75000000    2.89000010
   17.68194389  147.28399658    0.79000002    2.89000010
   17.68499947  171.87100220    0.79000002    2.89000010
   17.68833160  180.92900085    0.79000002    2.89000010
   17.69166565  221.59399414    0.80000001    2.89000010
   17.69666672  221.59399414    1.09000003    2.86999989
   17.70083427  202.95300293    1.09000003    2.89000010
   17.70166779  186.88299561    1.09000003    2.89000010
   17.70444489  188.44500732    1.07000005    2.89000010
   17.70777893  166.05400085    1.07000005    2.89000010
   17.71111107  181.57400513    1.07000005    2.89000010
   17.71416664  201.28900146    1.05999994    2.89000010
   17.71750069  193.77400208    1.05999994    2.89000010
   17.72083473  202.58700562    1.00000000    2.89000010
   17.72389030  193.57400513    0.98000002    2.89000010
   17.72722244  198.98899841    0.94000000    2.89000010
   17.73027802  209.27600098    0.94000000    2.89000010
   17.73361206  208.82699585    0.94000000    2.89000010
   17.73500061  197.54200745    0.94000000    2.89000010
   17.73944473  197.54200745    0.94000000    2.89000010
   17.74361229  194.08599854    0.94000000    2.89000010
   17.74694443  190.83000183    0.94000000    2.89000010
   17.75000000  188.83599854    0.94000000    2.89000010
   17.75333405  180.94799805    1.00000000    2.86999989
   17.75666618  183.37500000    1.00000000    2.89000010
   17.75972176  180.08700562    0.98000002    2.89000010
   17.76305580  181.31599426    1.00000000    2.86999989
   17.76611137  180.75100708    1.00000000    2.86999989
   17.76833344  174.33399963    1.00000000    2.89000010
   17.76972198  180.48899841    1.00000000    2.89000010
   17.77305603  174.14500427    0.95999998    2.89000010
   17.77638817  164.91099548    0.95999998    2.89000010
   17.78222275  164.91099548    0.98000002    2.86999989
   17.78638840  158.91900635    0.98000002    2.86999989
   17.78972244  170.55799866    1.00000000    2.89000010
   17.79305458  175.27799988    1.03999996    2.89000010
   17.79611015  141.91600037    1.03999996    2.89000010
   17.79944420  165.36999512    1.14999998    2.86999989
   17.80166626  166.34800720    1.16999996    2.86999989
   17.80305481  167.02099609    1.16999996    2.89000010
   17.80638885  158.27000427    1.16999996    2.89000010
   17.80972099  158.94500732    1.16999996    2.89000010
   17.81277657  163.39500427    1.13000000    2.89000010
   17.81611061  172.80400085    1.09000003    2.89000010
   17.81916809  162.81599426    1.05999994    2.86999989
   17.82527924  162.81599426    1.05999994    2.89000010
   17.82944489  140.45899963    1.09000003    2.86999989
   17.83250046  146.56500244    1.03999996    2.86999989
   17.83500099  150.75300598    1.03999996    2.86999989
   17.83611107  148.10000610    1.03999996    2.86999989
   17.83944511  146.10699463    1.03999996    2.89000010
   17.84277916  134.75799561    1.03999996    2.86999989
   17.84583473  154.73800659    1.07000005    2.89000010
   17.84916687  161.02299500    1.07000005    2.89000010
   17.85250092  148.55000305    1.03999996    2.86999989
   17.85555649  145.25700378    0.98000002    2.89000010
   17.85888863  160.05499268    0.98000002    2.86999989
   17.86222267  153.01600647    0.98000002    2.86999989
   17.86805534  153.01600647    1.00000000    2.89000010
   17.87222290  143.53799438    1.00000000    2.89000010
   17.87527847  144.92700195    1.05999994    2.89000010
   17.87861061  143.25700378    1.03999996    2.89000010
   17.88194466  144.06799316    1.05999994    2.86999989
   17.88500023  142.03900146    1.05999994    2.86999989
   17.88833237  147.31799316    1.01999998    2.89000010
   17.89166641  151.14799500    1.01999998    2.86999989
   17.89472198  143.48599243    0.98000002    2.89000010
   17.89805603  144.06199646    1.00000000    2.89000010
   17.90111160  142.91799927    1.00000000    2.89000010
   17.90305519  141.71200562    1.01999998    2.89000010
   17.90499878  148.69099426    1.01999998    2.89000010
   17.91083336  148.69099426    0.98000002    2.89000010
   17.91499901  150.02600098    0.98000002    2.89000010
   17.91833305  152.65100098    0.94000000    2.89000010
   17.92138863  152.68699646    0.95999998    2.89000010
   17.92472076  148.80799866    0.94000000    2.86999989
   17.92777634  160.25100708    0.98000002    2.89000010
   17.93111038  156.08099365    0.98000002    2.89000010
   17.93444443  148.64300537    0.98000002    2.86999989
   17.93638802  138.58000183    1.00000000    2.89000010
   17.93805504  136.66999817    1.00000000    2.86999989
   17.94111061  157.49099731    1.00000000    2.86999989
   17.94444275  162.56500244    1.00000000    2.86999989
   17.94777679  143.58299255    1.01999998    2.89000010
   17.95361137  143.58299255    1.05999994    2.89000010
   17.95777893  150.94599915    1.05999994    2.86999989
   17.96111107  153.10099792    1.11000001    2.86999989
   17.96444511  168.20199585    1.11000001    2.86999989
   17.96750069  151.78700256    1.11000001    2.86999989
   17.97000122  157.73399353    1.03999996    2.86999989
   17.97138977  170.07400513    1.03999996    2.86999989
   17.97444534  151.68299866    0.98000002    2.86999989
   17.97777748  152.03799438    1.00000000    2.86999989
   17.98111153  162.46299744    0.95999998    2.89000010
   17.98444557  161.30799866    0.95999998    2.86999989
   17.98750114  153.40699768    0.95999998    2.86999989
   17.99083328  151.74299622    0.94000000    2.86999989
   17.99666786  151.74299622    1.00000000    2.86999989
   18.00083351  150.39199829    1.00000000    2.86999989
   18.00333405  156.66200256    1.01999998    2.89000010
   18.00444412  159.14300537    1.00000000    2.86999989
   18.00749969  141.67900085    1.00000000    2.86999989
   18.01083374  162.76199341    0.98000002    2.89000010
   18.01388931  163.75399780    1.00000000    2.86999989
   18.01722145  157.26899719    1.00000000    2.86999989
   18.02055550  177.48300171    1.00000000    2.86999989
   18.02361107  166.38600159    1.00000000    2.89000010
   18.02694511  172.65400696    0.98000002    2.86999989
   18.03027725  176.59199524    0.98000002    2.86999989
   18.03333282  191.10600281    0.98000002    2.86999989
   18.03944397  191.10600281    0.98000002    2.86999989
   18.04361153  188.07499695    1.01999998    2.86999989
   18.04666710  192.97399902    1.05999994    2.86999989
   18.04999924  174.69700623    1.05999994    2.86999989
   18.05333328  169.54699707    1.23000002    2.86999989
   18.05666542  178.93800354    1.33000004    2.86999989
   18.05972099  163.69200134    1.36000001    2.89000010
   18.06305504  178.42599487    1.39999998    2.86999989
   18.06611061  188.13299561    1.46000004    2.86999989
   18.06944466  171.99400330    1.91999996    2.86999989
   18.07027817  176.09500122    2.19000006    2.86999989
   18.07305717  192.17300415    2.19000006    2.86999989
   18.07611275  193.33200073    1.75000000    2.86999989
   18.08222389  193.33200073    1.50000000    2.86999989
   18.08638954  206.28100586    1.39999998    2.86999989
   18.08972359  193.33000183    1.39999998    2.86999989
   18.09277916  209.65299988    1.39999998    2.86999989
   18.09611130  210.27799988    1.39999998    2.86999989
   18.09944534  223.65800476    1.39999998    2.89000010
   18.10250092  203.15199280    1.38000000    2.86999989
   18.10361099  220.48800659    1.38000000    2.86999989
   18.10611153  209.31799316    1.38000000    2.86999989
   18.10916710  210.91200256    1.38000000    2.86999989
   18.11250114  216.25000000    1.38000000    2.86999989
   18.11583328  250.20300293    1.36000001    2.86999989
   18.11888885  241.59599304    1.30999994    2.86999989
   18.12500000  241.59599304    1.30999994    2.86999989
   18.12916756  218.93499756    1.39999998    2.86999989
   18.13249969  218.15600586    1.39999998    2.86999989
   18.13555527  203.50599670    1.39999998    2.86999989
   18.13722229  213.59899902    1.39999998    2.86999989
   18.13944435  211.91099548    1.39999998    2.86999989
   18.14249992  210.01600647    1.69000006    2.84999990
   18.14583397  205.17300415    1.66999996    2.86999989
   18.14916611  218.04299927    1.48000002    2.86999989
   18.15222168  206.97700500    1.36000001    2.86999989
   18.15555573  209.33700562    1.36000001    2.86999989
   18.15888786  208.48599243    1.34000003    2.86999989
   18.16194344  191.26400757    1.34000003    2.86999989
   18.16805458  191.26400757    1.34000003    2.86999989
   18.17194366  208.32400513    1.28999996    2.86999989
   18.17527771  213.59199524    1.28999996    2.86999989
   18.17860985  199.02499390    1.28999996    2.86999989
   18.18166542  190.13900757    1.28999996    2.86999989
   18.18499947  178.84500122    1.28999996    2.86999989
   18.18833160  182.13299561    1.28999996    2.86999989
   18.19138718  168.36500549    1.30999994    2.86999989
   18.19472122  188.81799316    1.28999996    2.86999989
   18.19777679  191.44900513    1.28999996    2.86999989
   18.20111275  183.15800476    1.28999996    2.86999989
   18.20388985  180.01300049    1.28999996    2.86999989
   18.20499992  176.19000244    1.28999996    2.86999989
   18.21083450  176.19000244    1.34000003    2.86999989
   18.21500015  164.97599792    1.39999998    2.86999989
   18.21805573  187.55499268    1.36000001    2.86999989
   18.22138977  167.54699707    1.39999998    2.86999989
   18.22472191  178.64500427    1.39999998    2.86999989
   18.22777748  175.94099426    1.39999998    2.86999989
   18.23111153  182.00599670    1.41999996    2.86999989
   18.23444557  180.98199463    1.38000000    2.86999989
   18.23722267  179.40699768    1.34000003    2.86999989
   18.23805618  191.39199829    1.34000003    2.86999989
   18.24111176  186.14700317    1.33000004    2.86999989
   18.24444389  190.37300110    1.33000004    2.86999989
   18.24749947  193.43800354    1.33000004    2.86999989
   18.25361061  193.43800354    1.25000000    2.86999989
   18.25777817  183.10899353    1.23000002    2.84999990
   18.26111031  188.84500122    1.25000000    2.86999989
   18.26416588  175.36999512    1.25000000    2.86999989
   18.26749992  180.75599670    1.25000000    2.86999989
   18.27055550  176.35699463    1.25000000    2.86999989
   18.27111053  177.07899475    1.25000000    2.86999989
   18.27416611  175.94999695    1.28999996    2.86999989
   18.27750015  180.50399780    1.28999996    2.86999989
   18.28083229  186.31100464    1.28999996    2.86999989
   18.28388786  198.32400513    1.28999996    2.86999989
   18.28722191  184.49200439    1.30999994    2.86999989
   18.29027748  174.91099548    1.33000004    2.86999989
   18.29638863  174.91099548    1.26999998    2.86999989
   18.30055428  177.79200745    1.25000000    2.86999989
   18.30388832  168.72300720    1.26999998    2.86999989
   18.30444336  164.76100159    1.26999998    2.86999989
   18.30749893  171.65299988    1.21000004    2.84999990
   18.31083298  180.81399536    1.28999996    2.86999989
   18.31388855  166.41999817    1.28999996    2.86999989
   18.31722260  164.84500122    1.33000004    2.86999989
   18.32055664  176.25199890    1.33000004    2.86999989
   18.32361221  165.50100708    1.33000004    2.86999989
   18.32694626  166.77699280    1.34000003    2.86999989
   18.33027840  164.47399902    1.39999998    2.86999989
   18.33333397  180.47000122    1.36000001    2.86999989
   18.33944511  180.47000122    1.34000003    2.86999989
   18.34361267  164.36999512    1.34000003    2.86999989
   18.34666824  167.50900269    1.28999996    2.86999989
   18.35000038  164.80700684    1.28999996    2.86999989
   18.35305595  182.31599426    1.28999996    2.86999989
   18.35639000  164.88999939    1.26999998    2.84999990
   18.35972214  168.24099731    1.33000004    2.86999989
   18.36277771  154.78999329    1.33000004    2.86999989
   18.36611176  160.36000061    1.36000001    2.84999990
   18.36916733  165.14900208    1.38000000    2.86999989
   18.37055588  156.12500000    1.34000003    2.86999989
   18.37305641  178.98300171    1.34000003    2.86999989
   18.37611198  164.11900330    1.34000003    2.86999989
   18.38222313  164.11900330    1.30999994    2.86999989
   18.38638878  168.41700745    1.26999998    2.86999989
   18.38944435  173.70700073    1.26999998    2.86999989
   18.39277840  172.84100342    1.25000000    2.86999989
   18.39611053  180.93099976    1.19000006    2.84999990
   18.39916611  171.95500183    1.16999996    2.86999989
   18.40250015  151.79100037    1.14999998    2.86999989
   18.40388870  166.62699890    1.16999996    2.86999989
   18.40611076  173.80799866    1.16999996    2.86999989
   18.40916634  149.47300720    1.14999998    2.86999989
   18.41250038  172.16299438    1.14999998    2.86999989
   18.41583252  183.12199402    1.13000000    2.86999989
   18.41888809  176.55000305    1.13000000    2.86999989
   18.42499924  176.55000305    1.14999998    2.86999989
   18.42916679  178.17100525    1.14999998    2.84999990
   18.43249893  175.91400146    1.14999998    2.84999990
   18.43555450  180.22300720    1.14999998    2.86999989
   18.43750000  188.39700317    1.16999996    2.86999989
   18.43916512  169.96600342    1.16999996    2.86999989
   18.44249916  184.08999634    1.16999996    2.86999989
   18.44583321  175.87899780    1.21000004    2.86999989
   18.44888878  168.94400024    1.21000004    2.84999990
   18.45222282  166.58299255    1.28999996    2.86999989
   18.45555687  164.78700256    1.28999996    2.84999990
   18.45861244  159.48199463    1.28999996    2.84999990
   18.46194458  166.47000122    1.28999996    2.84999990
   18.46777916  166.47000122    1.28999996    2.86999989
   18.47194481  156.56399536    1.26999998    2.86999989
   18.47527885  180.02600098    1.25000000    2.84999990
   18.47861099  166.59599304    1.25000000    2.86999989
   18.48166656  164.56399536    1.25000000    2.86999989
   18.48500061  165.40400696    1.25000000    2.86999989
   18.48805618  177.06100464    1.26999998    2.86999989
   18.49138832  168.18499756    1.28999996    2.86999989
   18.49472237  163.56300354    1.33000004    2.84999990
   18.49777794  183.17700195    1.36000001    2.84999990
   18.50111198  161.49499512    1.39999998    2.84999990
   18.50416756  176.70700073    1.39999998    2.84999990
   18.50444412  174.78599548    1.39999998    2.84999990
   18.51083374  174.78599548    1.50000000    2.86999989
   18.51499939  157.45599365    1.50000000    2.86999989
   18.51805496  152.21899414    1.50000000    2.86999989
   18.52138901  175.27999878    1.50000000    2.86999989
   18.52444458  178.52099609    1.44000006    2.84999990
   18.52777672  164.60000610    1.46000004    2.84999990
   18.53111076  166.24699402    1.53999996    2.84999990
   18.53416634  160.91999817    1.55999994    2.84999990
   18.53750038  162.97799683    1.55999994    2.84999990
   18.53777695  168.17199707    1.55999994    2.84999990
   18.54111099  161.74099731    1.58000004    2.86999989
   18.54444313  170.76100159    1.63000000    2.84999990
   18.54749870  184.48199463    1.63000000    2.84999990
   18.55360985  184.48199463    1.73000002    2.84999990
   18.55777740  172.68899536    1.75000000    2.84999990
   18.56083298  168.65199280    1.76999998    2.84999990
   18.56416512  161.64500427    1.75000000    2.84999990
   18.56750107  158.10499573    1.76999998    2.84999990
   18.57055664  164.05999756    1.76999998    2.84999990
   18.57111168  168.32899475    1.76999998    2.84999990
   18.57444572  164.03500366    1.75000000    2.84999990
   18.57750130  172.71499634    1.78999996    2.84999990
   18.58083344  172.16099548    1.80999994    2.84999990
   18.58416748  167.96600342    1.83000004    2.84999990
   18.58722305  177.00000000    1.89999998    2.84999990
   18.59055710  174.62600708    1.89999998    2.84999990
   18.59638977  174.62600708    1.85000002    2.84999990
   18.60055542  158.92999268    1.83000004    2.84999990
   18.60388947  165.91900635    1.80999994    2.84999990
   18.60444450  170.32600403    1.80999994    2.84999990
   18.60750008  162.68499756    1.83000004    2.86999989
   18.61083412  173.27900696    1.85000002    2.84999990
   18.61388969  166.41499329    1.85000002    2.84999990
   18.61722183  171.86799622    1.88000000    2.84999990
   18.62027740  161.07099915    1.86000001    2.84999990
   18.62361145  166.84100342    1.80999994    2.84999990
   18.62694550  175.85400391    1.78999996    2.84999990
   18.63027763  170.13299561    1.76999998    2.86999989
   18.63333321  172.97399902    1.75000000    2.84999990
   18.63916588  172.97399902    1.76999998    2.84999990
   18.64333344  163.44999695    1.66999996    2.84999990
   18.64666748  176.36300659    1.64999998    2.84999990
   18.64972115  175.89500427    1.64999998    2.84999990
   18.65305519  164.39100647    1.63000000    2.86999989
   18.65638924  165.78500366    1.61000001    2.84999990
   18.65944481  168.75799561    1.64999998    2.84999990
   18.66277695  169.05200195    1.64999998    2.84999990
   18.66611099  164.14799500    1.64999998    2.84999990
   18.68555450  170.22700500    1.55999994    2.84999990
   18.68610954  170.37100220    1.55999994    2.84999990
   18.69027710  170.37100220    1.48000002    2.84999990
   18.69444275  163.69099426    1.46000004    2.86999989
   18.69749832  164.54899597    1.48000002    2.84999990
   18.70083427  175.85499573    1.48000002    2.84999990
   18.70416832  150.49200439    1.48000002    2.84999990
   18.70722389  165.96000671    1.48000002    2.84999990
   18.71055603  145.00999451    1.48000002    2.84999990
   18.71361160  157.97900391    1.41999996    2.84999990
   18.71694565  160.02799988    1.38000000    2.84999990
   18.71944427  167.78999329    1.36000001    2.84999990
   18.72083473  170.84899902    1.36000001    2.84999990
   18.72389030  179.44400024    1.39999998    2.84999990
   18.72722244  178.82099915    1.41999996    2.84999990
   18.73305511  178.82099915    1.39999998    2.84999990
   18.73722267  190.64500427    1.41999996    2.84999990
   18.74055672  183.36000061    1.41999996    2.84999990
   18.74361229  169.03599548    1.39999998    2.84999990
   18.74694443  186.80700684    1.38000000    2.84999990
   18.75027847  230.41700745    1.39999998    2.86999989
   18.75277710  224.18099976    1.39999998    2.86999989
   18.75388908  246.99699402    1.38000000    2.84999990
   18.75694466  302.79199219    1.36000001    2.84999990
   18.76027870  305.26998901    1.36000001    2.84999990
   18.76333427  279.34399414    1.38000000    2.86999989
   18.76666641  318.67199707    1.38000000    2.86999989
   18.77000046  309.58300781    1.44000006    2.84999990
   18.77583313  309.58300781    1.50000000    2.84999990
   18.78000069  311.03799438    1.50000000    2.84999990
   18.78333282  305.46798706    1.44000006    2.84999990
   18.78610992  275.43200684    1.50000000    2.84999990
   18.78694344  328.54901123    1.50000000    2.84999990
   18.78999901  302.45999146    1.50000000    2.84999990
   18.79333305  314.02999878    1.50000000    2.84999990
   18.79638863  327.74499512    1.50000000    2.84999990
   18.79972076  297.04501343    1.55999994    2.84999990
   18.80305481  300.52801514    1.58000004    2.84999990
   18.80611038  274.92800903    1.58000004    2.84999990
   18.80944443  277.30999756    1.60000002    2.84999990
   18.81277657  284.69299316    1.63000000    2.82999992
   18.81888962  284.69299316    1.75000000    2.84999990
   18.82277870  255.41499329    1.76999998    2.82999992
   18.82611275  267.25399780    1.75000000    2.82999992
   18.82944489  273.20401001    1.76999998    2.84999990
   18.83250046  239.72099304    1.88000000    2.82999992
   18.83583450  216.75500488    1.88000000    2.82999992
   18.83916664  244.55099487    1.89999998    2.82999992
   18.84222221  253.90100098    1.89999998    2.82999992
   18.84555626  257.43399048    1.91999996    2.82999992
   18.84861183  263.11801147    1.91999996    2.82999992
   18.85194397  267.00500488    1.86000001    2.82999992
   18.85388947  239.60299683    1.80999994    2.84999990
   18.85555649  270.10299683    1.80999994    2.84999990
   18.86166763  270.10299683    1.78999996    2.82999992
   18.86583328  298.55700684    1.75000000    2.84999990
   18.86888885  274.88101196    1.75000000    2.84999990
   18.87222290  279.31100464    1.75000000    2.84999990
   18.87555504  237.47099304    1.71000004    2.84999990
   18.87861061  268.69601440    1.69000006    2.84999990
   18.88194466  294.19799805    1.66999996    2.84999990
   18.88527679  295.32699585    1.64999998    2.84999990
   18.88722229  293.93798828    1.64999998    2.84999990
   18.88861084  290.00799561    1.64999998    2.84999990
   18.89194489  279.12600708    1.73000002    2.84999990
   18.89527702  241.23800659    1.71000004    2.84999990
   18.89833260  312.85400391    1.71000004    2.84999990
   18.90444374  312.85400391    1.75000000    2.84999990
   18.90861130  259.88800049    1.76999998    2.82999992
   18.91194344  277.93399048    1.80999994    2.82999992
   18.91499901  304.81201172    1.80999994    2.82999992
   18.91833305  331.12600708    1.83000004    2.82999992
   18.92083359  333.55899048    1.86000001    2.82999992
   18.92194366  295.57699585    1.86000001    2.82999992
   18.92527771  257.21398926    1.85000002    2.82999992
   18.92833328  353.10501099    1.80999994    2.82999992
   18.93166542  292.11099243    1.80999994    2.82999992
   18.93499947  306.44100952    1.88000000    2.82999992
   18.93805504  305.25900269    1.88000000    2.82999992
   18.94138718  306.89898682    1.86000001    2.84999990
   18.94722176  306.89898682    1.85000002    2.84999990
   18.95138931  332.08401489    1.94000006    2.82999992
   18.95416832  333.66500854    1.94000006    2.82999992
   18.95499992  359.96499634    1.94000006    2.82999992
   18.95833397  371.69299316    1.94000006    2.82999992
   18.96138954  366.61499023    2.00000000    2.82999992
   18.96472359  398.40701294    2.07999992    2.82999992
   18.96805573  381.85400391    2.09999990    2.82999992
   18.97111130  411.93600464    2.13000011    2.82999992
   18.97333336  439.30499268    2.11999989    2.82999992
   18.97444534  421.57199097    2.09999990    2.82999992
   18.97583389  381.67800903    2.11999989    2.82999992
   18.97722244  446.52801514    2.11999989    2.82999992
   18.97861099  391.15600586    2.11999989    2.82999992
   18.98000145  415.53500366    2.09999990    2.82999992
   18.98139000  369.93701172    2.07999992    2.82999992
   18.98277855  401.15301514    2.03999996    2.82999992
   18.98416710  411.77398682    2.01999998    2.82999992
   18.98555565  374.20999146    2.01999998    2.82999992
   18.98694420  417.52899170    2.00000000    2.82999992
   18.98833275  427.64498901    2.00000000    2.82999992
   18.98972321  383.61401367    2.00000000    2.82999992
   18.99111176  443.34100342    2.00000000    2.82999992
   18.99250031  406.32800293    1.96000004    2.82999992
   18.99388885  418.35998535    1.94000006    2.82999992
   18.99527740  397.07000732    1.94000006    2.82999992
   18.99666786  458.37298584    1.91999996    2.82999992
   18.99805641  441.38000488    1.91999996    2.82999992
   18.99944496  511.56500244    1.89999998    2.82999992
   19.00083351  409.68499756    1.89999998    2.82999992
   19.00222206  476.53799438    1.89999998    2.82999992
   19.00361061  489.57998657    1.89999998    2.82999992
   19.00499916  438.65701294    1.89999998    2.82999992
   19.00638962  501.15301514    1.88000000    2.82999992
   19.00777817  483.37701416    1.88000000    2.82999992
   19.00916672  511.50500488    1.88000000    2.82999992
   19.01055527  537.00598145    1.88000000    2.82999992
   19.01194382  544.28900146    1.88000000    2.82999992
   19.01333427  545.47802734    1.88000000    2.82999992
   19.01472282  569.61401367    1.88000000    2.82999992
   19.01611137  539.29400635    1.89999998    2.82999992
   19.01749992  487.11499023    1.89999998    2.82999992
   19.01888847  527.93701172    1.89999998    2.82999992
   19.02027702  552.55798340    1.89999998    2.82999992
   19.02166557  520.62097168    1.89999998    2.82999992
   19.02305603  587.83801270    1.89999998    2.82999992
   19.02444458  572.77801514    1.86000001    2.82999992
   19.02583313  518.94396973    1.86000001    2.82999992
   19.02722168  546.37500000    1.86000001    2.82999992
   19.02861023  469.98699951    1.83000004    2.82999992
   19.03000069  588.58898926    1.83000004    2.82999992
   19.03138924  521.14898682    1.83000004    2.82999992
   19.03277779  474.29901123    1.78999996    2.82999992
   19.03416634  472.82699585    1.78999996    2.82999992
   19.03555489  515.88098145    1.78999996    2.82999992
   19.03694344  557.58801270    1.76999998    2.84999990
   19.03833199  431.06799316    1.76999998    2.84999990
   19.03972244  504.15399170    1.85000002    2.82999992
   19.04111099  471.68499756    1.85000002    2.82999992
   19.04249954  430.44000244    1.83000004    2.82999992
   19.04388809  480.18200684    1.83000004    2.82999992
   19.04527664  509.77600098    1.83000004    2.82999992
   19.04666710  482.90600586    1.83000004    2.82999992
   19.04805565  467.73300171    1.85000002    2.82999992
   19.04944420  536.28302002    1.85000002    2.82999992
   19.05083275  545.53601074    1.85000002    2.82999992
   19.05222130  488.88800049    1.85000002    2.80999994
   19.05360985  488.90200806    1.85000002    2.80999994
   19.05499840  464.10998535    1.86000001    2.82999992
   19.05638885  544.12298584    1.86000001    2.82999992
   19.05777740  500.69799805    1.89999998    2.82999992
   19.05916595  444.86599731    1.89999998    2.82999992
   19.06055450  521.63800049    1.89999998    2.82999992
   19.06194305  445.60000610    1.91999996    2.82999992
   19.06333351  447.92300415    1.91999996    2.82999992
   19.06472206  469.38699341    2.01999998    2.82999992
   19.06611061  429.67098999    2.05999994    2.82999992
   19.06750107  475.82400513    2.07999992    2.82999992
   19.06888962  456.99600220    2.13000011    2.80999994
   19.07027817  478.00399780    2.15000010    2.82999992
   19.07166672  448.72900391    2.21000004    2.82999992
   19.07305717  490.99499512    2.26999998    2.82999992
   19.07444572  452.77200317    2.28999996    2.82999992
   19.07583427  402.29098511    2.34999990    2.80999994
   19.07722282  498.09298706    2.36999989    2.82999992
   19.07861137  441.33200073    2.40000010    2.82999992
   19.08000183  444.77398682    2.40000010    2.82999992
   19.08139038  437.52301025    2.42000008    2.82999992
   19.08277893  468.34799194    2.46000004    2.80999994
   19.08416748  492.00100708    2.48000002    2.80999994
   19.08555603  428.43899536    2.48000002    2.82999992
   19.08694458  482.14999390    2.48000002    2.80999994
   19.08833313  462.42599487    2.50000000    2.82999992
   19.08972359  459.50000000    2.51999998    2.82999992
   19.09111214  391.84298706    2.57999992    2.80999994
   19.09250069  465.02200317    2.57999992    2.80999994
   19.09388924  514.95800781    2.57999992    2.80999994
   19.09527779  495.95300293    2.55999994    2.80999994
   19.09666824  556.54199219    2.51999998    2.82999992
   19.09805679  568.23602295    2.48000002    2.80999994
   19.09944534  505.12298584    2.44000006    2.82999992
   19.10083389  537.15997314    2.42000008    2.80999994
   19.10222244  489.09100342    2.32999992    2.82999992
   19.10361099  511.55300903    2.28999996    2.80999994
   19.10499954  491.49600220    2.26999998    2.82999992
   19.10639000  437.37500000    2.25000000    2.82999992
   19.10777855  529.38098145    2.25000000    2.82999992
   19.10916710  474.49398804    2.23000002    2.82999992
   19.11055565  485.50601196    2.21000004    2.82999992
   19.11194420  438.15701294    2.21000004    2.82999992
   19.11333466  463.92700195    2.25000000    2.82999992
   19.11472321  435.27200317    2.25000000    2.82999992
   19.11611176  440.72000122    2.26999998    2.82999992
   19.11750031  390.06500244    2.26999998    2.82999992
   19.11888885  511.88101196    2.26999998    2.82999992
   19.12027740  531.72198486    2.26999998    2.82999992
   19.12166595  435.23300171    2.25000000    2.80999994
   19.12305641  512.58300781    2.23000002    2.80999994
   19.12444496  456.72500610    2.19000006    2.80999994
   19.12583351  468.67999268    2.15000010    2.82999992
   19.12722206  453.11401367    2.13000011    2.80999994
   19.12861061  435.57901001    2.11999989    2.82999992
   19.13000107  429.43899536    2.11999989    2.82999992
   19.13138962  509.22299194    2.13000011    2.80999994
   19.13277817  415.22500610    2.13000011    2.80999994
   19.13416672  429.63800049    2.11999989    2.82999992
   19.13555527  385.38400269    2.11999989    2.82999992
   19.13694382  468.34698486    2.09999990    2.80999994
   19.13833237  495.91500854    2.09999990    2.82999992
   19.13972282  469.07199097    2.09999990    2.80999994
   19.14111137  452.26400757    2.09999990    2.80999994
   19.14249992  486.01400757    2.09999990    2.82999992
   19.14388847  425.72799683    2.09999990    2.82999992
   19.14527702  488.68399048    2.09999990    2.82999992
   19.14666748  449.35101318    2.09999990    2.82999992
   19.14805603  524.88000488    2.09999990    2.82999992
   19.14944458  514.23797607    2.07999992    2.82999992
   19.15083313  531.32702637    2.07999992    2.82999992
   19.15222168  523.85101318    2.07999992    2.80999994
   19.15361023  522.36199951    2.05999994    2.82999992
   19.15499878  508.37799072    2.07999992    2.80999994
   19.15638924  534.71197510    2.05999994    2.80999994
   19.15777779  502.62200928    2.05999994    2.80999994
   19.15916634  509.94699097    2.05999994    2.80999994
   19.16055489  505.98001099    2.05999994    2.80999994
   19.16194344  374.45199585    2.05999994    2.80999994
   19.16333389  478.46200562    2.05999994    2.82999992
   19.16472244  517.57897949    2.05999994    2.82999992
   19.16611099  442.71899414    2.05999994    2.80999994
   19.16749954  515.60900879    2.05999994    2.80999994
   19.16888809  524.61297607    2.05999994    2.80999994
   19.17027664  484.97100830    2.05999994    2.82999992
   19.17166519  519.99798584    2.05999994    2.82999992
   19.17305565  496.85198975    2.05999994    2.80999994
   19.17444420  487.88299561    2.05999994    2.82999992
   19.17583275  537.90197754    2.05999994    2.82999992
   19.17722130  547.20697021    2.05999994    2.82999992
   19.17860985  507.34799194    2.07999992    2.82999992
   19.18000031  507.91799927    2.07999992    2.82999992
   19.18138885  515.60699463    2.07999992    2.82999992
   19.18277740  496.64498901    2.05999994    2.82999992
   19.18416595  494.78601074    2.05999994    2.82999992
   19.18555450  487.22299194    2.07999992    2.82999992
   19.18694305  512.54302979    2.03999996    2.82999992
   19.18833160  429.02801514    2.03999996    2.80999994
   19.18972206  499.30300903    2.01999998    2.82999992
   19.19111061  466.89999390    2.01999998    2.80999994
   19.19249916  489.76800537    1.98000002    2.80999994
   19.19388771  476.03500366    1.94000006    2.82999992
   19.19527626  476.70001221    1.88000000    2.80999994
   19.19666672  449.47000122    1.88000000    2.80999994
   19.19805527  376.24200439    1.86000001    2.80999994
   19.19944382  398.48498535    1.86000001    2.80999994
   19.20083427  467.45498657    1.85000002    2.80999994
   19.20222282  454.48400879    1.83000004    2.82999992
   19.20361137  412.82400513    1.78999996    2.80999994
   19.20499992  482.22399902    1.80999994    2.80999994
   19.20639038  420.44400024    1.83000004    2.80999994
   19.20777893  504.46899414    1.83000004    2.80999994
   19.20916748  426.30099487    1.83000004    2.80999994
   19.21055603  446.55999756    1.85000002    2.80999994
   19.21194458  464.72198486    1.85000002    2.80999994
   19.21333504  399.12899780    1.85000002    2.80999994
   19.21472359  452.43798828    1.85000002    2.80999994
   19.21611214  454.51998901    1.85000002    2.80999994
   19.21750069  433.48400879    1.85000002    2.80999994
   19.21888924  445.33700562    1.85000002    2.82999992
   19.22027779  390.25500488    1.85000002    2.82999992
   19.22166634  450.74600220    1.85000002    2.82999992
   19.22305679  432.11801147    1.86000001    2.82999992
   19.22444534  431.27899170    1.86000001    2.82999992
   19.22583389  432.88198853    1.88000000    2.82999992
   19.22722244  436.82800293    1.88000000    2.82999992
   19.22861099  472.17199707    1.88000000    2.82999992
   19.23000145  529.74700928    1.91999996    2.78999996
   19.23139000  479.09698486    1.91999996    2.78999996
   19.23277855  495.08898926    1.91999996    2.78999996
   19.23416710  470.58300781    1.94000006    2.80999994
   19.23583412  514.80603027    1.98000002    2.80999994
   19.23694420  502.10598755    2.01999998    2.80999994
   19.23833275  479.48001099    2.03999996    2.80999994
   19.23972321  482.84399414    2.03999996    2.80999994
   19.24111176  482.51098633    2.05999994    2.80999994
   19.24250031  507.24200439    2.05999994    2.80999994
   19.24388885  436.42098999    2.05999994    2.80999994
   19.24527740  462.46200562    2.05999994    2.80999994
   19.24666786  484.75601196    2.07999992    2.82999992
   19.24805641  466.55999756    2.07999992    2.80999994
   19.24944496  472.92001343    2.07999992    2.80999994
   19.25083351  481.45599365    2.07999992    2.82999992
   19.25222206  508.43301392    2.07999992    2.80999994
   19.25361061  458.89401245    2.05999994    2.80999994
   19.25499916  465.26098633    2.07999992    2.80999994
   19.25638962  452.82699585    2.07999992    2.80999994
   19.25777817  446.78500366    2.07999992    2.80999994
   19.25916672  446.15600586    2.05999994    2.80999994
   19.26055527  428.83200073    2.05999994    2.80999994
   19.26194382  448.00900269    2.07999992    2.80999994
   19.26333427  430.51098633    2.07999992    2.80999994
   19.26472282  465.58300781    2.07999992    2.80999994
   19.26611137  497.88800049    2.07999992    2.78999996
   19.26749992  459.81399536    2.11999989    2.80999994
   19.26888847  472.01901245    2.11999989    2.80999994
   19.27027702  482.44100952    2.09999990    2.80999994
   19.27166557  433.11300659    2.13000011    2.80999994
   19.27305603  461.85198975    2.09999990    2.80999994
   19.27444458  476.48199463    2.15000010    2.80999994
   19.27583313  415.20901489    2.15000010    2.78999996
   19.27722168  420.64498901    2.07999992    2.78999996
   19.27861023  425.91699219    2.13000011    2.80999994
   19.28000069  459.89898682    2.13000011    2.80999994
   19.28138924  440.76300049    2.23000002    2.80999994
   19.28277779  469.07299805    2.17000008    2.80999994
   19.28416634  438.00799561    2.23000002    2.78999996
   19.28555489  426.41299438    2.30999994    2.80999994
   19.28694344  428.89898682    2.28999996    2.80999994
   19.28833199  414.87298584    2.21000004    2.78999996
   19.28972244  451.24499512    2.19000006    2.80999994
   19.29111099  438.51699829    2.13000011    2.80999994
   19.29249954  472.32299805    2.09999990    2.80999994
   19.29388809  474.05801392    2.01999998    2.80999994
   19.29527664  455.31900024    2.00000000    2.80999994
   19.29666710  474.42800903    2.00000000    2.80999994
   19.29805565  449.87899780    1.98000002    2.80999994
   19.29944420  444.00000000    1.98000002    2.80999994
   19.30083275  455.34201050    1.98000002    2.80999994
   19.30222130  442.31799316    1.96000004    2.80999994
   19.30360985  422.68099976    1.96000004    2.80999994
   19.30499840  429.07199097    1.98000002    2.80999994
   19.30638885  423.83200073    1.98000002    2.78999996
   19.30777740  401.62298584    1.98000002    2.78999996
   19.30916595  411.37600708    1.98000002    2.80999994
   19.31055450  449.61499023    1.98000002    2.80999994
   19.31194305  431.05200195    1.98000002    2.80999994
   19.31333351  435.32199097    1.98000002    2.80999994
   19.31472206  435.35000610    1.98000002    2.80999994
   19.31611061  403.28601074    1.98000002    2.80999994
   19.31750107  426.64498901    1.98000002    2.80999994
   19.31888962  371.53399658    1.94000006    2.80999994
   19.32027817  395.69299316    1.94000006    2.80999994
   19.32166672  368.20700073    1.94000006    2.80999994
   19.32305717  442.24200439    1.96000004    2.80999994
   19.32444572  412.96200562    1.96000004    2.80999994
   19.32583427  393.93200684    1.96000004    2.80999994
   19.32722282  417.50698853    1.96000004    2.80999994
   19.32861137  413.42498779    1.96000004    2.80999994
   19.33000183  426.80200195    1.96000004    2.80999994
   19.33139038  402.20001221    1.96000004    2.80999994
   19.33277893  389.22601318    1.96000004    2.80999994
   19.33416748  391.91198730    1.96000004    2.80999994
   19.33555603  392.38800049    1.96000004    2.80999994
   19.33694458  406.98699951    1.96000004    2.80999994
   19.33833313  366.83700562    1.98000002    2.80999994
   19.33972359  382.55801392    2.03999996    2.78999996
   19.34111214  401.07199097    2.03999996    2.80999994
   19.34250069  374.26000977    2.01999998    2.80999994
   19.34388924  370.98001099    2.00000000    2.80999994
   19.34527779  406.54598999    2.00000000    2.78999996
   19.34666824  387.17098999    1.98000002    2.80999994
   19.34805679  380.90701294    2.00000000    2.78999996
   19.34944534  367.04299927    2.00000000    2.78999996
   19.35083389  388.57199097    2.00000000    2.78999996
   19.35222244  419.48098755    2.01999998    2.80999994
   19.35361099  385.48498535    2.01999998    2.78999996
   19.35499954  402.63598633    2.03999996    2.80999994
   19.35639000  378.62899780    2.05999994    2.78999996
   19.35777855  376.25100708    2.05999994    2.80999994
   19.35916710  351.83300781    2.05999994    2.80999994
   19.36055565  356.96099854    2.07999992    2.78999996
   19.36194420  379.72198486    2.07999992    2.80999994
   19.36333466  370.67401123    2.05999994    2.80999994
   19.36472321  355.87298584    2.07999992    2.80999994
   19.36611176  379.77801514    2.07999992    2.80999994
   19.36750031  355.75201416    2.07999992    2.78999996
   19.36888885  371.59600830    2.07999992    2.80999994
   19.37027740  352.41598511    2.09999990    2.78999996
   19.37166595  374.44400024    2.09999990    2.78999996
   19.37305641  351.44699097    2.09999990    2.80999994
   19.37444496  383.51400757    2.09999990    2.80999994
   19.37583351  354.64498901    2.09999990    2.80999994
   19.37722206  364.43399048    2.11999989    2.80999994
   19.37861061  358.14300537    2.09999990    2.78999996
   19.38000107  376.07299805    2.11999989    2.80999994
   19.38138962  329.88500977    2.11999989    2.80999994
   19.38166618  411.93600464    2.13000011    2.82999992
   19.38166618  305.25900269    1.88000000    2.82999992
   19.38166618  306.89898682    1.86000001    2.84999990
   19.38194466  332.08401489    1.94000006    2.82999992
   19.38194466  359.96499634    1.94000006    2.82999992
   19.38194466  371.69299316    1.94000006    2.82999992
   19.38222313  366.61499023    2.00000000    2.82999992
   19.38222313  398.40701294    2.07999992    2.82999992
   19.38222313  381.85400391    2.09999990    2.82999992
   19.38277817  348.98800659    2.11999989    2.80999994
   19.38611031  343.25900269    2.15000010    2.80999994
   19.38944435  336.26800537    2.13000011    2.80999994
   19.39249992  325.81100464    2.15000010    2.78999996
   19.39583397  329.08200073    2.17000008    2.80999994
   19.40222168  329.08200073    2.17000008    2.78999996
   19.40638924  312.31201172    2.23000002    2.78999996
   19.40972137  363.64498901    2.25000000    2.78999996
   19.41277695  334.35900879    2.28999996    2.78999996
   19.41527748  337.89498901    2.30999994    2.78999996
   19.41666603  326.38900757    2.32999992    2.78999996
   19.41972160  307.30200195    2.30999994    2.78999996
   19.42305565  326.85198975    2.26999998    2.78999996
   19.42638779  318.19198608    2.28999996    2.78999996
   19.42944336  314.12298584    2.28999996    2.78999996
   19.43277740  292.75698853    2.34999990    2.78999996
   19.43610954  318.15600586    2.34999990    2.78999996
   19.43916512  305.40899658    2.28999996    2.78999996
   19.44499969  305.40899658    2.17000008    2.78999996
   19.44916534  317.04800415    2.17000008    2.78999996
   19.45250130  303.13000488    2.23000002    2.78999996
   19.45555687  308.17800903    2.25000000    2.78999996
   19.45888901  303.24700928    2.21000004    2.78999996
   19.46222305  283.63598633    2.17000008    2.78999996
   19.46527863  302.10000610    2.13000011    2.78999996
   19.46861076  284.51599121    2.09999990    2.78999996
   19.47194481  280.75601196    2.13000011    2.78999996
   19.47500038  284.52099609    2.15000010    2.78999996
   19.47833443  276.65798950    2.19000006    2.80999994
   19.48139000  289.10800171    2.23000002    2.78999996
   19.48194504  297.70800781    2.25000000    2.78999996
   19.48805618  297.70800781    2.32999992    2.78999996
   19.49194527  269.30300903    2.34999990    2.78999996
   19.49527740  276.72000122    2.32999992    2.78999996
   19.49861145  255.90499878    2.25000000    2.78999996
   19.50166702  280.45800781    2.21000004    2.78999996
   19.50499916  278.95098877    2.17000008    2.76999998
   19.50833321  273.89599609    2.13000011    2.78999996
   19.51138878  245.38800049    2.13000011    2.78999996
   19.51472282  244.86999512    2.11999989    2.78999996
   19.51527786  262.14001465    2.11999989    2.78999996
   19.51833344  246.44500732    2.11999989    2.78999996
   19.52166557  250.49000549    2.09999990    2.76999998
   19.52472115  264.06698608    2.03999996    2.78999996
   19.53083229  264.06698608    1.98000002    2.78999996
   19.53499985  232.34300232    1.96000004    2.76999998
   19.53833199  248.54299927    1.96000004    2.78999996
   19.54138756  236.30900574    1.96000004    2.78999996
   19.54472160  220.81799316    1.96000004    2.78999996
   19.54777718  239.40699768    2.01999998    2.78999996
   19.54861069  244.52299500    2.03999996    2.78999996
   19.55138779  236.05700684    2.07999992    2.78999996
   19.55472183  234.96299744    2.13000011    2.76999998
   19.55777740  238.51600647    2.19000006    2.78999996
   19.56110954  234.55799866    2.25000000    2.76999998
   19.56444359  224.72099304    2.26999998    2.76999998
   19.56750107  233.58500671    2.25000000    2.76999998
   19.57361221  233.58500671    2.36999989    2.76999998
   19.57777786  192.44700623    2.39000010    2.78999996
   19.58111191  229.21299744    2.46000004    2.76999998
   19.58194542  233.28500366    2.46000004    2.78999996
   19.58472252  221.13000488    2.46000004    2.76999998
   19.58805656  224.67100525    2.40000010    2.76999998
   19.59111214  225.71400452    2.28999996    2.76999998
   19.59444427  210.41299438    2.28999996    2.78999996
   19.59777832  227.75599670    2.28999996    2.76999998
   19.60083389  220.43499756    2.26999998    2.76999998
   19.60416794  211.78100586    2.36999989    2.76999998
   19.60722351  228.25599670    2.46000004    2.76999998
   19.61055565  202.45700073    2.57999992    2.78999996
   19.61638832  202.45700073    2.66000009    2.76999998
   19.62055588  214.42999268    2.71000004    2.76999998
   19.62388992  194.71800232    2.73000002    2.76999998
   19.62694550  205.61799622    2.67000008    2.76999998
   19.63027763  213.22500610    2.51999998    2.76999998
   19.63361168  193.53700256    2.51999998    2.76999998
   19.63666725  200.06599426    2.69000006    2.76999998
   19.63999939  210.25999451    2.67000008    2.76999998
   19.64333344  200.62899780    2.78999996    2.76999998
   19.64638901  204.26699829    3.05999994    2.75000000
   19.64861107  208.83099365    3.23000002    2.76999998
   19.64999962  196.09700012    3.18000007    2.76999998
   19.65333366  198.98599243    3.18000007    2.76999998
   19.65944481  198.98599243    4.11999989    2.75000000
   19.66333389  198.28199768    4.05999994    2.75000000
   19.66666603  201.68699646    4.53000021    2.75000000
   19.67000008  200.21699524    4.90999985    2.73000002
   19.67305565  181.63000488    4.80000019    2.73000002
   19.67638779  182.90499878    4.15999985    2.75000000
   19.67972183  185.62100220    3.16000009    2.76999998
   19.68194389  181.17700195    2.96000004    2.75000000
   19.68333244  193.86599731    3.20000005    2.76999998
   19.70611191  193.86599731    2.91000009    2.76999998
   19.71027946  178.87500000    2.86999989    2.75000000
   19.71333504  171.39399719    2.82999992    2.76999998
   19.71555710  181.55999756    2.82999992    2.76999998
   19.71694565  169.10200500    2.80999994    2.75000000
   19.72027779  176.88299561    2.80999994    2.76999998
   19.72333336  182.33700562    2.80999994    2.76999998
   19.72666740  178.99200439    2.78999996    2.75000000
   19.72972298  176.13299561    2.80999994    2.75000000
   19.73305511  164.60099792    2.84999990    2.75000000
   19.73638916  165.46499634    2.84999990    2.76999998
   19.73944473  179.37800598    2.89000010    2.75000000
   19.74277878  173.05799866    2.94000006    2.75000000
   19.74888992  173.05799866    2.94000006    2.75000000
   19.75277710  169.35000610    2.98000002    2.75000000
   19.75611115  169.79100037    2.91000009    2.75000000
   19.75944519  181.68899536    2.91000009    2.75000000
   19.76250076  166.91700745    2.93000007    2.75000000
   19.76583290  164.30700684    2.96000004    2.75000000
   19.76916695  176.89300537    2.98000002    2.75000000
   19.77222252  172.28900146    2.94000006    2.75000000
   19.77555466  172.49800110    2.89000010    2.75000000
   19.77861023  179.61599731    2.82999992    2.75000000
   19.78194427  165.05799866    2.82999992    2.75000000
   19.78388786  186.56500244    2.82999992    2.75000000
   19.78555489  175.09399414    2.82999992    2.75000000
   19.79166603  175.09399414    2.84999990    2.75000000
   19.79583359  159.46600342    2.86999989    2.75000000
   19.79888916  155.01600647    2.82999992    2.75000000
   19.80222130  160.01899719    2.80999994    2.75000000
   19.80555534  156.11300659    2.78999996    2.75000000
   19.80861092  149.12600708    2.76999998    2.75000000
   19.81194305  155.74600220    2.78999996    2.75000000
   19.81527710  158.67900085    2.76999998    2.75000000
   19.81722260  151.34300232    2.76999998    2.75000000
   19.81861115  138.67900085    2.78999996    2.75000000
   19.82194519  153.42300415    2.73000002    2.75000000
   19.82527924  166.36900330    2.67000008    2.75000000
   19.82833481  164.87399292    2.66000009    2.75000000
   19.83444595  164.87399292    2.55999994    2.75000000
   19.83861160  139.90499878    2.57999992    2.75000000
   19.84194565  159.30999756    2.57999992    2.75000000
   19.84500122  154.97999573    2.59999990    2.75000000
   19.84833336  154.16200256    2.59999990    2.75000000
   19.85083389  155.87199402    2.57999992    2.75000000
   19.85194397  157.94099426    2.59999990    2.75000000
   19.85527802  147.49200439    2.61999989    2.75000000
   19.85833359  168.64100647    2.55999994    2.75000000
   19.86166763  149.65499878    2.51999998    2.75000000
   19.86499977  153.30200195    2.50000000    2.75000000
   19.86805534  154.76699829    2.46000004    2.75000000
   19.87138939  164.97500610    2.44000006    2.75000000
   19.87722206  164.97500610    2.40000010    2.75000000
   19.88138962  151.61000061    2.40000010    2.75000000
   19.88416672  159.36300659    2.42000008    2.75000000
   19.88500023  166.12199402    2.40000010    2.75000000
   19.88833237  164.98699951    2.40000010    2.75000000
   19.89138794  156.34800720    2.44000006    2.75000000
   19.89472198  150.67900085    2.44000006    2.75000000
   19.89805603  135.85200500    2.53999996    2.75000000
   19.90111160  139.55000305    2.50000000    2.75000000
   19.90444374  140.24899292    2.51999998    2.73000002
   19.90777779  130.10099792    2.51999998    2.73000002
   19.91083336  163.31100464    2.59999990    2.73000002
   19.91416550  154.61599731    2.61999989    2.75000000
   19.92027664  154.61599731    2.57999992    2.75000000
   19.92416573  119.36599731    2.57999992    2.73000002
   19.92749977  146.72099304    2.66000009    2.73000002
   19.93083191  148.33900452    2.71000004    2.75000000
   19.93388748  151.51800537    2.66000009    2.73000002
   19.93722153  151.21800232    2.64000010    2.75000000
   19.94055557  154.49200439    2.66000009    2.73000002
   19.94361115  160.16600037    2.67000008    2.73000002
   19.94694328  151.50799561    2.67000008    2.73000002
   19.95000076  150.46699524    2.66000009    2.73000002
   19.95111275  157.78900146    2.66000009    2.73000002
   19.95361137  153.96099854    2.64000010    2.73000002
   19.95694542  149.40699768    2.66000009    2.73000002
   19.96305656  149.40699768    2.66000009    2.73000002
   19.96722221  146.60600281    2.73000002    2.75000000
   19.97027779  147.81300354    2.80999994    2.73000002
   19.97361183  158.15800476    2.98000002    2.73000002
   19.97694588  157.54800415    2.94000006    2.73000002
   19.98000145  154.83900452    2.91000009    2.71000004
   19.98333359  159.05799866    2.94000006    2.73000002
   19.98444557  154.86599731    2.98000002    2.73000002
   19.98694420  146.08299255    3.01999998    2.71000004
   19.99027824  148.53999329    3.09999990    2.73000002
   19.99361229  157.19799805    3.05999994    2.73000002
   19.99666786  156.13400269    2.96000004    2.73000002
   20.00000000  155.31100464    2.94000006    2.73000002
   20.00583267  155.31100464    2.91000009    2.73000002
   20.01000023  159.66700745    2.93000007    2.73000002
   20.01333427  155.89100647    2.86999989    2.73000002
   20.01638794  159.89399719    2.93000007    2.71000004
   20.01805496  157.30200195    2.94000006    2.71000004
   20.02000046  156.94099426    2.94000006    2.71000004
   20.02333260  159.54299927    2.96000004    2.73000002
   20.02638817  152.92199707    2.98000002    2.73000002
   20.02972221  150.78199768    2.98000002    2.71000004
   20.03305435  151.67199707    2.96000004    2.71000004
   20.03610992  157.80000305    2.94000006    2.73000002
   20.03944397  155.39999390    2.94000006    2.71000004
   20.04277802  160.98899841    2.94000006    2.71000004
   20.04861069  160.98899841    2.98000002    2.71000004
   20.05277634  149.96400452    3.11999989    2.71000004
   20.05611038  150.88499451    3.14000010    2.71000004
   20.05916595  152.09199524    3.18000007    2.71000004
   20.06250000  144.00599670    3.16000009    2.71000004
   20.06583214  149.90499878    3.09999990    2.71000004
   20.06888962  158.48500061    3.03999996    2.71000004
   20.07222366  157.76499939    3.03999996    2.71000004
   20.07555580  145.46600342    3.01999998    2.71000004
   20.07861137  145.79100037    3.01999998    2.71000004
   20.08194542  157.70300293    3.00000000    2.71000004
   20.08472252  155.81399536    3.01999998    2.71000004
   20.08555603  160.65299988    3.01999998    2.71000004
   20.09166718  160.65299988    3.07999992    2.71000004
   20.09555626  154.30000305    3.16000009    2.71000004
   20.09889030  152.48699951    3.23000002    2.69000006
   20.10222244  150.00399780    3.28999996    2.71000004
   20.10527802  150.70100403    3.34999990    2.71000004
   20.10861206  165.73199463    3.36999989    2.71000004
   20.11166763  159.89799500    3.41000009    2.71000004
   20.11499977  132.60600281    3.45000005    2.71000004
   20.11805534  150.78100586    3.50000000    2.69000006
   20.11861038  159.91299438    3.51999998    2.69000006
   20.12194443  154.88699341    3.57999992    2.71000004
   20.12500000  137.18800354    3.66000009    2.69000006
   20.12833405  155.22300720    3.78999996    2.69000006
   20.13444519  155.22300720    3.68000007    2.69000006
   20.13861084  161.57499695    3.78999996    2.69000006
   20.14166641  160.16000366    3.75000000    2.69000006
   20.14500046  158.16900635    3.99000001    2.69000006
   20.14805603  166.70599365    3.91000009    2.71000004
   20.15138817  159.17500305    3.70000005    2.69000006
   20.15166664  172.88200378    3.70000005    2.69000006
   20.15499878  161.68400574    3.78999996    2.69000006
   20.15805435  165.90400696    3.64000010    2.71000004
   20.16138840  171.43200684    3.61999989    2.69000006
   20.16472244  162.31300354    3.64000010    2.69000006
   20.16777802  163.26199341    3.59999990    2.69000006
   20.17111015  159.70599365    3.66000009    2.69000006
   20.17722130  159.70599365    3.75000000    2.69000006
   20.18138885  152.91200256    3.70000005    2.69000006
   20.18472099  148.32099915    3.68000007    2.69000006
   20.18499947  151.30299377    3.70000005    2.69000006
   20.18833160  153.14199829    3.59999990    2.67000008
   20.19138718  158.44799805    3.55999994    2.69000006
   20.19472122  152.83200073    3.51999998    2.69000006
   20.19805527  162.64199829    3.48000002    2.69000006
   20.20111275  165.90899658    3.46000004    2.69000006
   20.20444489  160.39599609    3.43000007    2.69000006
   20.20777893  155.28700256    3.39000010    2.69000006
   20.21083450  149.17799377    3.39000010    2.69000006
   20.21416664  149.56700134    3.28999996    2.69000006
   20.22000122  149.56700134    3.23000002    2.69000006
   20.22416687  150.52600098    3.20000005    2.69000006
   20.22750092  148.97999573    3.16000009    2.69000006
   20.23055649  151.20799255    3.14000010    2.69000006
   20.23388863  164.05599976    3.11999989    2.69000006
   20.23722267  161.67700195    3.09999990    2.69000006
   20.24027824  161.35099792    3.07999992    2.67000008
   20.24361229  159.90199280    3.05999994    2.69000006
   20.24666786  163.58900452    3.03999996    2.69000006
   20.25000000  160.99200439    3.01999998    2.69000006
   20.25138855  146.53700256    3.01999998    2.69000006
   20.25361061  153.91200256    3.00000000    2.69000006
   20.25694466  151.96800232    3.00000000    2.67000008
   20.26277733  151.96800232    2.98000002    2.69000006
   20.26694489  172.44000244    2.98000002    2.67000008
   20.27027702  154.24000549    2.98000002    2.67000008
   20.27361107  160.56199646    2.98000002    2.69000006
   20.27666664  158.81799316    2.96000004    2.69000006
   20.28000069  177.79800415    2.96000004    2.69000006
   20.28305435  147.26899719    2.94000006    2.67000008
   20.28472137  167.11399841    2.93000007    2.69000006
   20.28666687  160.12699890    2.93000007    2.69000006
   20.28999901  163.00700378    2.93000007    2.69000006
   20.29333305  155.67300415    2.91000009    2.67000008
   20.29638863  170.85400391    2.91000009    2.67000008
   20.29972076  143.84300232    2.91000009    2.67000008
   20.30583191  143.84300232    2.93000007    2.67000008
   20.30999947  152.58999634    2.93000007    2.67000008
   20.31305504  148.52400208    2.91000009    2.67000008
   20.31638718  165.97599792    2.91000009    2.69000006
   20.31805611  156.83299255    2.91000009    2.69000006
   20.32000160  159.48599243    2.91000009    2.67000008
   20.32333374  156.36300659    2.94000006    2.67000008
   20.32638931  160.58799744    2.93000007    2.67000008
   20.32972336  149.81199646    2.94000006    2.67000008
   20.33305550  156.57099915    2.96000004    2.67000008
   20.33611107  171.73399353    2.96000004    2.67000008
   20.33944511  160.59100342    2.96000004    2.67000008
   20.34250069  159.29400635    2.96000004    2.66000009
   20.34861183  159.29400635    2.94000006    2.67000008
   20.35277748  157.53399658    2.94000006    2.67000008
   20.35583305  166.63600159    2.98000002    2.67000008
   20.35916710  165.26400757    3.00000000    2.67000008
   20.36250114  168.74600220    3.03999996    2.67000008
   20.36555672  163.91999817    3.01999998    2.66000009
   20.36888885  155.82899475    2.98000002    2.67000008
   20.37222290  169.52200317    2.96000004    2.67000008
   20.37527847  161.11300659    2.94000006    2.66000009
   20.37861061  118.43399811    2.96000004    2.67000008
   20.38166618  154.71699524    2.98000002    2.67000008
   20.38472176  164.42900085    2.98000002    2.67000008
   20.38527679  161.01400757    2.98000002    2.67000008
   20.39138794  161.01400757    3.01999998    2.67000008
   20.39555550  158.74400330    3.05999994    2.66000009
   20.39888954  171.55099487    3.07999992    2.67000008
   20.40194321  167.50300598    3.11999989    2.66000009
   20.40527725  160.77799988    3.14000010    2.66000009
   20.40861130  136.91600037    3.18000007    2.66000009
   20.41166687  158.49800110    3.21000004    2.66000009
   20.41499901  172.93299866    3.21000004    2.66000009
   20.41805458  156.72799683    3.23000002    2.66000009
   20.41860962  164.09700012    3.23000002    2.66000009
   20.42194366  166.33599854    3.23000002    2.66000009
   20.42499924  174.36399841    3.25000000    2.66000009
   20.42833328  174.36399841    3.23000002    2.66000009
   20.43416595  174.36399841    3.23000002    2.66000009
   20.43833160  162.22399902    3.21000004    2.66000009
   20.44166565  164.55999756    3.21000004    2.67000008
   20.44499969  166.70300293    3.20000005    2.66000009
   20.44805527  165.88299561    3.16000009    2.66000009
   20.45138931  167.69299316    3.14000010    2.66000009
   20.45194435  164.74299622    3.14000010    2.66000009
   20.45499992  162.17399597    3.14000010    2.66000009
   20.45833397  164.02699280    3.14000010    2.64000010
   20.46166801  166.56199646    3.09999990    2.66000009
   20.46472359  168.11199951    3.07999992    2.66000009
   20.46805573  170.37600708    3.05999994    2.66000009
   20.47138977  176.46299744    3.05999994    2.66000009
   20.47722244  176.46299744    3.00000000    2.66000009
   20.48139000  136.79499817    2.98000002    2.64000010
   20.48444557  164.50300598    2.94000006    2.64000010
   20.48527718  172.56399536    2.94000006    2.64000010
   20.48805618  176.33700562    2.94000006    2.64000010
   20.49138832  169.71899414    2.93000007    2.64000010
   20.49472237  180.36999512    2.93000007    2.64000010
   20.49777794  172.13900757    2.93000007    2.64000010
   20.50111198  163.87899780    2.96000004    2.64000010
   20.50444412  169.08299255    2.98000002    2.64000010
   20.50749969  169.02900696    3.03999996    2.64000010
   20.51083374  174.46699524    3.05999994    2.64000010
   20.51388931  165.81500244    3.05999994    2.64000010
   20.52000046  165.81500244    3.07999992    2.64000010
   20.52416611  168.27699280    3.05999994    2.61999989
   20.52722168  169.37300110    3.01999998    2.61999989
   20.53055573  168.12300110    3.00000000    2.64000010
   20.53388786  174.89100647    3.00000000    2.61999989
   20.53694344  172.46800232    3.05999994    2.64000010
   20.54027748  164.41099548    3.11999989    2.64000010
   20.54361153  160.41499329    3.05999994    2.61999989
   20.54666710  161.52799988    3.03999996    2.61999989
   20.54999924  157.55900574    3.09999990    2.61999989
   20.55194283  165.90899658    3.11999989    2.64000010
   20.55360985  171.60000610    3.07999992    2.64000010
   20.55694389  173.57499695    3.05999994    2.64000010
   20.56277657  173.57499695    3.05999994    2.61999989
   20.56694603  237.55799866    3.03999996    2.61999989
   20.57027817  264.73599243    3.03999996    2.64000010
   20.57333374  305.71200562    3.03999996    2.61999989
   20.57666779  213.15499878    3.03999996    2.61999989
   20.58000183  125.06300354    3.01999998    2.61999989
   20.58305550   -1.00000000    3.00000000    2.61999989
   20.58666801   -1.00000000    3.00000000    2.61999989
   20.59000015   -1.00000000    3.00000000    2.61999989
   20.59305573   -1.00000000    2.98000002    2.61999989
   20.59638977   -1.00000000    2.98000002    2.61999989
   20.59972191   -1.00000000    2.98000002    2.61999989
   20.60972214   -1.00000000    2.98000002    2.61999989
   20.61305618   -1.00000000    2.98000002    2.61999989
   20.61611176   -1.00000000    2.98000002    2.61999989
   20.61972237   -1.00000000    2.98000002    2.61999989
   20.62305641   -1.00000000    2.98000002    2.61999989
   20.62611198   -1.00000000    2.98000002    2.61999989
   20.62944412   -1.00000000    2.94000006    2.61999989
   20.63277817   -1.00000000    2.93000007    2.59999990
   20.63583374   -1.00000000    2.91000009    2.61999989
   20.63916588   -1.00000000    2.89000010    2.61999989
   20.64222145   -1.00000000    2.86999989    2.61999989
   20.65250015   -1.00000000    2.86999989    2.59999990
   20.65583229   -1.00000000    2.84999990    2.61999989
   20.65888786   -1.00000000    2.86999989    2.59999990
   20.66222191   -1.00000000    2.86999989    2.61999989
   20.66555595   -1.00000000    2.84999990    2.61999989
   20.66860962   -1.00000000    2.82999992    2.61999989
   20.67194366   -1.00000000    2.80999994    2.61999989
