    HOUR (UT)   FLARE FACTOR    SKY TESTER    SUN TESTER
   12.01305580   -1.00000000   -1.00000000   -1.00000000
   12.04555607  276.31201172    4.90999985    2.01999998
   12.04888916  259.83099365    4.90999985    2.00000000
   12.05194473  240.36099243    4.90999985    2.00000000
   12.05527782  233.76600647    4.90999985    2.00000000
   12.05861092  204.58999634    4.90999985    2.01999998
   12.06166649  187.65199280    2.00000000    2.01999998
   12.06583309  187.65199280    1.05999994    2.01999998
   12.06999969  195.28500366    0.86000001    2.01999998
   12.07333374  170.46899414    0.81999999    2.03999996
   12.07638836  181.98800659    0.83999997    2.03999996
   12.07861137  172.17300415    0.83999997    2.03999996
   12.08027744  195.29400635    0.81999999    2.03999996
   12.08333302  188.37100220    0.81999999    2.03999996
   12.08666611  187.22099304    0.81999999    2.03999996
   12.09000015  165.38299561    0.81999999    2.03999996
   12.09305477  173.38600159    0.81999999    2.03999996
   12.09638882  206.58700562    0.81999999    2.03999996
   12.09944439  212.18600464    0.81999999    2.05999994
   12.10277843  209.53999329    0.81999999    2.05999994
   12.10888958  209.53999329    0.81999999    2.05999994
   12.11277771  188.41600037    0.81999999    2.05999994
   12.11611176  187.31799316    0.81999999    2.07999992
   12.11944485  195.53700256    0.81999999    2.07999992
   12.12250042  175.08399963    0.81999999    2.07999992
   12.12583351  204.72900391    0.81999999    2.07999992
   12.12888908  187.62100220    0.81999999    2.07999992
   12.13222218  205.03999329    0.81999999    2.07999992
   12.13555527  211.78399658    0.81999999    2.09999990
   12.13861084  190.05200195    0.81999999    2.09999990
   12.14194393  192.07099915    0.81999999    2.09999990
   12.14527798  181.45100403    0.81999999    2.09999990
   12.14583302  198.21400452    0.81999999    2.09999990
   12.15166664  198.21400452    0.81999999    2.07999992
   12.15583324  210.22500610    0.80000001    2.09999990
   12.15888882  175.87899780    0.80000001    2.11999989
   12.16222191  177.82899475    0.80000001    2.11999989
   12.16527748  172.02499390    0.80000001    2.11999989
   12.16861153  169.51400757    0.80000001    2.11999989
   12.17194462  181.34300232    0.79000002    2.11999989
   12.17500019  196.99899292    0.79000002    2.13000011
   12.17833328  165.63400269    0.80000001    2.13000011
   12.17916679  191.46299744    0.79000002    2.13000011
   12.18194485  189.57299805    0.79000002    2.11999989
   12.18527794  177.64300537    0.79000002    2.13000011
   12.18833351  199.80700684    0.79000002    2.13000011
   12.19444466  199.80700684    0.79000002    2.13000011
   12.19861126  199.98399353    0.79000002    2.13000011
   12.20166683  185.38999939    0.79000002    2.13000011
   12.20499992  193.00900269    0.79000002    2.13000011
   12.20833302  201.14100647    0.79000002    2.13000011
   12.21138859  189.85400391    0.79000002    2.15000010
   12.21249962  192.03100586    0.79000002    2.15000010
   12.21500015  196.27799988    0.79000002    2.15000010
   12.21833324  200.27699280    0.76999998    2.15000010
   12.22138882  180.11700439    0.76999998    2.15000010
   12.22472191  200.41499329    0.76999998    2.15000010
   12.22805500  203.64900208    0.76999998    2.15000010
   12.23111057  186.61300659    0.76999998    2.15000010
   12.23722267  186.61300659    0.76999998    2.15000010
   12.24138927  168.26600647    0.76999998    2.15000010
   12.24472237  196.83500671    0.76999998    2.17000008
   12.24583340  185.95799255    0.76999998    2.17000008
   12.24833393  203.56100464    0.76999998    2.17000008
   12.25166702  183.35000610    0.76999998    2.17000008
   12.25472260  175.18299866    0.76999998    2.17000008
   12.25805569  194.38499451    0.76999998    2.17000008
   12.26138878  167.69700623    0.75000000    2.19000006
   12.26444435  166.84100342    0.75000000    2.19000006
   12.26777744  157.59100342    0.76999998    2.19000006
   12.27111053  170.69400024    0.76999998    2.19000006
   12.27416611  166.48599243    0.76999998    2.19000006
   12.27999973  166.48599243    0.75000000    2.19000006
   12.28416729  151.72200012    0.75000000    2.19000006
   12.28750038  169.58700562    0.75000000    2.19000006
   12.29083347  163.31900024    0.75000000    2.19000006
   12.29388905  171.10899353    0.75000000    2.21000004
   12.29722309  165.38299561    0.73000002    2.21000004
   12.30055618  177.25900269    0.73000002    2.19000006
   12.30361176  163.97500610    0.73000002    2.19000006
   12.30694485  175.10099792    0.73000002    2.21000004
   12.31000042  176.41799927    0.70999998    2.21000004
   12.31250000  170.51300049    0.73000002    2.21000004
   12.31361103  166.31700134    0.73000002    2.21000004
   12.31694412  168.57600403    0.73000002    2.21000004
   12.32305527  168.57600403    0.70999998    2.23000002
   12.32722187  168.66099548    0.70999998    2.23000002
   12.33027744  166.03199768    0.70999998    2.23000002
   12.33361053  151.36900330    0.70999998    2.23000002
   12.33694458  165.17900085    0.70999998    2.23000002
   12.34000015  151.62899780    0.69000000    2.23000002
   12.34333324  154.90800476    0.69000000    2.25000000
   12.34583282  142.88999939    0.69000000    2.25000000
   12.34694386  155.51899719    0.69000000    2.23000002
   12.35027790  157.16099548    0.69000000    2.23000002
   12.35333347  156.48899841    0.69000000    2.23000002
   12.35666752  162.35600281    0.69000000    2.25000000
   12.36000061  149.53500366    0.69000000    2.25000000
   12.36583328  149.53500366    0.67000002    2.25000000
   12.36999989  151.89300537    0.69000000    2.25000000
   12.37305546  164.28199768    0.67000002    2.25000000
   12.37638855  155.22500610    0.69000000    2.25000000
   12.37916660  164.36099243    0.69000000    2.25000000
   12.38000011  160.94599915    0.67000002    2.25000000
   12.38333321  164.89500427    0.69000000    2.25000000
   12.38638878  157.04100037    0.67000002    2.25000000
   12.38972187  149.69200134    0.69000000    2.26999998
   12.39305496  141.97799683    0.67000002    2.26999998
   12.39611053  148.64199829    0.67000002    2.25000000
   12.39944458  159.09100342    0.67000002    2.26999998
   12.40277767  165.91400146    0.67000002    2.25000000
   12.40861034  165.91400146    0.67000002    2.26999998
   12.41277695  159.86399841    0.67000002    2.26999998
   12.41611099  159.09199524    0.67000002    2.26999998
   12.41916656  155.66600037    0.67000002    2.26999998
   12.42250061  160.11300659    0.67000002    2.26999998
   12.42583370  165.04100037    0.67000002    2.26999998
   12.42888927  151.24000549    0.67000002    2.28999996
   12.43222237  150.03199768    0.67000002    2.26999998
   12.43527794  157.72999573    0.67000002    2.26999998
   12.43861103  154.00300598    0.67000002    2.26999998
   12.44194412  158.14799500    0.67000002    2.28999996
   12.44499969  144.80599976    0.67000002    2.28999996
   12.44583321  146.54699707    0.67000002    2.28999996
   12.45166683  146.54699707    0.67000002    2.28999996
   12.45555496  153.33099365    0.69000000    2.28999996
   12.45888901  151.32400513    0.67000002    2.28999996
   12.46222210  150.40899658    0.67000002    2.28999996
   12.46527767  155.21099854    0.67000002    2.28999996
   12.46861076  153.72999573    0.67000002    2.30999994
   12.47194386  158.55200195    0.64999998    2.30999994
   12.47499943  159.63400269    0.64999998    2.30999994
   12.47833252  154.16700745    0.67000002    2.30999994
   12.47916603  142.40199280    0.64999998    2.32999992
   12.48194408  148.73300171    0.67000002    2.30999994
   12.48527813  149.28199768    0.64999998    2.30999994
   12.48861122  173.57299805    0.64999998    2.30999994
   12.49444485  173.57299805    0.64999998    2.30999994
   12.49861145  142.83799744    0.64999998    2.30999994
   12.50166702  123.47399902    0.64999998    2.30999994
   12.50500011  139.16700745    0.67000002    2.32999992
   12.50805569  146.34599304    0.64999998    2.32999992
   12.51138878  144.97099304    0.64999998    2.32999992
   12.51249981  138.47399902    0.64999998    2.32999992
   12.51500034  147.19299316    0.67000002    2.32999992
   12.51833344  142.25000000    0.64999998    2.32999992
   12.52166653  136.12500000    0.67000002    2.32999992
   12.52472210  134.23699951    0.64999998    2.32999992
   12.52805519  136.27699280    0.64999998    2.32999992
   12.53111076  137.39799500    0.64999998    2.34999990
   12.53722286  137.39799500    0.64999998    2.32999992
   12.54138947  150.76100159    0.64999998    2.32999992
   12.54444504  156.79600525    0.64999998    2.32999992
   12.54583359  157.83399963    0.64999998    2.32999992
   12.54805565  146.42500305    0.64999998    2.32999992
   12.55138874  140.86099243    0.63000000    2.34999990
   12.55472279  162.69000244    0.63000000    2.34999990
   12.55777836  153.84399414    0.63000000    2.34999990
   12.56111145  143.96600342    0.63000000    2.34999990
   12.56416702  145.87699890    0.63000000    2.34999990
   12.56750011  136.45399475    0.63000000    2.34999990
   12.57083321  130.55400085    0.64999998    2.34999990
   12.57388878  127.46900177    0.64999998    2.36999989
   12.57999992  127.46900177    0.64999998    2.36999989
   12.58416653  138.28100586    0.64999998    2.36999989
   12.58749962  125.96800232    0.67000002    2.36999989
   12.59055519  138.06799316    0.64999998    2.34999990
   12.59388828  135.14900208    0.64999998    2.36999989
   12.59722233  129.28300476    0.67000002    2.36999989
   12.60027790  137.99400330    0.64999998    2.36999989
   12.60361195  137.58700562    0.64999998    2.36999989
   12.60666752  123.22100067    0.64999998    2.36999989
   12.61000061  140.35800171    0.64999998    2.36999989
   12.61250019  130.78300476    0.64999998    2.36999989
   12.61361122  143.89900208    0.64999998    2.36999989
   12.61694431  141.32699585    0.67000002    2.39000010
   12.62277794  141.32699585    0.64999998    2.39000010
   12.62694454  140.22500610    0.67000002    2.36999989
   12.63027763  141.40400696    0.67000002    2.36999989
   12.63361073  137.95599365    0.67000002    2.39000010
   12.63666630  130.97399902    0.64999998    2.39000010
   12.64000034  130.11999512    0.64999998    2.39000010
   12.64333344  141.26300049    0.64999998    2.39000010
   12.64583302  130.57800293    0.67000002    2.39000010
   12.64666653  133.42500305    0.67000002    2.39000010
   12.64999962  133.05499268    0.64999998    2.36999989
   12.65333271  133.25300598    0.64999998    2.39000010
   12.65638828  126.66699982    0.64999998    2.39000010
   12.65972137  127.59500122    0.63000000    2.39000010
   12.66583252  127.59500122    0.63000000    2.39000010
   12.66972256  137.82000732    0.63000000    2.39000010
   12.67305565  127.97200012    0.63000000    2.39000010
   12.67638874  132.44400024    0.61000001    2.39000010
   12.67916679  131.83799744    0.58999997    2.40000010
   12.67972279  130.63999939    0.58999997    2.39000010
   12.68305588  118.69300079    0.58999997    2.39000010
   12.68638897  131.38400269    0.58999997    2.40000010
   12.68944454  127.88899994    0.58999997    2.40000010
   12.69277763  136.79299927    0.56999999    2.40000010
   12.69583321  132.06199646    0.58999997    2.40000010
   12.69916630  131.29499817    0.56999999    2.40000010
   12.70249939  133.90499878    0.56999999    2.40000010
   12.70861053  133.90499878    0.56999999    2.42000008
   12.71277714  131.86099243    0.56999999    2.40000010
   12.71583271  130.88999939    0.58999997    2.40000010
   12.71916580  127.42500305    0.58999997    2.40000010
   12.72249985  126.40899658    0.58999997    2.42000008
   12.72555542  130.48699951    0.58999997    2.42000008
   12.72888851  122.15599823    0.56999999    2.40000010
   12.73222160  126.88999939    0.58999997    2.42000008
   12.73527813  125.79000092    0.58999997    2.42000008
   12.73861122  119.70999908    0.58999997    2.42000008
   12.74166679  118.45400238    0.58999997    2.42000008
   12.74499989  131.94400024    0.56999999    2.42000008
   12.74583340  133.59199524    0.56999999    2.42000008
   12.75138855  133.59199524    0.56999999    2.40000010
   12.75555515  121.40100098    0.56999999    2.42000008
   12.75888920  123.00199890    0.56999999    2.40000010
   12.76194477  110.61900330    0.56999999    2.42000008
   12.76527786  119.32399750    0.56999999    2.44000006
   12.76833344  117.48899841    0.56999999    2.42000008
   12.77166653  120.49099731    0.56999999    2.42000008
   12.77499962  118.81500244    0.56999999    2.42000008
   12.77805519  125.58399963    0.55000001    2.44000006
   12.77916622  121.34600067    0.52999997    2.44000006
   12.78166676  122.13500214    0.52999997    2.44000006
   12.78500080  117.68000031    0.52999997    2.44000006
   12.78833389  123.52200317    0.51999998    2.44000006
   12.79416752  123.52200317    0.51999998    2.44000006
   12.79833412  111.76899719    0.52999997    2.44000006
   12.80166721  121.08200073    0.52999997    2.44000006
   12.80500031  121.02799988    0.52999997    2.44000006
   12.80805588  116.88099670    0.51999998    2.46000004
   12.81138897  130.05200195    0.51999998    2.46000004
   12.81250000  123.45899963    0.51999998    2.46000004
   12.81472206  117.30100250    0.51999998    2.46000004
   12.81805515  121.58100128    0.51999998    2.46000004
   12.82138920  119.42800140    0.51999998    2.46000004
   12.82444477  126.17600250    0.51999998    2.44000006
   12.82777786  115.31999969    0.51999998    2.46000004
   12.83111095  117.16100311    0.51999998    2.46000004
   12.83722210  117.16100311    0.52999997    2.46000004
   12.84111118  108.87400055    0.51999998    2.46000004
   12.84444427  114.20300293    0.52999997    2.46000004
   12.84583282  117.58499908    0.51999998    2.46000004
   12.84833336  117.97200012    0.51999998    2.46000004
   12.85138893  106.19699860    0.51999998    2.46000004
   12.85472298  117.74099731    0.51999998    2.46000004
   12.85777855  122.90699768    0.51999998    2.46000004
   12.86111164  112.37799835    0.52999997    2.46000004
   12.86444473  106.04900360    0.51999998    2.46000004
   12.86750031  111.41100311    0.51999998    2.46000004
   12.87083340  107.55899811    0.51999998    2.46000004
   12.87416649  111.67099762    0.51999998    2.46000004
   12.88000011  111.67099762    0.50000000    2.46000004
   12.88416672  103.50800323    0.50000000    2.46000004
   12.88722229  116.64099884    0.51999998    2.46000004
   12.89055538  115.09999847    0.50000000    2.48000002
   12.89388847  115.92199707    0.50000000    2.48000002
   12.89694405  115.72699738    0.50000000    2.48000002
   12.90027714  118.64299774    0.50000000    2.46000004
   12.90333271  117.56400299    0.50000000    2.48000002
   12.90666676  107.59600067    0.50000000    2.46000004
   12.90999985  116.01699829    0.50000000    2.46000004
   12.91249943  117.93099976    0.50000000    2.48000002
   12.91333294  116.29399872    0.51999998    2.48000002
   12.91666698  110.75700378    0.51999998    2.48000002
   12.92277813  110.75700378    0.51999998    2.48000002
   12.92694473  113.16899872    0.51999998    2.48000002
   12.93027782  101.27200317    0.51999998    2.48000002
   12.93333340  108.52799988    0.51999998    2.48000002
   12.93666649  106.28099823    0.51999998    2.48000002
   12.93972206  114.59100342    0.51999998    2.48000002
   12.94305515  109.44799805    0.51999998    2.48000002
   12.94583321  117.97299957    0.51999998    2.48000002
   12.94694424  109.18499756    0.51999998    2.48000002
   12.94999981  104.87599945    0.55000001    2.48000002
   12.95333290  123.53700256    0.55000001    2.50000000
   12.95638847  114.09400177    0.55000001    2.50000000
   12.95972157  111.13700104    0.55000001    2.50000000
   12.96555519  111.13700104    0.52999997    2.50000000
   12.96972179  106.69599915    0.52999997    2.50000000
   12.97305489  102.29799652    0.52999997    2.50000000
   12.97638798  115.26699829    0.52999997    2.48000002
   12.97916603  117.99400330    0.52999997    2.48000002
   12.97999954  116.34999847    0.51999998    2.50000000
   12.98305511  115.60900116    0.51999998    2.50000000
   12.98638916  118.36900330    0.50000000    2.50000000
   12.98944473  113.22200012    0.51999998    2.50000000
   12.99277782  110.99800110    0.51999998    2.50000000
   12.99611092  112.20300293    0.51999998    2.50000000
   12.99916649  114.49199677    0.51999998    2.51999998
   13.00249958  112.97100067    0.51999998    2.51999998
   13.00861073  112.97100067    0.51999998    2.50000000
   13.01249981  111.59100342    0.51999998    2.50000000
   13.01583290  108.64099884    0.51999998    2.50000000
   13.01916599  103.52100372    0.51999998    2.50000000
   13.02222157  114.91600037    0.51999998    2.51999998
   13.02555561  109.54000092    0.51999998    2.51999998
   13.02888870  100.51899719    0.51999998    2.50000000
   13.03194427  118.74099731    0.51999998    2.50000000
   13.03527832  108.95800018    0.51999998    2.51999998
   13.03861141  107.65200043    0.51999998    2.51999998
   13.04166698  108.46700287    0.51999998    2.51999998
   13.04500008  109.87300110    0.51999998    2.51999998
   13.04583359  113.10500336    0.51999998    2.51999998
   13.06638908  113.10500336    0.50000000    2.51999998
   13.07055569  140.45300293    0.50000000    2.51999998
   13.07388878  128.79200745    0.50000000    2.51999998
   13.07722187  128.16499329    0.50000000    2.51999998
   13.07916641  131.08200073    0.50000000    2.51999998
   13.08083344  137.33000183    0.50000000    2.51999998
   13.08388901  122.74600220    0.50000000    2.53999996
   13.08722210  118.98999786    0.50000000    2.53999996
   13.09055519  125.39499664    0.50000000    2.51999998
   13.09361076  131.07800293    0.50000000    2.51999998
   13.09694386  137.19700623    0.51999998    2.51999998
   13.10000038  124.68900299    0.51999998    2.51999998
   13.10333347  116.58699799    0.50000000    2.51999998
   13.10916710  116.58699799    0.51999998    2.53999996
   13.11333370  130.85400391    0.50000000    2.53999996
   13.11666679  123.79100037    0.51999998    2.51999998
   13.11972237  131.60899353    0.51999998    2.53999996
   13.12305546  125.33300018    0.50000000    2.53999996
   13.12638855  131.53199768    0.50000000    2.53999996
   13.12944412  137.28100586    0.50000000    2.53999996
   13.13277817  134.88099670    0.50000000    2.53999996
   13.13611126  127.40200043    0.50000000    2.53999996
   13.13916683  135.80200195    0.50000000    2.53999996
   13.14249992  126.87000275    0.51999998    2.53999996
   13.14555550  127.11900330    0.50000000    2.53999996
   13.14638901  136.87500000    0.50000000    2.53999996
   13.15222168  136.87500000    0.50000000    2.53999996
   13.15611076  138.73800659    0.50000000    2.55999994
   13.15944386  138.45399475    0.50000000    2.53999996
   13.16277695  137.59100342    0.50000000    2.53999996
   13.16583252  137.97300720    0.50000000    2.53999996
   13.16916656  139.93699646    0.47999999    2.53999996
   13.17250061  145.34599304    0.47999999    2.55999994
   13.17555618  133.57099915    0.47999999    2.55999994
   13.17888927  134.65499878    0.47999999    2.55999994
   13.17944431  135.70599365    0.47999999    2.55999994
   13.18249989  137.46499634    0.47999999    2.53999996
   13.18583298  128.20899963    0.47999999    2.55999994
   13.18888855  139.80700684    0.47999999    2.55999994
   13.19499969  139.80700684    0.46000001    2.53999996
   13.19916630  132.85000610    0.46000001    2.55999994
   13.20222187  133.23300171    0.46000001    2.53999996
   13.20555496  141.28799438    0.47999999    2.55999994
   13.20888901  139.67799377    0.46000001    2.55999994
   13.21194458  135.62899780    0.46000001    2.55999994
   13.21277714  149.50399780    0.46000001    2.55999994
   13.21555519  143.74800110    0.47999999    2.55999994
   13.21888828  129.04499817    0.46000001    2.55999994
   13.22194386  132.95599365    0.46000001    2.55999994
   13.22527695  136.46499634    0.46000001    2.55999994
   13.22861099  131.27600098    0.47999999    2.55999994
   13.23166656  139.45599365    0.47999999    2.55999994
   13.23777771  139.45599365    0.47999999    2.55999994
   13.24194431  134.34300232    0.47999999    2.55999994
   13.24527836  139.13800049    0.47999999    2.55999994
   13.24611092  144.50199890    0.47999999    2.55999994
   13.24888897  132.49699402    0.47999999    2.55999994
   13.25222206  137.13000488    0.47999999    2.55999994
   13.25527763  140.95700073    0.47999999    2.55999994
   13.25861073  144.67399597    0.47999999    2.55999994
   13.26194477  137.17799377    0.47999999    2.55999994
   13.26500034  139.63499451    0.47999999    2.55999994
   13.26833344  128.23699951    0.47999999    2.57999992
   13.27138901  132.01199341    0.47999999    2.55999994
   13.27472210  130.16200256    0.47999999    2.55999994
   13.28055573  130.16200256    0.47999999    2.57999992
   13.28472233  137.84100342    0.47999999    2.55999994
   13.28805637  131.82200623    0.47999999    2.55999994
   13.29111195  141.84899902    0.47999999    2.57999992
   13.29444504  143.80400085    0.47999999    2.57999992
   13.29777813  135.43899536    0.47999999    2.57999992
   13.30083370  125.22699738    0.47999999    2.57999992
   13.30416679  122.57499695    0.47999999    2.55999994
   13.30749989  134.47200012    0.47999999    2.57999992
   13.31055546  139.08000183    0.47999999    2.57999992
   13.31277752  120.02100372    0.47999999    2.57999992
   13.31416702  130.17799377    0.47999999    2.57999992
   13.31750011  132.46800232    0.47999999    2.59999990
   13.32361126  132.46800232    0.47999999    2.57999992
   13.32750034  134.19200134    0.47999999    2.57999992
   13.33083344  129.98199463    0.47999999    2.57999992
   13.33416653  134.21600342    0.47999999    2.57999992
   13.33722210  139.65600586    0.47999999    2.57999992
   13.34055519  133.28500366    0.47999999    2.57999992
   13.34388828  133.97099304    0.47999999    2.57999992
   13.34611034  138.74499512    0.47999999    2.57999992
   13.34749985  126.11799622    0.47999999    2.57999992
   13.35083389  138.94500732    0.47999999    2.57999992
   13.35388947  139.72099304    0.47999999    2.59999990
   13.35722256  133.02699280    0.47999999    2.57999992
   13.36055565  124.16100311    0.47999999    2.57999992
   13.36638927  124.16100311    0.47999999    2.57999992
   13.37055588  131.52200317    0.47999999    2.57999992
   13.37388897  127.53600311    0.46000001    2.57999992
   13.37694454  130.95700073    0.46000001    2.59999990
   13.37944412  132.53399658    0.46000001    2.59999990
   13.38055611  136.55000305    0.47999999    2.59999990
   13.38388920  128.75199890    0.47999999    2.59999990
   13.38694477  121.40100098    0.47999999    2.59999990
   13.39027786  127.06900024    0.46000001    2.59999990
   13.39361095  123.47200012    0.46000001    2.59999990
   13.39666653  130.32899475    0.46000001    2.59999990
   13.39999962  121.80699921    0.46000001    2.59999990
   13.40333271  135.24400330    0.46000001    2.59999990
   13.40916634  135.24400330    0.46000001    2.59999990
   13.41333294  121.16200256    0.46000001    2.59999990
   13.41666698  118.36499786    0.46000001    2.59999990
   13.41972256  127.87000275    0.46000001    2.59999990
   13.42305565  122.72899628    0.46000001    2.59999990
   13.42611122  117.76399994    0.46000001    2.59999990
   13.42944431  115.45999908    0.46000001    2.59999990
   13.43277836  120.11100006    0.46000001    2.59999990
   13.43583298  116.85199738    0.46000001    2.59999990
   13.43916702  124.48899841    0.46000001    2.59999990
   13.44250011  132.61199951    0.46000001    2.59999990
   13.44555569  120.91600037    0.46000001    2.59999990
   13.44611073  118.50199890    0.46000001    2.59999990
   13.45194435  118.50199890    0.46000001    2.59999990
   13.45611095  130.17799377    0.46000001    2.61999989
   13.45944405  119.21199799    0.46000001    2.61999989
   13.46249962  117.06800079    0.46000001    2.59999990
   13.46583271  123.17600250    0.46000001    2.59999990
   13.46916580  122.04299927    0.46000001    2.59999990
   13.47222137  118.29799652    0.47999999    2.61999989
   13.47555542  115.76799774    0.47999999    2.61999989
   13.47888851  118.26999664    0.47999999    2.59999990
   13.47972202  126.71299744    0.47999999    2.61999989
   13.48222160  122.88099670    0.47999999    2.61999989
   13.48555565  130.76100159    0.47999999    2.59999990
   13.48888874  120.58799744    0.47999999    2.59999990
   13.49499989  120.58799744    0.47999999    2.61999989
   13.49888897  117.08699799    0.47999999    2.61999989
   13.50222206  124.51999664    0.47999999    2.61999989
   13.50555515  116.71700287    0.47999999    2.61999989
   13.50861073  120.22599792    0.47999999    2.61999989
   13.51194477  123.45500183    0.47999999    2.61999989
   13.51277733  122.01799774    0.47999999    2.61999989
   13.51555538  123.62300110    0.47999999    2.61999989
   13.51888847  115.53700256    0.47999999    2.59999990
   13.52194405  117.34600067    0.47999999    2.61999989
   13.52527714  115.10800171    0.47999999    2.61999989
   13.52861118  118.55899811    0.47999999    2.61999989
   13.53166676  112.73200226    0.47999999    2.61999989
   13.53777790  112.73200226    0.46000001    2.61999989
   13.54194450  123.91200256    0.47999999    2.61999989
   13.54500008  115.23999786    0.47999999    2.61999989
   13.54638958  118.11799622    0.46000001    2.61999989
   13.54861164  116.27300262    0.47999999    2.61999989
   13.55194473  120.62200165    0.47999999    2.61999989
   13.55500031  114.04699707    0.47999999    2.61999989
   13.55833340  118.14499664    0.47999999    2.64000010
   13.56166649  106.48699951    0.46000001    2.64000010
   13.56500053  107.36199951    0.47999999    2.61999989
   13.56805515  117.51499939    0.47999999    2.61999989
   13.57138920  112.01499939    0.47999999    2.61999989
   13.57444477  116.38300323    0.47999999    2.61999989
   13.58055592  116.38300323    0.47999999    2.64000010
   13.58472157  103.55100250    0.47999999    2.64000010
   13.58805561  112.65200043    0.47999999    2.64000010
   13.59111118  108.63200378    0.47999999    2.64000010
   13.59444427  116.12400055    0.47999999    2.64000010
   13.59749985  112.77400208    0.47999999    2.61999989
   13.60083389  113.60500336    0.47999999    2.64000010
   13.60416698  118.47000122    0.47999999    2.64000010
   13.60722256  112.34899902    0.47999999    2.61999989
   13.61055565  113.18499756    0.47999999    2.64000010
   13.61305618  122.18699646    0.47999999    2.64000010
   13.61416721  125.58499908    0.47999999    2.64000010
   13.61750031  120.31700134    0.46000001    2.61999989
   13.62333393  120.31700134    0.47999999    2.64000010
   13.62750053  118.40299988    0.46000001    2.64000010
   13.63083363  126.72100067    0.46000001    2.64000010
   13.63388920  107.57900238    0.46000001    2.64000010
   13.63722229  110.76699829    0.46000001    2.64000010
   13.64055538  115.43199921    0.44000000    2.64000010
   13.64361095  118.77700043    0.46000001    2.64000010
   13.64638901  116.79399872    0.44000000    2.64000010
   13.64722252  118.97000122    0.44000000    2.64000010
   13.65055561  120.33899689    0.44000000    2.64000010
   13.65361118  116.86100006    0.44000000    2.64000010
   13.65694427  112.92400360    0.44000000    2.64000010
   13.66027737  110.09700012    0.46000001    2.64000010
   13.66638851  110.09700012    0.46000001    2.64000010
   13.67027855  114.66999817    0.44000000    2.64000010
   13.67361164  119.93299866    0.44000000    2.64000010
   13.67694473  114.52100372    0.44000000    2.64000010
   13.67972279  116.76699829    0.44000000    2.64000010
   13.68055630  109.35500336    0.46000001    2.64000010
   13.68388939  115.00800323    0.44000000    2.64000010
   13.68694496  119.06700134    0.44000000    2.64000010
   13.69027805  108.57299805    0.44000000    2.64000010
   13.69361115  112.95800018    0.46000001    2.64000010
   13.69666672  119.33300018    0.46000001    2.64000010
   13.69999981  109.52100372    0.44000000    2.64000010
   13.70333290  118.60600281    0.44000000    2.64000010
   13.70916653  118.60600281    0.44000000    2.64000010
   13.71333313  117.17500305    0.44000000    2.64000010
   13.71638870  117.55999756    0.46000001    2.64000010
   13.71972179  112.31500244    0.46000001    2.64000010
   13.72305489  117.43800354    0.46000001    2.66000009
   13.72611046  109.65399933    0.46000001    2.66000009
   13.72944355  115.29499817    0.46000001    2.64000010
   13.73249912  105.34300232    0.46000001    2.66000009
   13.73583317  118.43099976    0.47999999    2.66000009
   13.73916721  112.59899902    0.46000001    2.64000010
   13.74222279  108.69599915    0.46000001    2.64000010
   13.74555588  114.65499878    0.46000001    2.66000009
   13.74638939  110.25299835    0.46000001    2.64000010
   13.75194454  110.25299835    0.47999999    2.66000009
   13.75611115  110.38300323    0.46000001    2.66000009
   13.75944424  113.01300049    0.47999999    2.66000009
   13.76249981  120.06600189    0.47999999    2.66000009
   13.76583290  108.28199768    0.47999999    2.66000009
   13.76888847  108.01899719    0.47999999    2.66000009
   13.77222157  122.04699707    0.47999999    2.66000009
   13.77555561  112.17400360    0.47999999    2.66000009
   13.77861118  106.23000336    0.47999999    2.64000010
   13.77972221  106.06400299    0.47999999    2.66000009
   13.78222179  113.03500366    0.47999999    2.66000009
   13.78555584  109.92500305    0.47999999    2.66000009
   13.78888893  106.46499634    0.47999999    2.66000009
   13.79472256  106.46499634    0.46000001    2.66000009
   13.79888916  106.35399628    0.47999999    2.66000009
   13.80222225  109.23000336    0.47999999    2.66000009
   13.80527782  112.74600220    0.47999999    2.66000009
   13.80861092  111.46199799    0.47999999    2.66000009
   13.81194496  109.35700226    0.47999999    2.66000009
   13.81305599  105.25199890    0.47999999    2.66000009
   13.81527805  104.49600220    0.47999999    2.66000009
   13.81861115  110.48000336    0.47999999    2.66000009
   13.82194424  109.17800140    0.47999999    2.66000009
   13.82499981  107.00099945    0.47999999    2.66000009
   13.82833290  101.65699768    0.47999999    2.67000008
   13.83138847  114.82199860    0.47999999    2.66000009
   13.83749962  114.82199860    0.47999999    2.66000009
   13.84166622  110.10800171    0.47999999    2.66000009
   13.84499931  104.83499908    0.47999999    2.66000009
   13.84638882  107.58899689    0.47999999    2.66000009
   13.84861088  102.28399658    0.50000000    2.67000008
   13.85194492  100.99800110    0.50000000    2.66000009
   13.85527802  108.04499817    0.47999999    2.66000009
   13.85833359   96.83570099    0.47999999    2.66000009
   13.86166668  106.56400299    0.47999999    2.66000009
   13.86472225  107.37300110    0.47999999    2.67000008
   13.86805534  112.17099762    0.47999999    2.67000008
   13.87138939  106.85099792    0.47999999    2.67000008
   13.87444496  105.15699768    0.47999999    2.67000008
   13.88055611  105.15699768    0.47999999    2.67000008
   13.88472176  103.63999939    0.47999999    2.66000009
   13.88777733  102.67900085    0.47999999    2.66000009
   13.89111137  107.94000244    0.47999999    2.66000009
   13.89416695  105.18599701    0.47999999    2.66000009
   13.89750004  110.00199890    0.47999999    2.67000008
   13.90083313  114.31199646    0.47999999    2.66000009
   13.90416622  107.69499969    0.47999999    2.66000009
   13.90722179  101.78299713    0.47999999    2.67000008
   13.91055489  105.76300049    0.47999999    2.67000008
   13.91305542  105.21700287    0.47999999    2.67000008
   13.91416645  109.28099823    0.47999999    2.66000009
   13.91750050  112.17800140    0.47999999    2.67000008
   13.92333412  112.17800140    0.47999999    2.67000008
   13.92750072  100.20800018    0.47999999    2.66000009
   13.93055630  102.37300110    0.47999999    2.67000008
   13.93388939  102.24299622    0.47999999    2.67000008
   13.93722248  102.75599670    0.47999999    2.67000008
   13.94027805  103.97799683    0.47999999    2.67000008
   13.94361115  101.37400055    0.47999999    2.67000008
   13.94638920  102.28700256    0.47999999    2.67000008
   13.94722271   94.56159973    0.47999999    2.67000008
   13.95055580   92.32929993    0.47999999    2.67000008
   13.95388889  105.19400024    0.47999999    2.67000008
   13.95694447   95.40979767    0.47999999    2.67000008
   13.96027756  103.44699860    0.47999999    2.67000008
   13.96611118  103.44699860    0.46000001    2.67000008
   13.97027779  104.53600311    0.46000001    2.67000008
   13.97361088  104.02999878    0.46000001    2.67000008
   13.97666645  100.03199768    0.47999999    2.67000008
   13.97972202  101.06099701    0.47999999    2.67000008
   13.98027706  100.13300323    0.47999999    2.67000008
   13.98361111  104.55999756    0.47999999    2.67000008
   13.98694515   94.32479858    0.47999999    2.67000008
   13.99000072  109.96299744    0.51999998    2.69000006
   13.99333382  102.34899902    0.51999998    2.67000008
   13.99666691   93.49440002    0.51999998    2.67000008
   13.99972248   97.87239838    0.51999998    2.67000008
   14.00305557   95.77680206    0.51999998    2.67000008
   14.00888920   95.77680206    0.51999998    2.67000008
   14.01305580  100.50800323    0.51999998    2.69000006
   14.01638889   97.38150024    0.51999998    2.69000006
   14.01972198  107.33200073    0.51999998    2.66000009
   14.02277756  105.53399658    0.52999997    2.67000008
   14.02611065  102.63500214    0.51999998    2.67000008
   14.02916622  106.91300201    0.51999998    2.67000008
   14.03249931   99.50460052    0.51999998    2.67000008
   14.03583336  103.44499969    0.51999998    2.69000006
   14.03888893  100.02400208    0.51999998    2.67000008
   14.04222298  103.48600006    0.52999997    2.67000008
   14.04555607  100.64700317    0.52999997    2.69000006
   14.04638958  102.13099670    0.52999997    2.69000006
   14.05194473  102.13099670    0.51999998    2.67000008
   14.05611134   97.78939819    0.51999998    2.69000006
   14.05916691   99.65070343    0.51999998    2.67000008
   14.06250000   99.89969635    0.51999998    2.69000006
   14.07999992  116.92199707    0.51999998    2.69000006
   14.08249950  111.00099945    0.52999997    2.69000006
   14.08555508  123.34899902    0.51999998    2.69000006
   14.08888817  109.09100342    0.52999997    2.69000006
   14.09499931  109.09100342    0.52999997    2.69000006
   14.09888840  123.91400146    0.51999998    2.69000006
   14.10222244  118.06600189    0.52999997    2.69000006
   14.10555553  129.81300354    0.51999998    2.69000006
   14.10861111  120.50399780    0.52999997    2.69000006
   14.11194515  120.77899933    0.51999998    2.69000006
   14.11333370  121.44899750    0.51999998    2.69000006
   14.11583328  120.07900238    0.51999998    2.69000006
   14.11888885  125.79799652    0.51999998    2.69000006
   14.12222195  121.31600189    0.52999997    2.69000006
   14.12527752  122.71299744    0.52999997    2.69000006
   14.12861156  121.45200348    0.52999997    2.69000006
   14.13194466  118.07800293    0.51999998    2.69000006
   14.13777733  118.07800293    0.52999997    2.69000006
   14.14194393  112.91600037    0.52999997    2.69000006
   14.14499950  115.06300354    0.52999997    2.69000006
   14.14666653  113.67900085    0.52999997    2.69000006
   14.14888859  121.70700073    0.52999997    2.69000006
   14.15194416  119.17299652    0.52999997    2.69000006
   14.15527725  115.40699768    0.52999997    2.69000006
   14.15833282  119.09100342    0.52999997    2.69000006
   14.16166592  121.41000366    0.52999997    2.69000006
   14.16499996  117.75800323    0.55000001    2.69000006
   14.16805553  113.39399719    0.55000001    2.69000006
   14.17138958  120.71099854    0.52999997    2.69000006
   14.17472267  117.62599945    0.55000001    2.69000006
   14.18055630  117.62599945    0.55000001    2.71000004
   14.18472195  114.64399719    0.52999997    2.69000006
   14.18805599  126.36000061    0.52999997    2.69000006
   14.19111156  120.95899963    0.55000001    2.71000004
   14.19444466  119.93199921    0.55000001    2.69000006
   14.19750023  118.25499725    0.55000001    2.71000004
   14.20083332  114.63700104    0.55000001    2.71000004
   14.20416641  115.33300018    0.55000001    2.71000004
   14.20722198  118.13099670    0.55000001    2.69000006
   14.21055508  118.22699738    0.55000001    2.71000004
   14.21333313  113.21499634    0.55000001    2.71000004
   14.21388912  120.29799652    0.55000001    2.71000004
   14.21722221  117.40799713    0.56999999    2.71000004
   14.22333336  117.40799713    0.56999999    2.71000004
   14.22749996  121.61100006    0.56999999    2.71000004
   14.23083305  114.62000275    0.56999999    2.71000004
   14.23388958  116.63999939    0.56999999    2.71000004
   14.23722267  117.85199738    0.55000001    2.69000006
   14.24055576  117.60199738    0.55000001    2.71000004
   14.24361134  113.76100159    0.52999997    2.71000004
   14.24666691  117.06700134    0.55000001    2.71000004
   14.24750042  113.76499939    0.55000001    2.71000004
   14.25055599  116.16699982    0.55000001    2.71000004
   14.25388908  117.43599701    0.55000001    2.71000004
   14.25694466  107.09500122    0.52999997    2.71000004
   14.26027775  123.37699890    0.52999997    2.71000004
   14.26638889  123.37699890    0.52999997    2.71000004
   14.27027798  111.26300049    0.52999997    2.71000004
   14.27361107  115.18000031    0.52999997    2.71000004
   14.27694416  112.46099854    0.52999997    2.69000006
   14.27999973  115.97599792    0.52999997    2.71000004
   14.28055573  115.94799805    0.52999997    2.71000004
   14.28361130  113.44200134    0.52999997    2.71000004
   14.28694534  112.96099854    0.52999997    2.71000004
   14.29000092  110.13899994    0.52999997    2.71000004
   14.29333401  116.92800140    0.52999997    2.71000004
   14.29666710  110.29599762    0.52999997    2.71000004
   14.29972267  108.98600006    0.55000001    2.71000004
   14.30305576  117.56700134    0.52999997    2.71000004
   14.30916691  117.56700134    0.55000001    2.71000004
   14.31333351  110.64399719    0.55000001    2.71000004
   14.31388950  119.13500214    0.52999997    2.71000004
   14.31694412  112.47100067    0.52999997    2.71000004
   14.32027817  107.37799835    0.52999997    2.71000004
   14.32333374  121.07599640    0.51999998    2.71000004
   14.32666683  110.54000092    0.51999998    2.71000004
   14.32999992  115.52400208    0.51999998    2.71000004
   14.33305550  109.79000092    0.51999998    2.71000004
   14.33638859  117.95099640    0.51999998    2.71000004
   14.33972168  122.86900330    0.51999998    2.71000004
   14.34277725  117.01699829    0.51999998    2.71000004
   14.34611034  115.83599854    0.51999998    2.71000004
   14.34666634  114.88500214    0.51999998    2.71000004
   14.35194492  114.88500214    0.51999998    2.71000004
   14.35611153  121.23500061    0.51999998    2.73000002
   14.35944462  112.08399963    0.51999998    2.71000004
   14.36250019  113.53199768    0.50000000    2.71000004
   14.36583328  121.31400299    0.47999999    2.71000004
   14.36888885  115.62899780    0.50000000    2.71000004
   14.37222195  117.27899933    0.50000000    2.71000004
   14.37555599  112.35500336    0.50000000    2.71000004
   14.37861156  120.75700378    0.47999999    2.71000004
   14.38000011  124.36900330    0.47999999    2.71000004
   14.38249969  109.82900238    0.47999999    2.71000004
   14.38555527  113.49700165    0.47999999    2.71000004
   14.38888836  111.65599823    0.47999999    2.71000004
   14.39472198  111.65599823    0.47999999    2.71000004
   14.39888859  113.70500183    0.46000001    2.71000004
   14.40222168  121.59600067    0.46000001    2.73000002
   14.40555477  119.12799835    0.46000001    2.71000004
   14.40861034  122.58100128    0.46000001    2.71000004
   14.41194439  127.28600311    0.46000001    2.73000002
   14.41333294  118.72799683    0.46000001    2.73000002
   14.41555500  122.14299774    0.46000001    2.73000002
   14.41861153  120.27300262    0.46000001    2.73000002
   14.42194462  118.76200104    0.44000000    2.73000002
   14.42527771  124.77200317    0.44000000    2.73000002
   14.42833328  123.14499664    0.44000000    2.71000004
   14.43166733  111.95400238    0.44000000    2.73000002
   14.43777752  111.95400238    0.44000000    2.73000002
   14.44166660  121.27200317    0.41999999    2.73000002
   14.44499969  125.31600189    0.41999999    2.73000002
   14.44666672  123.57599640    0.41999999    2.71000004
   14.44861126  120.01000214    0.41999999    2.71000004
   14.45166683  121.57599640    0.41999999    2.73000002
   14.45499992  125.89399719    0.41999999    2.73000002
   14.45833302  119.52600098    0.41999999    2.73000002
   14.46138859  122.08999634    0.41999999    2.73000002
   14.46472168  120.52700043    0.41999999    2.73000002
   14.46777725  114.40599823    0.41999999    2.73000002
   14.47111034  114.78199768    0.41999999    2.73000002
   14.47444439  114.31099701    0.41999999    2.73000002
   14.48055553  114.31099701    0.40000001    2.73000002
   14.48472214  118.40699768    0.40000001    2.73000002
   14.48777771  116.72299957    0.40000001    2.73000002
   14.49111176  114.02300262    0.40000001    2.75000000
   14.49444485  117.03800201    0.40000001    2.73000002
   14.49750042  111.89499664    0.40000001    2.73000002
   14.50083351  111.65899658    0.40000001    2.73000002
   14.50416660  113.11900330    0.40000001    2.73000002
   14.50722218  117.11199951    0.40000001    2.73000002
   14.51055527  110.80400085    0.40000001    2.73000002
   14.51333332  114.77899933    0.40000001    2.73000002
   14.51416683  115.38800049    0.40000001    2.73000002
   14.51722240  111.63200378    0.40000001    2.73000002
   14.52333355  111.63200378    0.40000001    2.75000000
   14.52750015  112.08399963    0.40000001    2.73000002
   14.53083324  112.65899658    0.40000001    2.73000002
   14.53388977  120.72799683    0.40000001    2.73000002
   14.53722286  118.55400085    0.40000001    2.73000002
   14.54027843  118.83699799    0.40000001    2.73000002
   14.54361153  118.72699738    0.41999999    2.73000002
   14.54666710  104.25499725    0.40000001    2.73000002
   14.54722309  121.55799866    0.40000001    2.73000002
   14.55027771  119.40200043    0.41999999    2.73000002
   14.55361176  122.35500336    0.40000001    2.73000002
   14.55694485  118.92500305    0.41999999    2.73000002
   14.56000042  121.79399872    0.41999999    2.73000002
   14.56611156  121.79399872    0.41999999    2.73000002
   14.57027817  113.07900238    0.41999999    2.73000002
   14.57361126  126.23899841    0.41999999    2.73000002
   14.57666683  123.62200165    0.40000001    2.73000002
   14.57999992  122.09400177    0.40000001    2.73000002
   14.58055592  124.31800079    0.40000001    2.73000002
   14.58361053  119.32800293    0.40000001    2.75000000
   14.58694458  125.09400177    0.40000001    2.73000002
   14.59027767  115.94200134    0.40000001    2.73000002
   14.59333324  112.95600128    0.40000001    2.73000002
   14.59666634  125.79499817    0.41999999    2.75000000
   14.60000038  119.51000214    0.41999999    2.75000000
   14.60305595  118.74299622    0.40000001    2.73000002
   14.60916710  118.74299622    0.40000001    2.73000002
   14.61305618  125.23000336    0.40000001    2.73000002
   14.61361122  114.70800018    0.40000001    2.73000002
   14.61694431  116.13200378    0.40000001    2.75000000
   14.62027836  121.52500153    0.40000001    2.73000002
   14.62333393  115.80599976    0.40000001    2.73000002
   14.62666702  126.98100281    0.40000001    2.75000000
   14.63000011  122.69400024    0.40000001    2.75000000
   14.63305569  127.27999878    0.40000001    2.73000002
   14.63638878  124.85299683    0.40000001    2.75000000
   14.63972187  133.35400391    0.40000001    2.75000000
   14.64305496  127.42900085    0.40000001    2.73000002
   14.64611053  124.34600067    0.40000001    2.73000002
   14.64694405  137.99899292    0.40000001    2.73000002
   14.65194416  137.99899292    0.40000001    2.75000000
   14.65611076  124.62599945    0.40000001    2.73000002
   14.65916634  132.82099915    0.40000001    2.73000002
   14.66249943  123.28800201    0.40000001    2.73000002
   14.66583252  129.72000122    0.40000001    2.75000000
   14.66888905  121.90899658    0.38000000    2.75000000
   14.67222214  121.98500061    0.40000001    2.75000000
   14.67555618  120.10299683    0.38000000    2.75000000
   14.67861176  130.12600708    0.40000001    2.75000000
   14.68027782  120.78600311    0.40000001    2.75000000
   14.68222237  121.50199890    0.40000001    2.73000002
   14.68555546  121.98200226    0.40000001    2.73000002
   14.68861103  123.33399963    0.40000001    2.75000000
   14.69472218  123.33399963    0.40000001    2.73000002
   14.69888878  112.47000122    0.40000001    2.75000000
   14.70222187  117.17600250    0.38000000    2.73000002
   14.70527744  121.78800201    0.38000000    2.73000002
   14.70861053  125.65000153    0.38000000    2.75000000
   14.71166611  112.99900055    0.38000000    2.75000000
   14.71361065  126.81300354    0.38000000    2.75000000
   14.71555519  119.34999847    0.38000000    2.75000000
   14.71888828  123.76899719    0.38000000    2.75000000
   14.72194386  124.18199921    0.40000001    2.73000002
   14.72527695  117.62699890    0.40000001    2.73000002
   14.72861099  119.12999725    0.38000000    2.75000000
   14.73166656  126.63899994    0.40000001    2.75000000
   14.73750019  126.63899994    0.40000001    2.75000000
   14.74166679  130.83299255    0.40000001    2.75000000
   14.74499989  122.89399719    0.40000001    2.75000000
   14.74694443  129.69299316    0.40000001    2.75000000
   14.74861145  119.94300079    0.40000001    2.75000000
   14.75194454  121.51300049    0.38000000    2.75000000
   14.75500011  126.48500061    0.38000000    2.75000000
   14.75833321  125.15899658    0.40000001    2.73000002
   14.76166630  124.16300201    0.36000001    2.75000000
   14.76472187  124.54900360    0.36000001    2.75000000
   14.76805496  128.25500488    0.36000001    2.75000000
   14.77138901  118.85399628    0.36000001    2.75000000
   14.77444458  125.34999847    0.38000000    2.75000000
   14.78055573  125.34999847    0.36000001    2.75000000
   14.78444481  128.48800659    0.36000001    2.75000000
   14.78777790  116.10500336    0.34000000    2.75000000
   14.79111195  116.80899811    0.34000000    2.75000000
   14.79416752  123.05000305    0.36000001    2.75000000
   14.79750061  126.02400208    0.36000001    2.75000000
   14.80083370  123.83300018    0.34000000    2.75000000
   14.80388927  121.01100159    0.34000000    2.75000000
   14.80722237  111.31099701    0.34000000    2.75000000
   14.81027794  122.09600067    0.34000000    2.75000000
   14.81361103  118.06600189    0.34000000    2.75000000
   14.81416702  115.74099731    0.34000000    2.75000000
   14.81750011  116.56700134    0.34000000    2.73000002
   14.82333374  116.56700134    0.34000000    2.75000000
   14.82750034  118.70999908    0.34000000    2.75000000
   14.83055592  127.00700378    0.34000000    2.75000000
   14.83388901  122.73200226    0.34000000    2.75000000
   14.83722210  121.84400177    0.34000000    2.76999998
   14.84027767  117.67199707    0.34000000    2.75000000
   14.84361076  118.02100372    0.34000000    2.75000000
   14.84694386  130.22700500    0.34000000    2.76999998
   14.84749985  114.83000183    0.34000000    2.76999998
   14.85055637  114.52100372    0.34000000    2.75000000
   14.85361195  111.42299652    0.34000000    2.75000000
   14.85694504  121.69200134    0.34000000    2.75000000
   14.86027813  111.76300049    0.31999999    2.75000000
   14.86611176  111.76300049    0.31999999    2.75000000
   14.87027836  113.85900116    0.31999999    2.75000000
   14.87361145  110.28700256    0.31999999    2.75000000
   14.87666702  107.20400238    0.31999999    2.75000000
   14.88000011  118.41000366    0.31999999    2.75000000
   14.88083363  125.23400116    0.31999999    2.75000000
   14.88361073  115.48799896    0.31999999    2.75000000
   14.88666630  115.93000031    0.31999999    2.75000000
   14.89000034  125.79299927    0.31999999    2.75000000
   14.89333344  116.91300201    0.31999999    2.75000000
   14.89638901  117.17299652    0.31999999    2.75000000
   14.89972210  121.06999969    0.31999999    2.75000000
   14.90277767  118.95700073    0.34000000    2.76999998
   14.90888882  118.95700073    0.34000000    2.75000000
   14.91305542  125.46600342    0.38000000    2.75000000
   14.91416645  126.91200256    0.38000000    2.75000000
   14.91694450  121.12000275    0.38000000    2.75000000
   14.92000008  125.43299866    0.38000000    2.75000000
   14.92333412  115.60900116    0.38000000    2.76999998
   14.92666721  117.81999969    0.38000000    2.75000000
   14.92972279  122.56600189    0.38000000    2.75000000
   14.93305588  121.23000336    0.38000000    2.75000000
   14.93611145  119.70099640    0.38000000    2.76999998
   14.93944454  122.39399719    0.38000000    2.76999998
   14.94277763  121.93699646    0.38000000    2.76999998
   14.94583321  115.22599792    0.38000000    2.75000000
   14.94750023  115.71800232    0.40000001    2.75000000
   14.95194435  115.71800232    0.40000001    2.75000000
   14.95611095  113.79599762    0.38000000    2.76999998
   14.95944405  118.14700317    0.40000001    2.75000000
   14.96249962  110.39700317    0.40000001    2.75000000
   14.96583271  112.28900146    0.40000001    2.75000000
   14.96888828  112.86699677    0.40000001    2.76999998
   14.97222137  109.77600098    0.40000001    2.76999998
   14.97555542  113.48999786    0.40000001    2.76999998
   14.97861099  115.77700043    0.40000001    2.76999998
   14.98083305  114.71900177    0.40000001    2.75000000
   14.98249912  112.99600220    0.40000001    2.75000000
   14.98555565  116.40000153    0.40000001    2.76999998
   14.98888874  114.12699890    0.40000001    2.76999998
   14.99472237  114.12699890    0.40000001    2.76999998
   14.99888897  101.87500000    0.40000001    2.76999998
   15.00194454  103.17800140    0.40000001    2.76999998
   15.00527763  111.63200378    0.40000001    2.76999998
   15.00861073  108.07499695    0.40000001    2.76999998
   15.01166630  115.95500183    0.40000001    2.76999998
   15.01416683  109.31700134    0.40000001    2.75000000
   15.01555538  115.33999634    0.40000001    2.76999998
   15.01861095  113.99800110    0.38000000    2.76999998
   15.02194405  112.10500336    0.38000000    2.76999998
   15.02527714  118.54599762    0.38000000    2.76999998
   15.02833271  109.89299774    0.38000000    2.76999998
   15.03166676  113.90000153    0.38000000    2.76999998
   15.03750038  113.90000153    0.38000000    2.76999998
   15.04166698  114.86799622    0.38000000    2.76999998
   15.04500008  106.85299683    0.38000000    2.76999998
   15.04750061  110.82599640    0.36000001    2.76999998
   15.04861164  113.22100067    0.36000001    2.76999998
   15.05166721  108.61399841    0.38000000    2.76999998
   15.05500031  107.01499939    0.38000000    2.76999998
   15.05833340  117.43099976    0.36000001    2.76999998
   15.06138897  107.80999756    0.36000001    2.76999998
   15.06472206  103.64399719    0.38000000    2.76999998
   15.06777763  104.49900055    0.36000001    2.76999998
   15.07111073  117.31500244    0.36000001    2.76999998
   15.07444477  107.74400330    0.38000000    2.75000000
   15.08027744  107.74400330    0.36000001    2.76999998
   15.09861088  109.03399658    0.34000000    2.76999998
   15.10194492  108.67800140    0.34000000    2.76999998
   15.10527802  105.73600006    0.34000000    2.76999998
   15.10833359  105.68900299    0.34000000    2.76999998
   15.11166668  103.13600159    0.34000000    2.76999998
   15.11500072  110.09400177    0.34000000    2.76999998
   15.11805534  107.63899994    0.36000001    2.76999998
   15.12333393  107.63899994    0.34000000    2.76999998
   15.12750053  108.54699707    0.36000001    2.76999998
   15.13083363  104.34200287    0.36000001    2.76999998
   15.13166714   97.90809631    0.34000000    2.76999998
   15.13444424  105.62500000    0.34000000    2.76999998
   15.13777733  111.62100220    0.34000000    2.76999998
   15.14083290  103.65299988    0.34000000    2.76999998
   15.14416695  106.74199677    0.34000000    2.76999998
   15.14750004  110.94999695    0.36000001    2.76999998
   15.15055561  102.67800140    0.34000000    2.76999998
   15.15388870  106.54900360    0.34000000    2.76999998
   15.15722179   98.51850128    0.36000001    2.78999996
   15.16027737  106.62599945    0.34000000    2.76999998
   15.16638851  106.62599945    0.36000001    2.76999998
   15.17055607  104.22200012    0.36000001    2.76999998
   15.17361164   90.99569702    0.34000000    2.76999998
   15.17694473   97.67369843    0.36000001    2.76999998
   15.18000031   97.69159698    0.34000000    2.76999998
   15.18333340  101.78600311    0.36000001    2.76999998
   15.18666649  104.77600098    0.36000001    2.78999996
   15.18972206   96.23750305    0.34000000    2.76999998
   15.19305515  105.84700012    0.36000001    2.76999998
   15.19638920   96.23139954    0.36000001    2.76999998
   15.19833374  110.43699646    0.34000000    2.76999998
   15.19999981  101.93399811    0.34000000    2.76999998
   15.20333290   91.64089966    0.34000000    2.76999998
   15.20916653   91.64089966    0.34000000    2.76999998
   15.21333313  100.99500275    0.34000000    2.78999996
   15.21666622  102.15499878    0.34000000    2.78999996
   15.21972179   96.39420319    0.34000000    2.78999996
   15.22305489   96.14219666    0.34000000    2.78999996
   15.22611046  101.89499664    0.34000000    2.76999998
   15.22944355   98.82309723    0.34000000    2.78999996
   15.23194408   99.09559631    0.34000000    2.78999996
   15.23305511   86.23650360    0.34000000    2.78999996
   15.23638916  100.20700073    0.34000000    2.78999996
   15.23944473   98.63649750    0.34000000    2.76999998
   15.24277782   99.93160248    0.34000000    2.76999998
   15.24611092  102.00900269    0.36000001    2.78999996
   15.25194454  102.00900269    0.36000001    2.78999996
   15.25611115   88.95339966    0.34000000    2.78999996
   15.25944424   95.90059662    0.36000001    2.76999998
   15.26249981   86.38480377    0.36000001    2.76999998
   15.26500034   94.20629883    0.36000001    2.76999998
   15.26611137   95.32550049    0.36000001    2.78999996
   15.26944447   98.28620148    0.36000001    2.78999996
   15.27277756   88.20549774    0.36000001    2.76999998
   15.27583313   97.76580048    0.36000001    2.78999996
   15.27916622   91.68599701    0.36000001    2.78999996
   15.28222179  101.65299988    0.36000001    2.76999998
   15.28555584   96.01770020    0.36000001    2.76999998
   15.28888893   95.81420135    0.36000001    2.76999998
   15.29472256   95.81420135    0.36000001    2.78999996
   15.29888916   94.80709839    0.36000001    2.78999996
   15.30222225   94.35720062    0.36000001    2.78999996
   15.30527782   95.38230133    0.34000000    2.78999996
   15.30861092   93.40920258    0.34000000    2.78999996
   15.31194496   95.24870300    0.34000000    2.76999998
   15.31500053   92.13099670    0.36000001    2.78999996
   15.31833363   91.71450043    0.34000000    2.78999996
   15.32166672   96.12960052    0.36000001    2.78999996
   15.32472229   91.87550354    0.34000000    2.78999996
   15.32805538   94.86949921    0.36000001    2.78999996
   15.33111095   88.10500336    0.36000001    2.78999996
   15.33194447   99.59549713    0.38000000    2.78999996
   15.33777714   99.59549713    0.36000001    2.78999996
   15.34194374  101.34899902    0.38000000    2.76999998
   15.34499931   98.04859924    0.38000000    2.78999996
   15.34833336   92.94270325    0.38000000    2.78999996
   15.35166740   88.46399689    0.36000001    2.78999996
   15.35472298   98.11540222    0.36000001    2.78999996
   15.35805607   95.26239777    0.36000001    2.78999996
   15.36111164   91.84510040    0.36000001    2.76999998
   15.36444473   94.02860260    0.36000001    2.78999996
   15.36527824   88.76629639    0.36000001    2.78999996
   15.36805534  101.03700256    0.36000001    2.78999996
   15.37138939   97.28880310    0.36000001    2.78999996
   15.37472248   90.19280243    0.36000001    2.78999996
   15.38055611   90.19280243    0.36000001    2.78999996
   15.38472176   93.56849670    0.36000001    2.78999996
   15.38777733   86.61530304    0.36000001    2.78999996
   15.39111137   90.35669708    0.38000000    2.78999996
   15.39444447   92.82389832    0.36000001    2.78999996
   15.39750004   91.12270355    0.36000001    2.78999996
   15.39861107   92.40789795    0.36000001    2.78999996
   15.40111065   93.03910065    0.36000001    2.78999996
   15.40444374   89.27629852    0.36000001    2.78999996
   15.40777779   91.77919769    0.36000001    2.76999998
   15.41083336   81.18810272    0.36000001    2.78999996
   15.41416645   95.63710022    0.36000001    2.78999996
   15.41722298   90.60150146    0.36000001    2.78999996
   15.42333412   90.60150146    0.36000001    2.78999996
   15.42750072   86.53160095    0.36000001    2.78999996
   15.43083382   99.22059631    0.38000000    2.78999996
   15.43194485   92.93049622    0.38000000    2.78999996
   15.43444443   93.02790070    0.36000001    2.78999996
   15.43777752   91.94869995    0.36000001    2.78999996
   15.44111156   91.01119995    0.36000001    2.78999996
   15.44416714   92.73970032    0.36000001    2.78999996
   15.44750023   93.03359985    0.38000000    2.78999996
   15.45055580   91.22090149    0.38000000    2.78999996
   15.45388889   90.21479797    0.36000001    2.76999998
   15.45722198   96.63520050    0.38000000    2.78999996
   15.46027756   96.09510040    0.36000001    2.78999996
   15.46611118   96.09510040    0.38000000    2.78999996
   15.47027779   92.07550049    0.38000000    2.78999996
   15.57694435   -1.00000000   -1.00000000   -1.00000000
   15.67611122   -1.00000000   -1.00000000   -1.00000000
   15.79444504   -1.00000000   -1.00000000   -1.00000000
   15.85249996   88.84020233    0.30000001    2.78999996
   15.85583401   89.13999939    0.30000001    2.80999994
   15.85916710   84.64250183    0.31999999    2.78999996
   15.86222267   90.95500183    0.30000001    2.78999996
   15.86555576   88.80400085    0.30000001    2.78999996
   15.86861134   85.63189697    0.30000001    2.78999996
   15.87277794   85.63189697    0.30000001    2.78999996
   15.87694454   93.53990173    0.30000001    2.78999996
   15.88027763   90.61289978    0.30000001    2.78999996
   15.88333321   90.86280060    0.30000001    2.78999996
   15.88583279   88.75980377    0.30000001    2.78999996
   15.88722229   85.58809662    0.30000001    2.78999996
   15.89055538   85.38670349    0.30000001    2.78999996
   15.89361095   85.35389709    0.30000001    2.78999996
   15.89694405   85.92009735    0.30000001    2.78999996
   15.89999962   83.65019989    0.30000001    2.78999996
   15.90333271   89.29070282    0.30000001    2.78999996
   15.90666676   86.15110016    0.30000001    2.80999994
   15.90972137   85.45249939    0.30000001    2.80999994
   15.91583252   85.45249939    0.30000001    2.80999994
   15.92000008   82.83170319    0.30000001    2.78999996
   15.92305565   87.50559998    0.30000001    2.78999996
   15.92638874   84.17179871    0.30000001    2.78999996
   15.92944431   88.17549896    0.30000001    2.78999996
   15.93277836   84.48419952    0.30000001    2.78999996
   15.93611145   76.86399841    0.30000001    2.78999996
   15.93916702   85.14340210    0.30000001    2.78999996
   15.94250011   81.95659637    0.30000001    2.78999996
   15.94555569   88.78079987    0.30000001    2.80999994
   15.94888878   86.73940277    0.30000001    2.80999994
   15.95222187   88.98580170    0.30000001    2.78999996
   15.95277786   77.45469666    0.30000001    2.78999996
   15.95861053   77.45469666    0.30000001    2.78999996
   15.96277714   88.20539856    0.30000001    2.80999994
   15.96583271   75.56639862    0.30000001    2.78999996
   15.96916580   88.23789978    0.30000001    2.78999996
   15.97249985   83.63690186    0.30000001    2.80999994
   15.97555542   82.77580261    0.30000001    2.80999994
   15.97888851   88.65920258    0.30000001    2.80999994
   15.98194408   81.95099640    0.30000001    2.78999996
   15.98527813   78.52200317    0.30000001    2.78999996
   15.98611164   82.06809998    0.30000001    2.78999996
   15.98888874   88.38059998    0.30000001    2.78999996
   15.99222279   83.55480194    0.30000001    2.78999996
   15.99555588   84.47570038    0.30000001    2.78999996
   16.00138855   84.47570038    0.30000001    2.78999996
   16.00555611   81.18840027    0.30000001    2.80999994
   16.00888824   82.90180206    0.30000001    2.78999996
   16.01194382   75.60669708    0.30000001    2.80999994
   16.01527786   85.55680084    0.30000001    2.78999996
   16.01861000   79.97989655    0.30000001    2.80999994
   16.01944351   77.45850372    0.30000001    2.80999994
   16.02194405   82.50499725    0.30000001    2.80999994
   16.02527809   81.87490082    0.30000001    2.80999994
   16.02861023   82.92649841    0.30000001    2.78999996
   16.03166580   86.44519806    0.30000001    2.78999996
   16.03499985   83.08529663    0.30000001    2.78999996
   16.03805542   82.43250275    0.30000001    2.78999996
   16.04416656   82.43250275    0.31999999    2.78999996
   16.04833221   75.13030243    0.30000001    2.78999996
   16.05166626   82.05940247    0.30000001    2.78999996
   16.05277634   81.69200134    0.30000001    2.78999996
   16.05527687   77.54409790    0.30000001    2.78999996
   16.05861092   81.97440338    0.31999999    2.78999996
   16.06194305   74.67430115    0.31999999    2.78999996
   16.06499863   77.14399719    0.31999999    2.78999996
   16.06833458   82.73470306    0.31999999    2.78999996
   16.07166672   71.77929688    0.31999999    2.78999996
   16.07472229   77.00029755    0.31999999    2.78999996
   16.07805634   80.48210144    0.31999999    2.78999996
   16.08111191   78.44789886    0.31999999    2.78999996
   16.08722305   78.44789886    0.31999999    2.78999996
   16.09111214   77.54730225    0.30000001    2.78999996
   16.09444427   77.47579956    0.30000001    2.78999996
   16.09777832   71.15950012    0.30000001    2.80999994
   16.10083389   80.56809998    0.31999999    2.80999994
   16.10416794   77.94509888    0.30000001    2.80999994
   16.10750008   78.80999756    0.30000001    2.78999996
   16.11055565   74.28130341    0.31999999    2.80999994
   16.11388969   74.92600250    0.30000001    2.80999994
   16.11722183   82.09510040    0.30000001    2.82999992
   16.11944389   76.53279877    0.30000001    2.80999994
   16.12055588   73.74230194    0.31999999    2.78999996
   16.12388992   78.25260162    0.31999999    2.78999996
   16.13000107   78.25260162    0.31999999    2.80999994
   16.13416672   78.15190125    0.31999999    2.78999996
   16.13722229   80.00289917    0.31999999    2.80999994
   16.14055634   75.77200317    0.31999999    2.80999994
   16.14388847   80.58769989    0.31999999    2.80999994
   16.14694405   75.07740021    0.31999999    2.80999994
   16.15027809   77.40579987    0.31999999    2.78999996
   16.15277672   76.93910217    0.31999999    2.80999994
   16.15388870   80.36609650    0.31999999    2.80999994
   16.15722275   78.73960114    0.30000001    2.80999994
   16.16055489   73.15910339    0.30000001    2.80999994
   16.16361046   71.78130341    0.30000001    2.78999996
   16.16694450   76.43830109    0.30000001    2.78999996
   16.17277718   76.43830109    0.31999999    2.80999994
   16.17694473   76.27140045    0.31999999    2.80999994
   16.18027687   77.46959686    0.31999999    2.78999996
   16.18333244   81.05570221    0.31999999    2.80999994
   16.18610954   78.89820099    0.31999999    2.80999994
   16.18694305   78.39489746    0.31999999    2.78999996
   16.19027710   76.18879700    0.31999999    2.78999996
   16.19361115   78.35060120    0.31999999    2.80999994
   16.19666672   82.08049774    0.31999999    2.78999996
   16.20000076   79.83879852    0.31999999    2.78999996
   16.20333481   75.56520081    0.30000001    2.80999994
   16.20639038   80.81210327    0.31999999    2.76999998
   16.20972252   79.60669708    0.31999999    2.80999994
   16.21555710   79.60669708    0.31999999    2.80999994
   16.21972275   74.79209900    0.31999999    2.78999996
   16.22305679   79.88349915    0.31999999    2.78999996
   16.22611237   75.88189697    0.31999999    2.78999996
   16.22944450   80.17009735    0.31999999    2.78999996
   16.23277855   75.32679749    0.31999999    2.78999996
   16.23583412   84.03649902    0.31999999    2.78999996
   16.23916626   78.07920074    0.31999999    2.78999996
   16.24250031   73.63140106    0.31999999    2.80999994
   16.24555588   75.23999786    0.31999999    2.80999994
   16.24888992   77.87239838    0.31999999    2.80999994
   16.25194359   81.60269928    0.31999999    2.80999994
   16.25277710   78.25710297    0.31999999    2.78999996
   16.25861168   78.25710297    0.31999999    2.80999994
   16.26250076   75.12110138    0.31999999    2.78999996
   16.26583290   76.29630280    0.31999999    2.78999996
   16.26916695   75.62519836    0.31999999    2.80999994
   16.27222252   72.54830170    0.31999999    2.80999994
   16.27555466   77.19470215    0.31999999    2.80999994
   16.27888870   73.22010040    0.31999999    2.80999994
   16.28194427   73.16660309    0.31999999    2.78999996
   16.28527641   71.87490082    0.31999999    2.78999996
   16.28610992   76.17259979    0.31999999    2.78999996
   16.28861046   74.55970001    0.31999999    2.80999994
   16.29194450   76.25309753    0.31999999    2.80999994
   16.29527664   79.79720306    0.31999999    2.78999996
   16.30138779   79.79720306    0.31999999    2.78999996
   16.30555534   81.30850220    0.31999999    2.80999994
   16.30861092   75.85910034    0.31999999    2.78999996
   16.31194305   68.95490265    0.31999999    2.78999996
   16.31527710   71.98680115    0.31999999    2.80999994
   16.31833458   78.63400269    0.31999999    2.78999996
   16.31944466   74.06880188    0.31999999    2.78999996
   16.32194519   75.75330353    0.31999999    2.78999996
   16.32527924   75.74710083    0.31999999    2.78999996
   16.32861137   72.36699677    0.31999999    2.78999996
   16.33166695   71.35520172    0.31999999    2.80999994
   16.33500099   72.00669861    0.31999999    2.80999994
   16.33833313   70.26629639    0.31999999    2.80999994
   16.34416771   70.26629639    0.31999999    2.78999996
   16.34833336   69.32369995    0.31999999    2.78999996
   16.35166740   70.58999634    0.31999999    2.78999996
   16.35277748   70.56210327    0.31999999    2.78999996
   16.35527802   70.85759735    0.31999999    2.78999996
   16.35833359   68.84110260    0.31999999    2.78999996
   16.36166763   69.55239868    0.31999999    2.80999994
   16.36499977   68.24829865    0.31999999    2.80999994
   16.36805534   72.18389893    0.31999999    2.78999996
   16.37138939   70.76460266    0.31999999    2.80999994
   16.37444496   70.56169891    0.34000000    2.78999996
   16.37777710   71.50849915    0.31999999    2.80999994
   16.38111115   73.64369965    0.31999999    2.80999994
   16.38694382   73.64369965    0.31999999    2.80999994
   16.39111137   70.99120331    0.31999999    2.78999996
   16.39444351   69.90429688    0.31999999    2.78999996
   16.39749908   70.58670044    0.34000000    2.80999994
   16.40083313   70.26709747    0.31999999    2.80999994
   16.40416718   69.47579956    0.31999999    2.78999996
   16.40722275   72.63700104    0.31999999    2.78999996
   16.41055489   71.49700165    0.31999999    2.78999996
   16.41388893   75.51229858    0.31999999    2.78999996
   16.41694450   72.13970184    0.31999999    2.78999996
   16.41944313   68.56379700    0.31999999    2.78999996
   16.42055511   68.12460327    0.31999999    2.80999994
   16.42388916   71.73259735    0.31999999    2.80999994
   16.43000031   71.73259735    0.31999999    2.80999994
   16.43388748   68.79850006    0.31999999    2.78999996
   16.43722153   68.50759888    0.31999999    2.80999994
   16.44055557   68.63359833    0.31999999    2.80999994
   16.44361115   68.28579712    0.31999999    2.80999994
   16.44694328   71.60900116    0.34000000    2.78999996
   16.45027924   68.27210236    0.31999999    2.80999994
   16.45277786   71.16829681    0.34000000    2.80999994
   16.45361137   70.83570099    0.34000000    2.78999996
   16.45694542   71.31089783    0.31999999    2.78999996
   16.46027946   70.59719849    0.31999999    2.80999994
   16.46333504   68.79589844    0.34000000    2.78999996
   16.46666718   69.15090179    0.34000000    2.80999994
   16.47277832   69.15090179    0.34000000    2.78999996
   16.47694588   70.44989777    0.34000000    2.78999996
   16.48000145   69.81909943    0.34000000    2.80999994
   16.48333359   68.69419861    0.34000000    2.80999994
   16.48611069   69.94819641    0.31999999    2.80999994
   16.48722267   73.91609955    0.31999999    2.80999994
   16.49027824   72.08670044    0.31999999    2.80999994
   16.49361229   69.22429657    0.31999999    2.80999994
   16.49666786   70.35669708    0.31999999    2.78999996
   16.50000000   68.85269928    0.31999999    2.80999994
   16.50333405   69.83809662    0.31999999    2.78999996
   16.50638962   70.70300293    0.31999999    2.78999996
   16.50972176   69.24870300    0.31999999    2.80999994
   16.51555634   69.24870300    0.31999999    2.78999996
   16.51972198   68.13020325    0.31999999    2.80999994
   16.52305603   69.42120361    0.31999999    2.78999996
   16.52611160   70.91770172    0.34000000    2.78999996
   16.52944374   69.65499878    0.34000000    2.80999994
   16.53277779   72.46749878    0.34000000    2.80999994
   16.53583336   69.43440247    0.34000000    2.78999996
   16.53916550   68.56719971    0.34000000    2.80999994
   16.54249954   69.86470032    0.34000000    2.78999996
   16.54555511   70.66660309    0.36000001    2.78999996
   16.54888916   69.32309723    0.36000001    2.80999994
   16.55194283   72.96920013    0.36000001    2.80999994
   16.55277634   70.22709656    0.36000001    2.78999996
   16.55833244   70.22709656    0.36000001    2.78999996
   16.56250000   68.96959686    0.34000000    2.78999996
   16.56583214   69.79229736    0.34000000    2.80999994
   16.56888962   68.43630219    0.36000001    2.78999996
   16.57222366   67.80100250    0.34000000    2.80999994
   16.57555580   72.41320038    0.34000000    2.80999994
   16.57861137   67.88189697    0.34000000    2.78999996
   16.58194542   69.76550293    0.36000001    2.78999996
   16.58527756   67.34310150    0.34000000    2.80999994
   16.58611107   74.58450317    0.34000000    2.80999994
   16.58889008   69.88849640    0.36000001    2.80999994
   16.59194565   70.59020233    0.34000000    2.80999994
   16.59527779   70.01529694    0.34000000    2.80999994
   16.60138893   70.01529694    0.34000000    2.80999994
   16.60527802   68.28199768    0.34000000    2.78999996
   16.60861206   67.75930023    0.34000000    2.78999996
   16.61194420   68.10540009    0.34000000    2.80999994
   16.61499977   69.72000122    0.31999999    2.80999994
   16.61833382   71.07099915    0.34000000    2.78999996
   16.61944389   68.06269836    0.34000000    2.78999996
   16.62194443   68.27179718    0.34000000    2.80999994
   16.62500000   67.12169647    0.34000000    2.80999994
   16.62833405   67.73059845    0.34000000    2.80999994
   16.63138962   70.71620178    0.34000000    2.80999994
   16.63472176   69.67350006    0.34000000    2.80999994
   16.63805580   70.05269623    0.34000000    2.80999994
   16.64416695   70.05269623    0.34000000    2.80999994
   16.64833260   67.69319916    0.34000000    2.80999994
   16.65138817   69.92880249    0.34000000    2.80999994
   16.65277672   68.46779633    0.34000000    2.78999996
   16.65527725   69.73789978    0.34000000    2.78999996
   16.65833282   68.19999695    0.34000000    2.80999994
   16.66166687   69.34989929    0.34000000    2.80999994
   16.66499901   67.89569855    0.34000000    2.78999996
   16.66805458   68.76609802    0.34000000    2.80999994
   16.67138863   71.13009644    0.34000000    2.80999994
   16.67444420   68.05999756    0.34000000    2.80999994
   16.67777634   72.51809692    0.34000000    2.80999994
   16.68111038   71.95349884    0.34000000    2.80999994
   16.68694305   71.95349884    0.34000000    2.80999994
   16.69111061   70.20410156    0.34000000    2.80999994
   16.69444275   67.30940247    0.34000000    2.80999994
   16.69749832   69.24720001    0.34000000    2.78999996
   16.70083427   68.29160309    0.34000000    2.80999994
   16.70388985   68.84390259    0.34000000    2.80999994
   16.70722389   68.16729736    0.34000000    2.80999994
   16.71055603   70.98090363    0.36000001    2.82999992
   16.71361160   67.69619751    0.34000000    2.80999994
   16.71694565   67.68099976    0.34000000    2.80999994
   16.71944427   70.36720276    0.34000000    2.80999994
   16.72055626   70.81159973    0.34000000    2.78999996
   16.72361183   70.85510254    0.36000001    2.80999994
   16.72972298   70.85510254    0.36000001    2.80999994
   16.73388863   67.98220062    0.36000001    2.78999996
   16.73722267   67.67259979    0.36000001    2.78999996
   16.74055672   69.46040344    0.34000000    2.80999994
   16.74361229   68.46209717    0.34000000    2.80999994
   16.74694443   68.75669861    0.34000000    2.80999994
   16.75000000   67.16339874    0.34000000    2.80999994
   16.75277710   68.62930298    0.34000000    2.80999994
   16.75388908   68.80130005    0.34000000    2.80999994
   16.75694466   67.53769684    0.36000001    2.80999994
   16.76027870   68.06040192    0.34000000    2.80999994
   16.76361084   68.05719757    0.34000000    2.80999994
   16.76666641   69.98359680    0.34000000    2.80999994
   16.77277756   69.98359680    0.34000000    2.80999994
   16.77694511   68.25939941    0.34000000    2.80999994
   16.78000069   68.75980377    0.34000000    2.80999994
   16.78333282   70.92890167    0.34000000    2.80999994
   16.78610992   70.05400085    0.34000000    2.80999994
   16.78694344   68.24629974    0.34000000    2.80999994
   16.78999901   68.59950256    0.34000000    2.80999994
   16.79333305   68.33899689    0.34000000    2.78999996
   16.79638863   67.92990112    0.34000000    2.80999994
   16.79972076   67.86329651    0.34000000    2.80999994
   16.80305481   70.83300018    0.34000000    2.80999994
   16.80611038   68.33209991    0.34000000    2.80999994
   16.80944443   69.37879944    0.34000000    2.80999994
   16.81555557   69.37879944    0.34000000    2.78999996
   16.81972313   68.20860291    0.34000000    2.80999994
   16.82277870   67.88649750    0.34000000    2.80999994
   16.82611275   68.56520081    0.34000000    2.80999994
   16.82944489   67.99749756    0.34000000    2.78999996
   16.83250046   69.81860352    0.34000000    2.78999996
   16.83583450   67.78500366    0.34000000    2.78999996
   16.83916664   69.17099762    0.34000000    2.80999994
   16.84222221   66.58360291    0.34000000    2.80999994
   16.84555626   69.27179718    0.34000000    2.80999994
   16.84861183   67.51679993    0.34000000    2.80999994
   16.85194397   66.70149994    0.34000000    2.78999996
   16.85277748   69.88809967    0.34000000    2.78999996
   16.87333298   69.88809967    0.34000000    2.80999994
   16.87750053  112.77100372    0.36000001    2.80999994
   16.88083267  113.58100128    0.36000001    2.80999994
   16.88416672  126.59100342    0.36000001    2.80999994
   16.88611031  112.91400146    0.38000000    2.80999994
   16.88777733  117.95999908    0.38000000    2.80999994
   16.89111137  113.76899719    0.38000000    2.80999994
   16.89416695  123.33999634    0.40000001    2.80999994
   16.89749908  111.26100159    0.38000000    2.80999994
   16.90055466  116.69000244    0.38000000    2.80999994
   16.90388870   -1.00000000    0.36000001    2.78999996
   16.90722275  120.35299683    0.36000001    2.80999994
   16.91027832  122.39600372    0.38000000    2.80999994
   16.91611099  122.39600372    0.38000000    2.80999994
   16.92027664  119.01999664    0.40000001    2.80999994
   16.92361069  111.88200378    0.40000001    2.80999994
   16.92694473  116.52600098    0.40000001    2.78999996
   16.93000031  118.72399902    0.40000001    2.80999994
   16.93333244  105.69300079    0.40000001    2.80999994
   16.93638802  111.40599823    0.40000001    2.80999994
   16.93972206  111.97399902    0.40000001    2.78999996
   16.94305420  112.13899994    0.40000001    2.78999996
   16.94610977  115.50399780    0.40000001    2.80999994
   16.94944382  119.01899719    0.38000000    2.82999992
   16.95277786  123.94499969    0.38000000    2.82999992
   16.95333481  105.98999786    0.38000000    2.80999994
   16.95916748  105.98999786    0.38000000    2.80999994
   16.96305656  111.07299805    0.38000000    2.78999996
   16.96638870  112.69799805    0.40000001    2.78999996
   16.96972275  116.59400177    0.38000000    2.78999996
   16.97277832  114.30899811    0.38000000    2.78999996
   16.97611237  111.37799835    0.38000000    2.80999994
   16.97944450  107.92600250    0.38000000    2.80999994
   16.98250008  122.52400208    0.38000000    2.80999994
   16.98583412  109.18399811    0.38000000    2.80999994
   16.98666763  116.91799927    0.38000000    2.80999994
   16.98944473  120.10500336    0.38000000    2.80999994
   16.99277878  111.24700165    0.38000000    2.80999994
   16.99583435  124.90100098    0.38000000    2.80999994
   17.00194359  124.90100098    0.38000000    2.80999994
   17.00611115  114.18199921    0.38000000    2.80999994
   17.00916672  113.31300354    0.38000000    2.78999996
   17.01250076  110.60399628    0.38000000    2.80999994
   17.01583290  117.82399750    0.38000000    2.80999994
   17.01888847  110.17199707    0.40000001    2.80999994
   17.02000046  111.80699921    0.40000001    2.80999994
   17.02249908  110.99800110    0.38000000    2.80999994
   17.02583313  116.79499817    0.38000000    2.80999994
   17.02888870  112.31500244    0.38000000    2.78999996
   17.03222275  104.32299805    0.38000000    2.80999994
   17.03555489  116.83000183    0.36000001    2.82999992
   17.03861046  111.68900299    0.38000000    2.78999996
   17.04472160  111.68900299    0.36000001    2.78999996
   17.04888916  116.54399872    0.38000000    2.80999994
   17.05222130  109.32700348    0.40000001    2.80999994
   17.05333328  107.98000336    0.40000001    2.80999994
   17.05583191  111.05000305    0.40000001    2.80999994
   17.05916595  116.54399872    0.40000001    2.80999994
   17.06222153  116.77600098    0.40000001    2.80999994
   17.06555557  116.99900055    0.40000001    2.80999994
   17.06888962  114.76399994    0.40000001    2.80999994
   17.07194519  107.27200317    0.40000001    2.80999994
   17.07527924  120.54100037    0.40000001    2.80999994
   17.07861137  112.42800140    0.38000000    2.80999994
   17.08166695  110.98699951    0.38000000    2.78999996
   17.08750153  110.98699951    0.38000000    2.80999994
   17.09166718  114.23300171    0.38000000    2.80999994
   17.09500122  117.30999756    0.38000000    2.78999996
   17.09805679  117.96800232    0.38000000    2.80999994
   17.10138893  112.58100128    0.38000000    2.80999994
   17.10472298  120.43900299    0.38000000    2.78999996
   17.10777855  111.76799774    0.40000001    2.78999996
   17.11111069  102.84100342    0.38000000    2.80999994
   17.11444473  106.76599884    0.38000000    2.80999994
   17.11750031  114.76300049    0.40000001    2.80999994
   17.12000084  116.92700195    0.40000001    2.80999994
   17.12111092  109.94499969    0.40000001    2.80999994
   17.12444496  110.18900299    0.38000000    2.80999994
   17.13055611  110.18900299    0.40000001    2.78999996
   17.13444519  109.45700073    0.38000000    2.78999996
   17.13777733  113.43199921    0.38000000    2.80999994
   17.14111137  104.50800323    0.40000001    2.78999996
   17.14416695  110.51899719    0.40000001    2.80999994
   17.14749908  111.11599731    0.38000000    2.80999994
   17.15083313  103.19300079    0.38000000    2.80999994
   17.15333366  102.25499725    0.38000000    2.80999994
   17.15416718   95.90139771    0.40000001    2.80999994
   17.15749931  105.66400146    0.40000001    2.80999994
   17.16083336  106.01000214    0.40000001    2.80999994
   17.16388893  115.56999969    0.40000001    2.80999994
   17.16722107  113.57599640    0.40000001    2.80999994
   17.17333221  113.57599640    0.40000001    2.80999994
   17.17749977  104.16500092    0.41999999    2.80999994
   17.18055534  104.52400208    0.44000000    2.80999994
   17.18388748   99.19730377    0.44000000    2.80999994
   17.18666649  103.99900055    0.44000000    2.80999994
   17.18750000  100.39700317    0.46000001    2.80999994
   17.19083214   91.88269806    0.46000001    2.80999994
   17.19416618  106.18199921    0.46000001    2.80999994
   17.19722176   96.28749847    0.47999999    2.80999994
   17.20055580   99.39559937    0.50000000    2.80999994
   17.20361137  110.78099823    0.47999999    2.80999994
   17.20694542  111.86699677    0.47999999    2.80999994
   17.21027946  106.33000183    0.47999999    2.78999996
   17.21611214  106.33000183    0.47999999    2.80999994
   17.22027779  112.17099762    0.46000001    2.78999996
   17.22361183  111.42400360    0.47999999    2.80999994
   17.22666740  107.63600159    0.50000000    2.80999994
   17.23000145  113.20800018    0.50000000    2.78999996
   17.23333359  102.11000061    0.50000000    2.78999996
   17.23638916  109.53900146    0.50000000    2.78999996
   17.23972321  113.13800049    0.47999999    2.78999996
   17.24305534  104.90200043    0.47999999    2.80999994
   17.24611092  109.80699921    0.46000001    2.80999994
   17.24944496  108.32399750    0.46000001    2.80999994
   17.25277710  102.76300049    0.46000001    2.80999994
   17.25333405  110.22899628    0.46000001    2.80999994
   17.25888824  110.22899628    0.46000001    2.80999994
   17.26305580  105.37200165    0.47999999    2.80999994
   17.26638794  109.51999664    0.50000000    2.80999994
   17.26944351   97.48429871    0.51999998    2.80999994
   17.27277756  107.84899902    0.55000001    2.80999994
   17.27611160  107.43399811    0.56999999    2.80999994
   17.27916718  108.67199707    0.58999997    2.78999996
   17.28249931  111.64299774    0.58999997    2.78999996
   17.28583336  120.58799744    0.63000000    2.80999994
   17.28666687  108.74400330    0.63000000    2.78999996
   17.28916550  118.68000031    0.61000001    2.80999994
   17.29249954  105.88800049    0.61000001    2.80999994
   17.29583359  108.27700043    0.63000000    2.78999996
   17.30166626  108.27700043    0.61000001    2.78999996
   17.30583191   99.90689850    0.61000001    2.78999996
   17.30916595  111.09400177    0.58999997    2.80999994
   17.31250000  100.75299835    0.56999999    2.80999994
   17.31555557  103.37200165    0.56999999    2.80999994
   17.31888962  105.03099823    0.58999997    2.80999994
   17.32000160   92.05660248    0.58999997    2.80999994
   17.32250023  104.85700226    0.56999999    2.80999994
   17.32583427  102.10299683    0.61000001    2.80999994
   17.32916832   96.10780334    0.61000001    2.80999994
   17.33222389  107.14800262    0.63000000    2.78999996
   17.33555603  102.26899719    0.64999998    2.78999996
   17.33861160  102.91999817    0.64999998    2.78999996
   17.34472275  102.91999817    0.63000000    2.80999994
   17.34889030  105.53900146    0.63000000    2.80999994
   17.35194397  106.75700378    0.55000001    2.80999994
   17.35333443  108.24700165    0.55000001    2.78999996
   17.35555649  103.80200195    0.55000001    2.80999994
   17.35888863  101.30300140    0.55000001    2.80999994
   17.36222267  103.29499817    0.52999997    2.80999994
   17.36527824  105.53500366    0.55000001    2.80999994
   17.36861038  103.61299896    0.52999997    2.80999994
   17.37166595   97.77050018    0.52999997    2.80999994
   17.37527847  105.88500214    0.52999997    2.78999996
   17.37833405  101.26399994    0.52999997    2.78999996
   17.38166618  111.58999634    0.51999998    2.82999992
   17.38750076  111.58999634    0.51999998    2.80999994
   17.39166641  112.08300018    0.51999998    2.80999994
   17.39472198  106.49500275    0.52999997    2.78999996
   17.39805603  109.83399963    0.52999997    2.80999994
   17.40138817  102.98600006    0.55000001    2.78999996
   17.40444374  108.98100281    0.55000001    2.78999996
   17.40777779  115.58999634    0.55000001    2.80999994
   17.41110992  115.49800110    0.55000001    2.80999994
   17.41416550  108.78199768    0.55000001    2.80999994
   17.41749954  115.56900024    0.55000001    2.80999994
   17.42000008  106.21800232    0.55000001    2.80999994
   17.42111015  112.43199921    0.56999999    2.78999996
   17.42444420  116.99600220    0.56999999    2.78999996
   17.43027687  116.99600220    0.55000001    2.78999996
   17.43444443  111.42400360    0.55000001    2.78999996
   17.43777657  120.39299774    0.58999997    2.78999996
   17.44083214  110.23000336    0.58999997    2.78999996
   17.44416618  106.07499695    0.63000000    2.78999996
   17.44749832  114.69699860    0.61000001    2.80999994
   17.45055580  102.54299927    0.63000000    2.80999994
   17.45333481  108.33100128    0.63000000    2.80999994
   17.45416832  107.19100189    0.63000000    2.80999994
   17.45750046   92.78980255    0.70999998    2.78999996
   17.46083450  115.31600189    0.69000000    2.78999996
   17.46389008  111.60600281    0.69000000    2.78999996
   17.46722221  120.36599731    0.64999998    2.78999996
   17.47305679  120.36599731    0.75000000    2.78999996
   17.47722244  101.30999756    0.75000000    2.78999996
   17.48055649  109.01599884    0.70999998    2.78999996
   17.48388863  106.75499725    0.67000002    2.78999996
   17.48666763  102.02600098    0.64999998    2.78999996
   17.48722267  105.64099884    0.64999998    2.78999996
   17.49055672  100.75900269    0.64999998    2.78999996
   17.49388885   99.84580231    0.64999998    2.80999994
   17.49694443  105.38600159    0.64999998    2.78999996
   17.50027847  103.35900116    0.64999998    2.78999996
   17.50361061  111.86199951    0.64999998    2.76999998
   17.50666618  116.20999908    0.67000002    2.78999996
   17.51000023  104.34999847    0.67000002    2.78999996
   17.51611137  104.34999847    0.69000000    2.78999996
   17.52027702  102.58000183    0.69000000    2.78999996
   17.52333260  110.07900238    0.69000000    2.78999996
   17.52666664  110.79299927    0.70999998    2.78999996
   17.52972221  108.63600159    0.70999998    2.78999996
   17.53305435  105.92500305    0.69000000    2.80999994
   17.53638840  109.02300262    0.70999998    2.78999996
   17.53944397  106.29199982    0.70999998    2.78999996
   17.54277802   99.37660217    0.70999998    2.78999996
   17.54611015  110.84400177    0.70999998    2.78999996
   17.54916573  113.46900177    0.70999998    2.80999994
   17.55249977  110.27899933    0.70999998    2.78999996
   17.55333328  104.47100067    0.70999998    2.78999996
   17.55888748  104.47100067    0.69000000    2.78999996
   17.56305504  106.65799713    0.69000000    2.78999996
   17.56611061  114.41200256    0.69000000    2.78999996
   17.56944466  101.49500275    0.70999998    2.78999996
   17.57277870  106.26699829    0.67000002    2.78999996
   17.57611275  110.62999725    0.67000002    2.78999996
   17.57916832  100.23999786    0.67000002    2.78999996
   17.58250046  100.97599792    0.69000000    2.78999996
   17.58555603   99.82409668    0.67000002    2.78999996
   17.58666801  101.80400085    0.67000002    2.78999996
   17.58916664  111.63999939    0.67000002    2.78999996
   17.59250069  100.94300079    0.67000002    2.78999996
   17.59583473  101.87999725    0.69000000    2.78999996
   17.60166740  101.87999725    0.69000000    2.78999996
   17.60583305  102.63200378    0.70999998    2.78999996
   17.60916710  109.53700256    0.69000000    2.78999996
   17.61222267  105.18699646    0.70999998    2.78999996
   17.61555672  109.73600006    0.70999998    2.78999996
   17.61888885  107.05300140    0.70999998    2.78999996
   17.62000084  107.70600128    0.70999998    2.78999996
   17.62222290  111.52100372    0.69000000    2.78999996
   17.62555504  117.32199860    0.67000002    2.78999996
   17.62888908  105.56800079    0.63000000    2.78999996
   17.63222313  103.37300110    0.61000001    2.78999996
   17.63527679  101.60299683    0.61000001    2.78999996
   17.63861084  106.67700195    0.61000001    2.78999996
   17.64444351  106.67700195    0.64999998    2.78999996
   17.64861107  110.25599670    0.75000000    2.78999996
   17.65194321  109.90799713    0.81999999    2.78999996
   17.65333366  111.82499695    0.81999999    2.78999996
   17.65555573  104.35900116    0.86000001    2.78999996
   17.65888786  111.85099792    0.86000001    2.78999996
   17.66222191  108.62500000    0.83999997    2.78999996
   17.66527748  118.47000122    0.81999999    2.78999996
   17.66860962  108.46600342    0.81999999    2.78999996
   17.67194366   99.92839813    0.80000001    2.78999996
   17.67499924  108.08499908    0.81999999    2.78999996
   17.67833328  117.72799683    0.81999999    2.78999996
   17.68166542  103.37999725    0.76999998    2.78999996
   17.68750000  103.37999725    0.76999998    2.76999998
   17.69166565  112.86799622    0.76999998    2.78999996
   17.69472122  107.97200012    0.76999998    2.78999996
   17.69805527  111.06800079    0.79000002    2.76999998
   17.70111275  114.83999634    0.81999999    2.78999996
   17.70444489  103.41100311    0.83999997    2.78999996
   17.70777893  111.59999847    0.88000000    2.78999996
   17.71083450  107.24199677    0.89999998    2.78999996
   17.71416664  105.73799896    0.92000002    2.78999996
   17.71750069  110.65499878    0.92000002    2.78999996
   17.72000122   98.19640350    0.94000000    2.78999996
   17.72111130  110.92199707    0.94000000    2.78999996
   17.72416687  101.74800110    0.94000000    2.78999996
   17.73027802  101.74800110    0.98000002    2.76999998
   17.73444557  113.38600159    1.00000000    2.78999996
   17.73750114  102.93800354    0.98000002    2.78999996
   17.74083328   99.21579742    0.98000002    2.76999998
   17.74416733  102.94499969    1.00000000    2.78999996
   17.74722290  108.45600128    1.07000005    2.78999996
   17.75055504   91.71839905    1.09000003    2.78999996
   17.75333405   99.64050293    1.09000003    2.78999996
   17.75444412   96.55390167    1.09000003    2.78999996
   17.75749969   98.40689850    1.13000000    2.78999996
   17.76083374   96.56590271    1.21000004    2.76999998
   17.76388931   95.31120300    1.19000006    2.78999996
   17.76722145   96.33070374    1.21000004    2.78999996
   17.77333260   96.33070374    1.23000002    2.78999996
   17.77750015  103.74600220    1.25000000    2.76999998
   17.78055573   88.93740082    1.25000000    2.76999998
   17.78388786   88.23619843    1.26999998    2.76999998
   17.78666687  100.54900360    1.26999998    2.76999998
   17.78750038   97.14820099    1.26999998    2.76999998
   17.79055595   93.00700378    1.21000004    2.76999998
   17.79388809   99.58090210    1.25000000    2.76999998
   17.79694366   94.48069763    1.23000002    2.76999998
   17.80027771   94.24330139    1.23000002    2.76999998
   17.80360985  101.39299774    1.28999996    2.78999996
   17.80666542   98.88849640    1.38000000    2.78999996
   17.80999947  105.80200195    1.38000000    2.76999998
   17.81583214  105.80200195    1.34000003    2.76999998
   17.82000160   97.61389923    1.34000003    2.76999998
   17.82333374   95.58650208    1.34000003    2.76999998
   17.82638931   96.45110321    1.36000001    2.78999996
   17.82972336  102.60800171    1.36000001    2.78999996
   17.83305550   95.99449921    1.41999996    2.76999998
   17.83611107  103.47499847    1.41999996    2.76999998
   17.83944511   93.55670166    1.41999996    2.76999998
   17.84277916  101.53800201    1.41999996    2.76999998
   17.84583473   97.89499664    1.41999996    2.76999998
   17.84916687   94.32969666    1.44000006    2.76999998
   17.85250092  103.55999756    1.44000006    2.78999996
   17.85333443  103.25499725    1.44000006    2.78999996
   17.85888863  103.25499725    1.44000006    2.76999998
   17.86305618  108.11499786    1.39999998    2.76999998
   17.86638832   94.85970306    1.34000003    2.76999998
   17.86944389  104.94400024    1.34000003    2.76999998
   17.88694382  113.14900208    1.33000004    2.75000000
   17.88944435  113.15000153    1.25000000    2.76999998
   17.89249992  113.02300262    1.26999998    2.78999996
   17.89583397  118.92199707    1.36000001    2.76999998
   17.90194321  118.92199707    1.48000002    2.78999996
   17.90583229  115.92299652    1.46000004    2.76999998
   17.90916634  107.94599915    1.39999998    2.78999996
   17.91250038  121.24500275    1.28999996    2.76999998
   17.91555595  112.70800018    1.25000000    2.78999996
   17.91888809  108.63899994    1.23000002    2.76999998
   17.92027664  116.27200317    1.23000002    2.76999998
   17.92249870  107.70200348    1.21000004    2.78999996
   17.92583275  108.34600067    1.23000002    2.76999998
   17.92916679  114.43599701    1.33000004    2.78999996
   17.93222237  116.88200378    1.33000004    2.78999996
   17.93555450  107.76399994    1.64999998    2.76999998
   17.93888855  118.76399994    2.07999992    2.76999998
   17.94472122  118.76399994    1.86000001    2.76999998
   17.94888878   98.70449829    1.85000002    2.76999998
   17.95194435  119.94699860    1.80999994    2.76999998
   17.95361137  111.10099792    1.61000001    2.75000000
   17.95555687  114.58799744    1.61000001    2.75000000
   17.95888901  118.79100037    1.44000006    2.76999998
   17.96194458  117.77899933    1.44000006    2.76999998
   17.96527863  118.27100372    1.48000002    2.78999996
   17.96861076  109.44100189    1.55999994    2.76999998
   17.97166634  112.42900085    1.55999994    2.76999998
   17.97500038  113.78600311    1.50000000    2.76999998
   17.97833443  120.60299683    1.58000004    2.76999998
   17.98139000  115.61699677    1.60000002    2.76999998
   17.98750114  115.61699677    1.71000004    2.76999998
   17.99166679  111.15599823    1.76999998    2.76999998
   17.99472237  108.79000092    1.85000002    2.76999998
   17.99805641  109.22599792    1.94000006    2.76999998
   18.00138855  107.54799652    1.85000002    2.78999996
   18.00444412  112.85600281    1.85000002    2.78999996
   18.00777817  110.61799622    1.85000002    2.75000000
   18.01111031   94.55079651    1.85000002    2.75000000
   18.01416588  103.35500336    1.78999996    2.76999998
   18.01749992  112.38500214    1.60000002    2.76999998
   18.02027702  109.76599884    1.80999994    2.76999998
   18.02111053  107.48400116    1.80999994    2.76999998
   18.02444458  119.87500000    1.89999998    2.75000000
   18.03027725  119.87500000    1.88000000    2.76999998
   18.03444481  114.00599670    2.09999990    2.75000000
   18.03777695  112.22699738    2.07999992    2.76999998
   18.04083252  114.39700317    1.98000002    2.75000000
   18.04416656  110.25000000    1.91999996    2.76999998
   18.04749870  103.87500000    1.91999996    2.76999998
   18.05055428  109.31800079    1.91999996    2.76999998
   18.05360985  118.90599823    1.85000002    2.76999998
   18.05416679  114.20500183    1.48000002    2.76999998
   18.05749893  110.11799622    1.34000003    2.76999998
   18.06083298  121.28900146    1.33000004    2.76999998
   18.06388855  108.92199707    1.36000001    2.76999998
   18.06722260  112.23100281    1.34000003    2.76999998
   18.07305717  112.23100281    1.38000000    2.76999998
   18.07722282  115.22599792    1.51999998    2.76999998
   18.08055687  117.73500061    1.51999998    2.76999998
   18.08388901  112.63300323    1.55999994    2.76999998
   18.08694458  113.42700195    1.55999994    2.75000000
   18.08722305  114.18199921    1.55999994    2.75000000
   18.09055710  114.78500366    1.53999996    2.75000000
   18.09388924  121.23699951    1.53999996    2.76999998
   18.09694481  119.98600006    1.53999996    2.76999998
   18.10027885  102.74600220    1.64999998    2.76999998
   18.10361099  107.55999756    2.13000011    2.75000000
   18.10666656  111.79599762    2.28999996    2.75000000
   18.11000061  123.58499908    2.46000004    2.75000000
   18.11611176  123.58499908    2.69000006    2.75000000
   18.12027740  120.84300232    2.59999990    2.75000000
   18.12055588  119.47200012    2.51999998    2.75000000
   18.12388992  113.07700348    2.36999989    2.75000000
   18.12722206  117.72000122    2.25000000    2.75000000
   18.13027763  102.89600372    2.17000008    2.75000000
   18.13361168  108.72399902    2.21000004    2.75000000
   18.13666725  105.23200226    2.39000010    2.75000000
   18.13999939  108.38300323    2.36999989    2.75000000
   18.14333344  113.68900299    2.28999996    2.75000000
   18.14638901   86.24559784    2.32999992    2.75000000
   18.14972115  117.13099670    2.30999994    2.75000000
   18.15305519  106.06700134    2.19000006    2.73000002
   18.15361023  111.79699707    2.15000010    2.75000000
   18.15888786  111.79699707    2.11999989    2.75000000
   18.16305542  108.83200073    2.15000010    2.75000000
   18.16611099  110.31900024    2.23000002    2.75000000
   18.16944313  110.06600189    2.21000004    2.75000000
   18.17277718  111.85700226    2.23000002    2.75000000
   18.17583275  106.57800293    2.36999989    2.75000000
   18.17916679  102.03700256    2.39000010    2.75000000
   18.18249893  108.86499786    2.42000008    2.76999998
   18.18555450  101.32900238    2.34999990    2.75000000
   18.18694305   98.92269897    2.28999996    2.75000000
   18.18916512  103.39299774    2.40000010    2.75000000
   18.19249916  107.80300140    2.40000010    2.75000000
   18.19583321  108.80300140    2.30999994    2.75000000
   18.20166779  108.80300140    2.26999998    2.75000000
   18.20583344  121.34799957    2.28999996    2.75000000
   18.20916748   96.39009857    2.40000010    2.75000000
   18.21222305  108.70200348    2.30999994    2.75000000
   18.21555710  108.09999847    2.25000000    2.75000000
   18.21888924  108.43699646    2.32999992    2.75000000
   18.22027779   98.13230133    2.26999998    2.75000000
   18.22222328  104.66200256    2.23000002    2.75000000
   18.22555542  105.37300110    2.21000004    2.73000002
   18.22888947  108.91000366    2.23000002    2.73000002
   18.23194504  108.14099884    2.32999992    2.75000000
   18.23527718  113.31800079    2.21000004    2.75000000
   18.23861122  115.67600250    2.25000000    2.75000000
   18.24444389  115.67600250    2.44000006    2.75000000
   18.24861145  120.89700317    2.34999990    2.75000000
   18.25194359  112.79599762    2.39000010    2.75000000
   18.25361061  119.64800262    2.48000002    2.75000000
   18.25555611  121.23400116    2.34999990    2.75000000
   18.25888824  107.31999969    2.32999992    2.75000000
   18.26222229  107.97799683    2.25000000    2.75000000
   18.26527786  102.00000000    2.13000011    2.75000000
   18.26861000  117.33499908    2.21000004    2.75000000
   18.27194405  106.02100372    2.19000006    2.75000000
   18.27499962  111.79399872    2.00000000    2.75000000
   18.27833366  124.36000061    1.96000004    2.76999998
   18.28138924  116.89600372    1.91999996    2.73000002
   18.28750038  116.89600372    1.88000000    2.75000000
   18.29166603  109.11900330    1.89999998    2.73000002
   18.29472160  108.36599731    1.98000002    2.75000000
   18.29805565  113.88400269    1.89999998    2.73000002
   18.30111122  117.55999756    1.86000001    2.75000000
   18.30444336  111.30999756    1.86000001    2.75000000
   18.30777740  111.71399689    1.89999998    2.75000000
   18.31083298  124.28199768    1.94000006    2.75000000
   18.31416512  107.28199768    1.94000006    2.75000000
   18.31750107  122.90000153    1.88000000    2.75000000
   18.32027817  118.85500336    1.94000006    2.75000000
   18.32111168  118.76799774    1.94000006    2.75000000
   18.32416725  121.62000275    1.96000004    2.75000000
   18.33027840  121.62000275    2.09999990    2.75000000
   18.33444595  112.62599945    2.13000011    2.75000000
   18.33750153  120.48100281    2.03999996    2.75000000
   18.34083366  109.73400116    2.03999996    2.75000000
   18.34416771  115.66600037    2.05999994    2.75000000
   18.34722328  121.83699799    2.00000000    2.75000000
   18.35055542  119.96600342    1.98000002    2.75000000
   18.35361099  117.29799652    1.98000002    2.75000000
   18.35416794  117.93099976    1.98000002    2.75000000
   18.35750008  116.77100372    2.00000000    2.75000000
   18.36083412  120.10700226    2.00000000    2.75000000
   18.36388969  129.57499695    2.01999998    2.75000000
   18.36722183  114.06900024    1.94000006    2.75000000
   18.37305641  114.06900024    2.00000000    2.75000000
   18.37722206  121.65000153    2.13000011    2.75000000
   18.38055611  112.58799744    2.11999989    2.75000000
   18.38361168  102.96299744    2.17000008    2.75000000
   18.38694382  102.73000336    2.15000010    2.75000000
   18.38722229  110.35600281    2.15000010    2.75000000
   18.39055634  116.25099945    2.13000011    2.75000000
   18.39388847  109.02300262    2.05999994    2.75000000
   18.39694405  124.57299805    2.05999994    2.73000002
   18.40027809  117.14499664    2.09999990    2.75000000
   18.40361023  130.30400085    2.11999989    2.75000000
   18.40666580  118.26000214    2.23000002    2.75000000
   18.40999985  123.25299835    2.25000000    2.75000000
   18.41583252  123.25299835    2.23000002    2.75000000
   18.42000008  118.37100220    2.07999992    2.75000000
   18.42055511  122.56199646    2.07999992    2.75000000
   18.42388916  110.95200348    2.25000000    2.75000000
   18.42722130  103.38400269    2.11999989    2.75000000
   18.43027687  110.65699768    2.09999990    2.75000000
   18.43361092  115.26000214    2.13000011    2.73000002
   18.43694305  129.19200134    2.25000000    2.75000000
   18.43999863  132.95100403    2.25000000    2.75000000
   18.44333267  127.83899689    2.30999994    2.73000002
   18.44638824  121.86900330    2.23000002    2.73000002
   18.44972038  116.54399872    1.86000001    2.75000000
   18.45305634  125.59600067    1.96000004    2.75000000
   18.45388985  121.95800018    1.98000002    2.75000000
   18.45888901  121.95800018    2.34999990    2.75000000
   18.46305656  106.90299988    2.25000000    2.73000002
   18.46611214  102.10500336    2.19000006    2.75000000
   18.46944427  114.61299896    2.40000010    2.73000002
   18.47249985  118.48799896    2.93000007    2.73000002
   18.47583389  125.46399689    2.91000009    2.73000002
   18.47916794  110.80699921    3.30999994    2.73000002
   18.48222351  124.67600250    3.25000000    2.73000002
   18.48555565  116.31700134    2.82999992    2.73000002
   18.48722267  114.53600311    2.93000007    2.73000002
   18.48916626  118.20899963    2.44000006    2.73000002
   18.49250031  121.73300171    2.23000002    2.75000000
   18.49555588  114.88800049    2.19000006    2.73000002
   18.50166702  114.88800049    2.30999994    2.75000000
   18.50583267  116.45200348    2.25000000    2.73000002
   18.50888824  113.94999695    2.42000008    2.73000002
   18.51222229  110.21299744    2.34999990    2.75000000
   18.51555634  112.81600189    2.21000004    2.73000002
   18.51861000  116.65899658    2.19000006    2.73000002
   18.52055550  105.12500000    2.23000002    2.73000002
   18.52222252  114.67900085    2.26999998    2.75000000
   18.52555466  110.51000214    2.23000002    2.75000000
   18.52861023  103.36900330    2.23000002    2.73000002
   18.53194427  119.12100220    2.17000008    2.75000000
   18.53499985  120.01899719    2.17000008    2.73000002
   18.53833199  121.51100159    2.11999989    2.75000000
   18.54444313  121.51100159    1.96000004    2.75000000
   18.54861069  120.19400024    1.91999996    2.75000000
   18.55194283  122.78299713    1.94000006    2.73000002
   18.55388832  114.50800323    1.88000000    2.73000002
   18.55555534  128.06900024    1.88000000    2.75000000
   18.55888748  126.35500336    1.83000004    2.75000000
   18.56194305  117.95700073    1.91999996    2.75000000
   18.56527710  115.75199890    2.05999994    2.73000002
   18.56861115  114.62899780    2.15000010    2.73000002
   18.57166672  118.73300171    2.11999989    2.73000002
   18.57500076  110.97799683    2.11999989    2.73000002
   18.57805634  114.37000275    2.00000000    2.75000000
   18.58139038  117.53099823    2.00000000    2.75000000
   18.58722305  117.53099823    2.05999994    2.73000002
   18.59138870  124.52100372    2.07999992    2.75000000
   18.59472275   93.82790375    2.15000010    2.75000000
   18.59777832  114.25199890    2.19000006    2.75000000
   18.60111237  111.87899780    2.25000000    2.73000002
   18.60444450  102.11900330    2.15000010    2.73000002
   18.60750008  110.51499939    2.15000010    2.73000002
   18.61083412  113.37599945    2.09999990    2.71000004
   18.61416626   96.89119720    2.09999990    2.71000004
   18.61722183   96.13320160    2.25000000    2.73000002
   18.62055588  100.04299927    2.39000010    2.71000004
   18.62249947  110.54900360    2.30999994    2.71000004
   18.62416649  120.02899933    2.26999998    2.71000004
   18.63027763  120.02899933    2.17000008    2.75000000
   18.63444519  111.33699799    2.17000008    2.73000002
   18.63750076  110.42800140    2.17000008    2.73000002
   18.64083290  108.12100220    2.13000011    2.73000002
   18.64388847  111.91899872    2.09999990    2.73000002
   18.64722252  115.55899811    2.17000008    2.73000002
   18.65055466  112.74500275    2.26999998    2.71000004
   18.65361023  117.81700134    2.13000011    2.73000002
   18.65583229  102.06700134    1.98000002    2.73000002
   18.65722275  116.09600067    1.98000002    2.73000002
   18.66055489  106.62699890    2.00000000    2.73000002
   18.66361046  111.90200043    2.00000000    2.75000000
   18.66694450  104.58999634    2.23000002    2.75000000
   18.67305565  104.58999634    2.48000002    2.71000004
   18.67722130  121.46399689    3.00000000    2.71000004
   18.68027687  115.73600006    2.93000007    2.71000004
   18.68361092  102.16500092    2.75000000    2.71000004
   18.68694305  110.40100098    3.26999998    2.71000004
   18.68916512  104.68000031    4.09999990    2.71000004
   18.69055557  111.55000305    4.34999990    2.69000006
   18.69388771  113.19000244    4.21999979    2.69000006
   18.69694328  108.73799896    3.86999989    2.71000004
   18.70027924  105.34799957    3.21000004    2.71000004
   18.70333481   92.14479828    4.69999981    2.69000006
   18.70666695  100.96600342    4.42999983    2.69000006
   18.71000099  122.16500092    4.26000023    2.69000006
   18.71583366  122.16500092    4.07999992    2.71000004
   18.72000122  101.35099792    3.72000003    2.69000006
   18.72249985  106.87100220    3.09999990    2.71000004
   18.72361183  112.28500366    2.94000006    2.71000004
   18.72694588  112.27999878    2.57999992    2.73000002
   18.73000145  109.66600037    2.69000006    2.71000004
   18.73333359  114.86499786    2.66000009    2.73000002
   18.73638916  117.23100281    3.09999990    2.71000004
   18.73972321  125.47200012    3.07999992    2.71000004
   18.74305534  107.69400024    2.96000004    2.71000004
   18.74611092  121.26000214    2.64000010    2.71000004
   18.74944496  108.63500214    2.51999998    2.71000004
   18.75277710  107.53600311    2.39000010    2.71000004
   18.75861168  107.53600311    2.23000002    2.71000004
   18.76277733  109.21700287    2.07999992    2.73000002
   18.76611137  107.52100372    2.34999990    2.71000004
   18.76916695  106.99900055    2.23000002    2.71000004
   18.77249908   99.03659821    2.05999994    2.71000004
   18.77583313  116.12599945    1.91999996    2.71000004
   18.77916718   96.85440063    1.69000006    2.73000002
   18.78222275  113.98300171    1.44000006    2.73000002
   18.78555489  107.84999847    1.55999994    2.71000004
   18.78861046  101.77700043    1.61000001    2.73000002
   18.78972244  106.98400116    1.71000004    2.73000002
   18.79222107   91.29119873    1.55999994    2.73000002
   18.79555511  107.29900360    1.64999998    2.73000002
   18.80166626  107.29900360    1.39999998    2.73000002
   18.80555534   86.90450287    1.66999996    2.71000004
   18.80888748  100.55999756    1.64999998    2.71000004
   18.81222153   94.78469849    1.71000004    2.71000004
   18.81527710   98.20760345    1.66999996    2.73000002
   18.81861115  104.01699829    1.66999996    2.73000002
   18.82194519  101.63500214    1.63000000    2.73000002
   18.82305717  102.37000275    1.61000001    2.73000002
   18.82527924  100.18000031    1.61000001    2.73000002
   18.82861137   95.72699738    1.63000000    2.73000002
   18.83194542  105.34600067    2.36999989    2.71000004
   18.83500099  104.73000336    2.51999998    2.71000004
   18.83833313  111.92700195    2.84999990    2.71000004
   18.84444427  111.92700195    3.45000005    2.69000006
   18.84861183   98.80470276    3.28999996    2.69000006
   18.85166740   98.16539764    3.36999989    2.69000006
   18.85499954  107.87699890    2.67000008    2.69000006
   18.85639000  105.64900208    2.66000009    2.69000006
   18.85861206   96.78769684    2.61999989    2.71000004
   18.86194420  104.82900238    2.48000002    2.71000004
   18.86499977  114.20700073    2.17000008    2.71000004
   18.86833382  109.17600250    1.61000001    2.73000002
   18.87138939   86.42849731    1.55999994    2.71000004
   18.87472153  107.06999969    1.38000000    2.73000002
   18.87805557   92.03130341    1.46000004    2.71000004
   18.88111115   89.42939758    1.41999996    2.73000002
   18.88722229   89.42939758    1.55999994    2.73000002
   18.90555573   84.13670349    1.34000003    2.73000002
   18.90888786  101.83100128    1.34000003    2.73000002
   18.91222191  105.80300140    1.48000002    2.71000004
   18.91527748  102.19400024    1.46000004    2.71000004
   18.91860962   96.18160248    1.46000004    2.71000004
   18.92166519  100.82700348    1.58000004    2.71000004
   18.92499924   99.06659698    1.63000000    2.71000004
   18.93027687   99.06659698    1.61000001    2.71000004
   18.93444443   91.83319855    1.73000002    2.71000004
   18.93777657  107.95999908    1.73000002    2.71000004
   18.93861008   95.54910278    1.73000002    2.71000004
   18.94138718   87.93119812    1.69000006    2.71000004
   18.94472122  105.63200378    1.69000006    2.73000002
   18.94777679  106.34999847    1.75000000    2.71000004
   18.95111275  103.28399658    1.76999998    2.71000004
   18.95444489  106.17099762    1.76999998    2.71000004
   18.95750046  102.41200256    2.03999996    2.69000006
   18.96083450   99.51709747    2.05999994    2.71000004
   18.96416664   97.54129791    2.03999996    2.71000004
   18.96722221   96.24700165    2.05999994    2.71000004
   18.97305679   96.24700165    2.03999996    2.71000004
   18.97722244  101.78600311    2.01999998    2.71000004
   18.98055649   97.11620331    2.25000000    2.71000004
   18.98388863   89.05300140    2.25000000    2.71000004
   18.98694420   94.99019623    2.11999989    2.71000004
   18.99027824   98.12979889    2.03999996    2.71000004
   18.99333382   82.43859863    2.09999990    2.69000006
   18.99666786   90.70919800    2.23000002    2.71000004
   19.00000000   95.89839935    2.19000006    2.69000006
   19.00305557   90.54190063    2.21000004    2.71000004
   19.00527763   95.70220184    2.25000000    2.69000006
   19.00666618   93.79319763    2.28999996    2.69000006
   19.01000023  101.13999939    2.36999989    2.69000006
   19.01611137  101.13999939    2.34999990    2.69000006
   19.02027702   88.89330292    2.42000008    2.69000006
   19.02333260   83.94239807    2.75000000    2.69000006
   19.02666664   92.99299622    3.21000004    2.69000006
   19.03000069   92.16419983    4.53000021    2.67000008
   19.03305435   91.14140320    4.82999992    2.66000009
   19.03638840  110.82700348    4.90999985    2.64000010
   19.03861046   90.96459961    4.90999985    2.64000010
   19.03999901   94.86920166    4.90999985    2.66000009
   19.04333305  109.39800262    4.90999985    2.61999989
   19.04638863  111.69499969    4.90999985    2.61999989
   19.04972076   92.86299896    4.90999985    2.61999989
   19.05277634  111.02100372    4.90999985    2.66000009
   19.05888748  111.02100372    4.90999985    2.64000010
   19.06305504   99.76170349    4.90999985    2.66000009
   19.06611061  103.01799774    4.90999985    2.66000009
   19.06944466  103.27400208    4.90999985    2.66000009
   19.07194519  120.57800293    4.90999985    2.66000009
   19.07305717  105.21600342    4.90999985    2.67000008
   19.07638931  103.14800262    4.84999990    2.66000009
   19.07944489  106.08300018    4.28999996    2.67000008
   19.08277893   95.70279694    4.44999981    2.66000009
   19.08583450  103.40100098    4.30999994    2.67000008
   19.08916664  104.38300323    4.36999989    2.67000008
   19.09250069  105.21299744    4.48999977    2.67000008
   19.09555626  101.52799988    4.26000023    2.67000008
   19.10166740  101.52799988    3.91000009    2.67000008
   19.10583305  100.49600220    3.16000009    2.67000008
   19.10916710   84.70230103    2.98000002    2.67000008
   19.11222267   91.59600067    2.93000007    2.69000006
   19.11555672   83.74299622    2.66000009    2.71000004
   19.11888885   99.47969818    2.55999994    2.69000006
   19.12194443  100.55500031    2.44000006    2.69000006
   19.12527847   88.00520325    2.42000008    2.69000006
   19.12833405   87.34310150    2.50000000    2.69000006
   19.13166618   87.27120209    2.50000000    2.69000006
   19.13500023   93.05269623    2.46000004    2.69000006
   19.13805580  102.57099915    2.11999989    2.69000006
   19.13861084  102.05000305    2.09999990    2.69000006
   19.14444351  102.05000305    1.88000000    2.69000006
   19.14861107   89.62500000    1.89999998    2.69000006
   19.15194321   93.52950287    1.89999998    2.71000004
   19.15527725  100.59100342    2.00000000    2.69000006
   19.15833282  107.12799835    1.94000006    2.69000006
   19.16166687   73.68029785    2.00000000    2.69000006
   19.16472244   92.09609985    2.01999998    2.69000006
   19.16805458   91.10389709    2.00000000    2.71000004
   19.17138863   94.81580353    2.07999992    2.69000006
   19.17194366   94.32849884    2.07999992    2.69000006
   19.17499924   98.49839783    2.11999989    2.69000006
   19.17833328   95.53040314    2.26999998    2.69000006
   19.18138885   88.14289856    2.19000006    2.69000006
   19.18750000   88.14289856    2.07999992    2.69000006
   19.19166565   88.00659943    1.91999996    2.69000006
   19.19472122   95.20210266    1.86000001    2.67000008
   19.19805527   99.30400085    1.88000000    2.69000006
   19.20138931  100.85700226    1.85000002    2.69000006
   19.20472336   83.00460052    1.85000002    2.69000006
   19.20527840   87.38909912    1.75000000    2.69000006
   19.20833397   86.05130005    1.53999996    2.71000004
   19.21166801   83.02490234    1.58000004    2.69000006
   19.21472359   80.35769653    1.50000000    2.69000006
   19.21805573   82.10769653    1.51999998    2.69000006
   19.22138977   85.32469940    1.58000004    2.69000006
   19.22444534  103.72399902    1.55999994    2.69000006
   19.23027802  103.72399902    1.53999996    2.69000006
   19.23444557  102.18499756    1.53999996    2.69000006
   19.23750114   98.68949890    1.63000000    2.69000006
   19.23861122  102.31700134    1.73000002    2.69000006
   19.24111176  102.58699799    1.73000002    2.69000006
   19.24444389  107.07199860    1.86000001    2.67000008
   19.24749947  111.61900330    1.61000001    2.69000006
   19.25083351  100.76100159    1.85000002    2.67000008
   19.25416756   89.75180054    1.83000004    2.69000006
   19.25722313   90.48840332    1.76999998    2.69000006
   19.26055527  107.39600372    1.66999996    2.69000006
   19.26361084  101.63400269    1.80999994    2.67000008
   19.26694489   94.09670258    1.69000006    2.69000006
   19.27305603   94.09670258    1.60000002    2.69000006
   19.27722168  102.54199982    1.69000006    2.69000006
   19.28055573  104.26100159    1.63000000    2.69000006
   19.28388786  105.25199890    1.63000000    2.69000006
   19.28694344  106.00700378    1.60000002    2.69000006
   19.29027748   89.63469696    1.55999994    2.69000006
   19.29361153  106.01999664    1.66999996    2.67000008
   19.29694366   87.58000183    1.69000006    2.69000006
   19.29999924   87.98000336    1.66999996    2.67000008
   19.30333328   80.57620239    1.63000000    2.67000008
   19.30527687   92.78620148    1.69000006    2.67000008
   19.30694389   90.62680054    1.66999996    2.69000006
   19.31027794   85.06490326    1.66999996    2.67000008
   19.31611061   85.06490326    1.55999994    2.69000006
   19.32000160   91.00279999    1.55999994    2.69000006
   19.32333374   95.05079651    1.69000006    2.67000008
   19.32666779  105.44200134    1.66999996    2.67000008
   19.32972336   99.31220245    1.66999996    2.67000008
   19.33305550   96.54959869    1.66999996    2.67000008
   19.33638954  106.23600006    1.73000002    2.67000008
   19.33861160  101.60900116    2.23000002    2.66000009
   19.34000015   94.81929779    2.30999994    2.67000008
   19.34333420   90.86940002    2.11999989    2.67000008
   19.34638977   90.43419647    2.17000008    2.66000009
   19.34972191   92.54910278    2.09999990    2.66000009
   19.35305595  105.24700165    2.01999998    2.66000009
   19.35888863  105.24700165    1.73000002    2.67000008
   19.36305618   96.59829712    1.69000006    2.67000008
   19.36611176   92.29160309    1.69000006    2.67000008
   19.36944389  100.23400116    1.61000001    2.67000008
   19.37194443   97.77279663    1.60000002    2.67000008
   19.37305641   97.55169678    1.60000002    2.67000008
   19.37638855  100.83799744    1.46000004    2.67000008
   19.37944412  112.24099731    1.38000000    2.69000006
   19.38277817  102.88099670    1.23000002    2.67000008
   19.38611031   95.00720215    1.19000006    2.66000009
   19.38916588  105.72200012    1.16999996    2.69000006
   19.39249992   98.13790131    1.25000000    2.67000008
   19.39555550   92.69400024    1.23000002    2.67000008
   19.40166664   92.69400024    1.16999996    2.67000008
   19.40583229   97.81790161    1.19000006    2.67000008
   19.40888786   98.35659790    1.16999996    2.67000008
   19.41222191   96.94329834    1.16999996    2.69000006
   19.41555595  106.26200104    1.34000003    2.67000008
   19.41860962   98.01270294    1.44000006    2.69000006
   19.42194366   96.11830139    1.46000004    2.67000008
   19.42527771   95.72470093    1.60000002    2.66000009
   19.42833328  102.82199860    1.64999998    2.66000009
   19.43166542   95.19770050    1.71000004    2.67000008
   19.43472099   98.86859894    1.71000004    2.67000008
   19.43805504  109.26499939    1.64999998    2.67000008
   19.43861008  108.54599762    1.64999998    2.67000008
   19.44444275  108.54599762    1.61000001    2.66000009
   19.44861031   99.08020020    1.58000004    2.66000009
   19.45194435   88.93109894    1.58000004    2.66000009
   19.45499992   95.50319672    1.58000004    2.67000008
   19.45833397   94.99859619    1.60000002    2.67000008
   19.46166801  106.47899628    1.63000000    2.67000008
   19.46472359  104.15000153    1.53999996    2.67000008
   19.46805573  103.68599701    1.51999998    2.67000008
   19.47138977   99.83170319    1.48000002    2.67000008
   19.47222328   99.32039642    1.44000006    2.67000008
   19.47500038  105.24199677    1.48000002    2.66000009
   19.47833443  103.91600037    1.53999996    2.66000009
   19.48166656  102.88899994    1.58000004    2.66000009
   19.48722267  102.88899994    1.60000002    2.66000009
   19.49138832   99.65979767    1.60000002    2.66000009
   19.49472237  105.86599731    1.78999996    2.66000009
   19.49805641  102.40000153    1.69000006    2.66000009
   19.50111198  104.84500122    1.69000006    2.66000009
   19.50444412  104.05699921    1.66999996    2.67000008
   19.50555611   98.74359894    1.66999996    2.67000008
   19.50805473   97.57610321    1.66999996    2.66000009
   19.51138878   96.44419861    1.66999996    2.66000009
   19.51472282   97.24179840    1.91999996    2.66000009
   19.51777840   93.08609772    2.01999998    2.66000009
   19.52111053  110.06199646    2.09999990    2.66000009
   19.52416611  109.71900177    2.07999992    2.66000009
   19.53027725  109.71900177    2.32999992    2.66000009
   19.53444481  104.06800079    2.82999992    2.64000010
   19.53750038  110.45099640    3.11999989    2.64000010
   19.53888893  106.77100372    3.11999989    2.64000010
   19.54111099  112.78299713    3.05999994    2.64000010
   19.54444313   98.15059662    2.98000002    2.66000009
   19.54749870  101.68000031    2.89000010    2.64000010
   19.55083275  105.79900360    2.84999990    2.64000010
   19.55416679  102.80200195    2.78999996    2.64000010
   19.55722237  108.85099792    2.67000008    2.66000009
   19.56055450  104.53800201    2.66000009    2.64000010
   19.56388855  103.27899933    2.67000008    2.64000010
   19.56694603   91.95249939    2.82999992    2.64000010
   19.57305717   91.95249939    2.59999990    2.64000010
   19.57722282  101.98699951    2.34999990    2.64000010
   19.58027840   98.85870361    2.26999998    2.66000009
   19.58361244   96.47429657    2.25000000    2.64000010
   19.58694458  104.88099670    2.17000008    2.64000010
   19.59000015  100.50900269    2.09999990    2.66000009
   19.59333420   98.77359772    1.98000002    2.64000010
   19.59666824  104.75900269    1.86000001    2.64000010
   19.59972191   98.07949829    1.80999994    2.64000010
   19.60305595  102.69999695    1.78999996    2.64000010
   19.60555649   88.85749817    1.71000004    2.64000010
   19.60666656   81.61940002    1.63000000    2.64000010
   19.61000061   78.95839691    1.51999998    2.64000010
   19.61583328   78.95839691    1.44000006    2.66000009
   19.62000084   91.57099915    1.55999994    2.66000009
   19.62333298   99.43520355    1.63000000    2.66000009
   19.62638855   99.75689697    1.64999998    2.66000009
   19.62972260   96.00170135    1.64999998    2.66000009
   19.63305473   90.40209961    1.66999996    2.64000010
   19.63611031   80.04149628    1.66999996    2.64000010
   19.63888931  100.68499756    1.66999996    2.64000010
   19.63972282   98.92839813    1.66999996    2.64000010
   19.64305496   92.78389740    1.86000001    2.64000010
   19.64638901   88.98729706    1.89999998    2.64000010
   19.64972115  107.57099915    1.89999998    2.64000010
   19.65277672   91.67720032    1.94000006    2.66000009
   19.65861130   91.67720032    1.78999996    2.64000010
   19.66277695   87.49829865    1.73000002    2.64000010
   19.66611099  100.09799957    1.66999996    2.64000010
   19.66944313   91.86579895    1.64999998    2.66000009
   19.67222214   92.45529938    1.63000000    2.66000009
   19.67277718   83.30380249    1.61000001    2.64000010
   19.67611122   92.79859924    1.58000004    2.64000010
   19.67916679   89.21600342    1.58000004    2.64000010
   19.68249893   75.83390045    1.53999996    2.64000010
   19.68583298   85.46289825    1.51999998    2.64000010
   19.68888855   83.33159637    1.50000000    2.64000010
   19.69222069   74.77239990    1.39999998    2.64000010
   19.69555473   89.01119995    1.38000000    2.64000010
   19.70166779   89.01119995    1.19000006    2.66000009
   19.70583344   91.09680176    1.19000006    2.64000010
   19.70888901   85.38899994    1.13000000    2.64000010
   19.71222305   86.64129639    1.07000005    2.64000010
   19.71555710   93.05770111    1.11000001    2.64000010
   19.71861076   91.96420288    1.16999996    2.64000010
   19.72194481   94.85769653    1.09000003    2.64000010
   19.72500038   91.73860168    1.00000000    2.64000010
   19.72833443   96.94370270    1.01999998    2.64000010
   19.73166656   89.05349731    1.01999998    2.64000010
   19.73472214   95.42849731    1.00000000    2.66000009
   19.73805618   90.38050079    1.03999996    2.64000010
   19.73888969   78.32089996    1.07000005    2.64000010
   19.74444389   78.32089996    1.11000001    2.64000010
   19.74861145   76.98600006    1.09000003    2.64000010
   19.75194359   91.16470337    1.05999994    2.64000010
   19.75499916   95.46600342    1.05999994    2.64000010
   19.75833321   98.70120239    1.05999994    2.64000010
   19.76138878   76.46910095    1.05999994    2.64000010
   19.76472282   93.82759857    0.98000002    2.64000010
   19.76805496   94.82160187    0.94000000    2.64000010
   19.77111053   84.46289825    1.00000000    2.64000010
   19.77222252   91.61589813    0.95999998    2.64000010
   19.77472115   89.73600006    0.94000000    2.64000010
   19.77805519   88.07769775    0.95999998    2.64000010
   19.78138924   85.18280029    0.95999998    2.64000010
   19.78722191   85.18280029    1.00000000    2.64000010
   19.79138756   79.89540100    1.05999994    2.64000010
   19.79472160   87.25360107    1.05999994    2.64000010
   19.79777718   89.28769684    1.05999994    2.64000010
   19.80111122   85.17919922    1.03999996    2.64000010
   19.80444336   93.82109833    1.01999998    2.64000010
   19.80555534   86.85849762    1.03999996    2.61999989
   19.80777740   90.37409973    1.03999996    2.61999989
   19.81110954   91.53430176    1.09000003    2.61999989
   19.81444359   93.09249878    1.09000003    2.61999989
   19.81750107   86.17379761    1.23000002    2.64000010
   19.82083511   88.66870117    1.25000000    2.61999989
   19.82389069   83.87809753    1.26999998    2.61999989
   19.83000183   83.87809753    1.23000002    2.61999989
   19.83416748   90.77929688    1.23000002    2.61999989
   19.83750153   73.71099854    1.19000006    2.61999989
   19.83889008   85.84290314    1.19000006    2.61999989
   19.84111214   77.02010345    1.19000006    2.64000010
   19.84444427   96.63960266    1.16999996    2.61999989
   19.84777832   85.39289856    1.14999998    2.61999989
   19.85083389   84.19719696    1.14999998    2.64000010
   19.85416794   88.09960175    1.14999998    2.64000010
   19.85750008   81.71520233    1.13000000    2.61999989
   19.86083412   80.77069855    1.13000000    2.61999989
   19.86388969   80.42710114    1.13000000    2.61999989
   19.86722183  100.61699677    1.11000001    2.61999989
   19.87305641  100.61699677    1.13000000    2.61999989
   19.87722206   88.16500092    1.14999998    2.61999989
   19.88055611   89.46450043    1.16999996    2.61999989
   19.88388824   80.30359650    1.21000004    2.59999990
   19.88694382   88.44879913    1.21000004    2.59999990
   19.89027786   86.78399658    1.33000004    2.61999989
   19.89361191   95.45099640    1.33000004    2.61999989
   19.89666748   86.03700256    1.30999994    2.59999990
   19.89999962   90.53659821    1.33000004    2.61999989
   19.90305519   86.76360321    1.30999994    2.61999989
   19.90555573   93.28630066    1.30999994    2.59999990
   19.92611122   93.28630066    1.33000004    2.61999989
   19.93027687  128.14999390    1.33000004    2.61999989
   19.93361092  134.54499817    1.30999994    2.61999989
   19.93666649  183.42399597    1.30999994    2.59999990
   19.93888855  201.30499268    1.30999994    2.59999990
   19.94027710  230.72500610    1.30999994    2.59999990
   19.94361115  237.33000183    1.28999996    2.59999990
   19.94694328   -1.00000000    1.25000000    2.59999990
   19.95000076   -1.00000000    1.26999998    2.59999990
   19.95333481   -1.00000000    1.30999994    2.59999990
   19.95666695   -1.00000000    1.36000001    2.59999990
   19.95972252   -1.00000000    1.36000001    2.59999990
   19.96305656   -1.00000000    1.36000001    2.59999990
   19.97277832   -1.00000000    1.25000000    2.59999990
   19.97611237   -1.00000000    1.25000000    2.59999990
   19.97944450   -1.00000000    1.25000000    2.59999990
   19.98250008   -1.00000000    1.26999998    2.59999990
   19.98583412   -1.00000000    1.26999998    2.59999990
   19.98888969   -1.00000000    1.23000002    2.59999990
   19.99222183   -1.00000000    1.23000002    2.61999989
   19.99555588   -1.00000000    1.14999998    2.59999990
   19.99861145   -1.00000000    1.14999998    2.59999990
   20.00194359   -1.00000000    1.16999996    2.59999990
   20.00527763   -1.00000000    1.16999996    2.59999990
   20.01583290   -1.00000000    1.11000001    2.59999990
   20.01888847   -1.00000000    1.09000003    2.59999990
   20.02222252   -1.00000000    1.05999994    2.57999992
   20.02527809   -1.00000000    1.05999994    2.57999992
   20.02861023   -1.00000000    1.05999994    2.57999992
   20.03194427   -1.00000000    1.07000005    2.59999990
   20.03499985   -1.00000000    1.07000005    2.59999990
   20.03833199   -1.00000000    1.05999994    2.59999990
   20.04194450   -1.00000000    1.05999994    2.57999992
   20.04500008   -1.00000000    1.00000000    2.57999992
   20.04833221   -1.00000000    0.94000000    2.57999992
   20.05861092   -1.00000000    0.86000001    2.57999992
   20.06194305   -1.00000000    0.86000001    2.59999990
   20.06499863   -1.00000000    0.81999999    2.59999990
   20.06833458   -1.00000000    0.81999999    2.57999992
   20.07139015   -1.00000000    0.81999999    2.59999990
   20.07500076   -1.00000000    0.86000001    2.57999992
   20.07833481   -1.00000000    0.86000001    2.57999992
   20.08139038   -1.00000000    0.89999998    2.57999992
   20.08472252   -1.00000000    0.88000000    2.59999990
   20.08777809   -1.00000000    0.88000000    2.59999990
   20.09111214   -1.00000000    0.89999998    2.57999992
   20.10138893   -1.00000000    0.89999998    2.57999992
   20.10472298   -1.00000000    0.89999998    2.57999992
   20.10833359   -1.00000000    0.86000001    2.57999992
