    HOUR (UT)   FLARE FACTOR    SKY TESTER    SUN TESTER
   12.50055599   -1.00000000   -1.00000000   -1.00000000
   12.56694412   58.80820084    0.00000000    0.00000000
   12.57027817   58.64509964    0.00000000    0.00000000
   12.57361126   59.49639893    0.00000000    0.00000000
   12.57666683   59.70050049    0.00000000    0.00000000
   12.57999992   58.40349960    0.00000000    0.00000000
   12.58333302   58.03200150    0.00000000    0.00000000
   12.58749962   58.03200150    0.17000000    0.70999998
   12.59166622   59.13299942    0.17000000    0.70999998
   12.59472179   58.74219894    0.17000000    0.70999998
   12.59805489   58.68259811    0.17000000    0.70999998
   12.60027790   58.44860077    0.17000000    0.70999998
   12.60166740   58.08300018    0.17000000    0.70999998
   12.60500050   60.26530075    0.17000000    0.70999998
   12.60805607   58.86589813    0.17000000    0.70999998
   12.61138916   58.93569946    0.17000000    0.70999998
   12.61444473   58.75719833    0.17000000    0.70999998
   12.61777782   58.78139877    0.17000000    0.70999998
   12.62111092   58.37319946    0.17000000    0.70999998
   12.62416649   58.21649933    0.17000000    0.70999998
   12.63027763   58.21649933    0.17000000    0.70999998
   12.63444424   59.01490021    0.17000000    0.70999998
   12.63749981   58.05950165    0.17000000    0.70999998
   12.64083290   59.12149811    0.17000000    0.70999998
   12.64416695   58.98929977    0.17000000    0.70999998
   12.64722252   58.64429855    0.17000000    0.70999998
   12.65055561   58.03969955    0.17000000    0.70999998
   12.65361118   57.82740021    0.17000000    0.70999998
   12.65694427   57.81409836    0.17000000    0.70999998
   12.66027737   58.62450027    0.17000000    0.70999998
   12.66333294   59.78430176    0.17000000    0.70999998
   12.66666698   58.35449982    0.17000000    0.70999998
   12.66722298   59.14720154    0.17000000    0.70999998
   12.67305565   59.14720154    0.17000000    0.70999998
   12.67722225   59.88800049    0.17000000    0.70999998
   12.68055630   58.07170105    0.17000000    0.70999998
   12.68361092   59.00849915    0.17000000    0.70999998
   12.68694496   58.73089981    0.17000000    0.70999998
   12.69027805   58.02880096    0.17000000    0.70999998
   12.69333363   59.01739883    0.17000000    0.70999998
   12.69666672   58.89519882    0.17000000    0.70999998
   12.69972229   58.88779831    0.17000000    0.70999998
   12.70055580   59.62799835    0.17000000    0.70999998
   12.70361137   59.48009872    0.17000000    0.70999998
   12.70666695   58.94609833    0.17000000    0.70999998
   12.71000004   58.67649841    0.17000000    0.70999998
   12.71583271   58.67649841    0.17000000    0.70999998
   12.71999931   58.89199829    0.17000000    0.70999998
   12.72333336   58.63140106    0.17000000    0.70999998
   12.72638798   60.13399887    0.17000000    0.70999998
   12.72972202   59.09180069    0.17000000    0.70999998
   12.73305511   60.08060074    0.17000000    0.70999998
   12.73388958   58.95569992    0.17000000    0.70999998
   12.73666668   58.85869980    0.17000000    0.70999998
   12.73972225   58.97629929    0.17000000    0.70999998
   12.74305534   59.41880035    0.17000000    0.70999998
   12.74611092   59.21530151    0.17000000    0.70999998
   12.74944496   60.07659912    0.17000000    0.70999998
   12.75277805   59.93999863    0.17000000    0.70999998
   12.75888920   59.93999863    0.17000000    0.70999998
   12.76277733   59.19649887    0.17000000    0.70999998
   12.76611137   60.20090103    0.17000000    0.70999998
   12.76722240   58.33950043    0.17000000    0.70999998
   12.76972198   60.29909897    0.17000000    0.70999998
   12.77277756   59.11759949    0.17000000    0.70999998
   12.77611065   59.73740005    0.17000000    0.70999998
   12.77944374   59.26839828    0.17000000    0.70999998
   12.78249931   58.79619980    0.17000000    0.70999998
   12.78583336   59.55569839    0.17000000    0.70999998
   12.78888893   59.47719955    0.17000000    0.70999998
   12.79222298   60.89540100    0.17000000    0.70999998
   12.79555607   59.81940079    0.17000000    0.70999998
   12.80166721   59.81940079    0.17000000    0.70999998
   12.80583382   59.92910004    0.17000000    0.70999998
   12.80888939   60.01509857    0.17000000    0.70999998
   12.81222248   59.82770157    0.17000000    0.70999998
   12.81555557   60.36989975    0.17000000    0.70999998
   12.81861115   60.23630142    0.17000000    0.70999998
   12.82194424   59.97200012    0.17000000    0.70999998
   12.82527733   60.23889923    0.17000000    0.70999998
   12.82833290   61.01860046    0.17000000    0.70999998
   12.83166695   61.52799988    0.17000000    0.70999998
   12.83388901   60.70149994    0.17000000    0.70999998
   12.83527756   60.54270172    0.17000000    0.70999998
   12.83833313   60.72750092    0.17000000    0.70999998
   12.84444427   60.72750092    0.17000000    0.70999998
   12.84861088   61.21469879    0.17000000    0.70999998
   12.85194492   62.18069839    0.17000000    0.70999998
   12.85500050   60.23899841    0.17000000    0.70999998
   12.85833359   61.24340057    0.17000000    0.70999998
   12.86166668   63.14530182    0.17000000    0.70999998
   12.86472225   60.57500076    0.17000000    0.70999998
   12.86722279   61.03279877    0.17000000    0.70999998
   12.86861134   61.95180130    0.17000000    0.70999998
   12.87166691   61.84239960    0.17000000    0.70999998
   12.87500000   61.21640015    0.17000000    0.70999998
   12.87833309   61.00859833    0.17000000    0.70999998
   12.88138866   60.83449936    0.17000000    0.70999998
   12.88722229   60.83449936    0.17000000    0.70999998
   12.89138889   60.94219971    0.17000000    0.70999998
   12.89472198   63.13019943    0.17000000    0.70999998
   12.89777756   62.20349884    0.17000000    0.70999998
   12.90055561   62.72380066    0.17000000    0.70999998
   12.90166664   62.05189896    0.17000000    0.70999998
   12.90472221   62.19940186    0.17000000    0.70999998
   12.90805531   62.13410187    0.17000000    0.70999998
   12.91138840   63.39709854    0.17000000    0.70999998
   12.91444397   62.31439972    0.17000000    0.70999998
   12.91777802   63.58819962    0.17000000    0.70999998
   12.92111111   62.09529877    0.17000000    0.70999998
   12.92416668   61.99050140    0.17000000    0.70999998
   12.93027782   61.99050140    0.17000000    0.70999998
   12.93416691   63.03480148    0.17000000    0.70999998
   12.93750000   63.16310120    0.17000000    0.70999998
   12.94083309   63.32830048    0.17000000    0.70999998
   12.94388866   64.76090240    0.17000000    0.70999998
   12.94722271   64.56790161    0.17000000    0.70999998
   12.95055580   65.53119659    0.17000000    0.70999998
   12.95361137   67.35299683    0.17000000    0.70999998
   12.95694447   64.13619995    0.17000000    0.70999998
   12.96000004   65.29440308    0.17000000    0.70999998
   12.96333313   65.04499817    0.17000000    0.70999998
   12.96666622   67.03050232    0.17000000    0.70999998
   12.96722221   65.12740326    0.17000000    0.70999998
   12.97305489   65.12740326    0.17000000    0.70999998
   12.97722149   66.14089966    0.17000000    0.70999998
   12.98027706   65.85859680    0.17000000    0.70999998
   12.98361111   64.97360229    0.17000000    0.70999998
   12.98694515   66.86489868    0.17000000    0.70999998
   12.99000072   65.75569916    0.17000000    0.70999998
   12.99333382   67.90270233    0.17000000    0.70999998
   12.99666691   65.77010345    0.17000000    0.70999998
   12.99972248   66.65229797    0.17000000    0.70999998
   13.00055599   65.51670074    0.17000000    0.70999998
   13.00361156   66.37920380    0.17000000    0.70999998
   13.00666714   65.99659729    0.17000000    0.70999998
   13.01000023   65.86979675    0.17000000    0.70999998
   13.01583290   65.86979675    0.17000000    0.70999998
   13.01999950   68.05419922    0.17000000    0.70999998
   13.02305508   67.66410065    0.17000000    0.70999998
   13.02638817   69.24440002    0.17000000    0.70999998
   13.02972221   70.02529907    0.17000000    0.70999998
   13.03277779   68.55139923    0.17000000    0.70999998
   13.03388977   69.73960114    0.17000000    0.70999998
   13.03666687   66.87920380    0.17000000    0.70999998
   13.03972244   67.57890320    0.17000000    0.70999998
   13.04305553   67.34069824    0.17000000    0.70999998
   13.04638958   67.27880096    0.17000000    0.70999998
   13.04944515   68.19380188    0.17000000    0.70999998
   13.05277824   69.86859894    0.17000000    0.70999998
   13.05861092   69.86859894    0.17000000    0.70999998
   13.06277752   71.81849670    0.17000000    0.70999998
   13.06611156   70.92829895    0.17000000    0.70999998
   13.06722260   69.00019836    0.17000000    0.70999998
   13.06972218   69.94229889    0.17000000    0.70999998
   13.07305527   70.79219818    0.17000000    0.70999998
   13.07611084   70.84120178    0.17000000    0.70999998
   13.07944393   69.38700104    0.17000000    0.70999998
   13.08249950   71.00350189    0.17000000    0.70999998
   13.08583260   72.57800293    0.17000000    0.70999998
   13.08916664   70.29499817    0.17000000    0.70999998
   13.09222221   73.82299805    0.17000000    0.70999998
   13.09555531   71.51640320    0.17000000    0.70999998
   13.10166740   71.51640320    0.17000000    0.70999998
   13.10555553   70.57599640    0.17000000    0.70999998
   13.10888958   72.27839661    0.17000000    0.70999998
   13.11222267   73.34999847    0.17000000    0.70999998
   13.11527824   71.65309906    0.17000000    0.70999998
   13.11861134   71.66449738    0.17000000    0.70999998
   13.12166691   74.91529846    0.17000000    0.70999998
   13.12500000   74.43569946    0.17000000    0.70999998
   13.12833309   75.71559906    0.17000000    0.70999998
   13.13138866   75.24369812    0.17000000    0.70999998
   13.13388920   74.11229706    0.17000000    0.70999998
   13.13527775   74.47219849    0.17000000    0.70999998
   13.13833332   74.47129822    0.17000000    0.70999998
   13.14444447   74.47129822    0.17000000    0.70999998
   13.14861107   83.74759674    0.17000000    0.70999998
   13.15166664   77.16739655    0.17000000    0.70999998
   13.15499973   75.78299713    0.17000000    0.70999998
   13.15805531   78.89050293    0.17000000    0.70999998
   13.16138840   85.18329620    0.17000000    0.70999998
   13.16472149   82.56659698    0.17000000    0.70999998
   13.16722298   86.95189667    0.17000000    0.70999998
   13.16833401   78.04560089    0.17000000    0.70999998
   13.17138958   81.67600250    0.17000000    0.70999998
   13.17472267   84.07209778    0.17000000    0.70999998
   13.17805576   84.91889954    0.17000000    0.70999998
   13.18111134   82.95800018    0.17000000    0.70999998
   13.18722248   82.95800018    0.17000000    0.70999998
   13.19138908   82.61949921    0.17000000    0.70999998
   13.19444466   85.56040192    0.17000000    0.70999998
   13.19777775   87.09690094    0.17000000    0.70999998
   13.20055580   86.68009949    0.17000000    0.70999998
   13.20138836   88.69819641    0.17000000    0.70999998
   13.20444393   90.42109680    0.17000000    0.70999998
   13.20777798   90.10790253    0.17000000    0.70999998
   13.21111107   89.71050262    0.17000000    0.70999998
   13.21416664   92.08149719    0.17000000    0.70999998
   13.21749973   92.80690002    0.17000000    0.70999998
   13.22083282   91.36090088    0.17000000    0.70999998
   13.22388840   91.53820038    0.17000000    0.70999998
   13.22999954   91.53820038    0.17000000    0.70999998
   13.23416710   95.48799896    0.17000000    0.70999998
   13.23750019   97.89730072    0.17000000    0.70999998
   13.24055576  102.64499664    0.17000000    0.70999998
   13.24388885  102.35099792    0.17000000    0.70999998
   13.24722290   99.73090363    0.17000000    0.70999998
   13.25027752  106.56199646    0.17000000    0.70999998
   13.25361156  103.03900146    0.17000000    0.70999998
   13.25666714  107.26599884    0.17000000    0.70999998
   13.26000023  102.60500336    0.17000000    0.70999998
   13.26333332  105.72899628    0.17000000    0.70999998
   13.26638889  106.76399994    0.17000000    0.70999998
   13.26722240  105.85299683    0.17000000    0.70999998
   13.27277756  105.85299683    0.17000000    0.70999998
   13.27694416  108.91200256    0.17000000    0.70999998
   13.28027725  108.43699646    0.17000000    0.70999998
   13.28361130  108.15100098    0.17000000    0.70999998
   13.28666687  110.89900208    0.17000000    0.70999998
   13.29000092  111.29299927    0.17000000    0.70999998
   13.29305553  114.99600220    0.17000000    0.70999998
   13.29638958  111.33899689    0.17000000    0.70999998
   13.29972267  118.40100098    0.17000000    0.70999998
   13.30055618  120.56500244    0.17000000    0.70999998
   13.30333328  116.37500000    0.17000000    0.70999998
   13.30638885  119.25900269    0.17000000    0.70999998
   13.30972195  120.69499969    0.17000000    0.70999998
   13.31583309  120.69499969    0.17000000    0.70999998
   13.31999969  117.96399689    0.17000000    0.70999998
   13.32305527  124.86299896    0.17000000    0.70999998
   13.32638836  130.86999512    0.17000000    0.70999998
   13.32972240  125.15899658    0.17000000    0.70999998
   13.33277798  130.08000183    0.17000000    0.70999998
   13.33388901  129.66600037    0.17000000    0.70999998
   13.33638859  128.80099487    0.17000000    0.70999998
   13.33944416  128.92399597    0.17000000    0.70999998
   13.34277725  130.56399536    0.17000000    0.70999998
   13.34611034  136.38800049    0.17000000    0.70999998
   13.34916592  131.60499573    0.17000000    0.70999998
   13.35249996  135.77000427    0.17000000    0.70999998
   13.35861111  135.77000427    0.17000000    0.70999998
   13.36277771  136.98699951    0.17000000    0.70999998
   13.36583328  140.61500549    0.17000000    0.70999998
   13.36722279  145.96099854    0.17000000    0.70999998
   13.36972237  139.84599304    0.17000000    0.70999998
   13.37277794  137.21800232    0.17000000    0.70999998
   13.37611103  146.36799622    0.17000000    0.70999998
   13.37944412  145.05700684    0.17000000    0.70999998
   13.38249969  152.54899597    0.17000000    0.70999998
   13.38583279  153.05999756    0.17000000    0.70999998
   13.38916683  153.17300415    0.17000000    0.70999998
   13.39222240  155.12699890    0.17000000    0.70999998
   13.39555550  153.46600342    0.17000000    0.70999998
   13.40138817  153.46600342    0.17000000    0.70999998
   13.40555477  156.25199890    0.17000000    0.70999998
   13.40888882  157.32000732    0.17000000    0.70999998
   13.41194439  155.12399292    0.17000000    0.70999998
   13.41527748  154.72399902    0.17000000    0.70999998
   13.41861153  155.33200073    0.17000000    0.70999998
   13.42166710  165.33500671    0.17000000    0.70999998
   13.42500019  164.36900330    0.17000000    0.70999998
   13.42805576  167.76499939    0.17000000    0.70999998
   13.43138885  160.06900024    0.17000000    0.70999998
   13.43388939  160.74000549    0.17000000    0.70999998
   13.43500042  166.39900208    0.17000000    0.70999998
   13.43805599  172.61900330    0.17000000    0.70999998
   13.44416714  172.61900330    0.17000000    0.70999998
   13.44833374  168.02900696    0.17000000    0.70999998
   13.45166683  173.17300415    0.17000000    0.70999998
   13.45499992  176.45799255    0.17000000    0.70999998
   13.45805550  175.68200684    0.17000000    0.70999998
   13.46138859  177.03900146    0.17000000    0.70999998
   13.46444416  181.87300110    0.17000000    0.70999998
   13.46722221  173.31199646    0.17000000    0.70999998
   13.46833324  176.39199829    0.17000000    0.70999998
   13.47166634  177.76600647    0.17000000    0.70999998
   13.47472191  180.34199524    0.17000000    0.70999998
   13.47805500  178.34599304    0.17000000    0.70999998
   13.48111057  179.19400024    0.17000000    0.70999998
   13.48722267  179.19400024    0.17000000    0.70999998
   13.49138927  181.00900269    0.17000000    0.70999998
   13.49444485  183.30999756    0.17000000    0.70999998
   13.49777794  181.46600342    0.17000000    0.70999998
   13.50055599  180.57600403    0.17000000    0.70999998
   13.50138855  183.37699890    0.17000000    0.70999998
   13.50472260  184.33299255    0.17000000    0.70999998
   13.50777817  180.95199585    0.17000000    0.70999998
   13.51111126  192.02699280    0.17000000    0.70999998
   13.51444435  184.29600525    0.17000000    0.70999998
   13.51749992  189.73599243    0.17000000    0.70999998
   13.52083302  185.41700745    0.17000000    0.70999998
   13.52388859  180.73100281    0.17000000    0.70999998
   13.52999973  180.73100281    0.17000000    0.70999998
   13.53416729  190.90400696    0.17000000    0.70999998
   13.53722286  187.45199585    0.17000000    0.70999998
   13.54055595  194.09700012    0.17000000    0.70999998
   13.54388905  192.87100220    0.17000000    0.70999998
   13.54694462  188.58999634    0.17000000    0.70999998
   13.55027771  185.99000549    0.17000000    0.70999998
   13.55361176  202.04299927    0.17000000    0.70999998
   13.55666733  194.92300415    0.17000000    0.70999998
   13.56000042  193.27799988    0.17000000    0.70999998
   13.56305599  190.82099915    0.17000000    0.70999998
   13.56638908  194.25999451    0.17000000    0.70999998
   13.56722260  193.79800415    0.17000000    0.70999998
   13.58805561  193.79800415    0.17000000    0.70999998
   13.59222221  184.33000183    0.17000000    0.70999998
   13.59527779  187.69500732    0.17000000    0.70999998
   13.59861088  192.36199951    0.17000000    0.70999998
   13.60055637  185.54100037    0.17000000    0.70999998
   13.60222244  188.79699707    0.17000000    0.70999998
   13.60555553  187.21299744    0.17000000    0.70999998
   13.60861111  183.27600098    0.17000000    0.70999998
   13.61194515  187.30799866    0.17000000    0.70999998
   13.61527824  190.87399292    0.17000000    0.70999998
   13.61833382  191.29200745    0.17000000    0.70999998
   13.62166691  187.06500244    0.17000000    0.70999998
   13.62472248  185.06100464    0.17000000    0.70999998
   13.63083363  185.06100464    0.17000000    0.70999998
   13.63500023  182.66999817    0.17000000    0.70999998
   13.63805580  190.14700317    0.17000000    0.70999998
   13.64138889  184.25199890    0.17000000    0.70999998
   13.64472198  181.60800171    0.17000000    0.70999998
   13.64777756  184.38900757    0.17000000    0.70999998
   13.65111065  187.50199890    0.17000000    0.70999998
   13.65416622  181.02999878    0.17000000    0.70999998
   13.65749931  184.63699341    0.17000000    0.70999998
   13.66083336  183.95399475    0.17000000    0.70999998
   13.66388893  171.88000488    0.17000000    0.70999998
   13.66722298  170.56900024    0.17000000    0.70999998
   13.66777802  176.09100342    0.17000000    0.70999998
   13.67361164  176.09100342    0.17000000    0.70999998
   13.67777824  171.33900452    0.17000000    0.70999998
   13.68111134  171.09199524    0.17000000    0.70999998
   13.68416691  171.59599304    0.17000000    0.70999998
   13.68750000  167.07000732    0.17000000    0.70999998
   13.69055557  165.49600220    0.17000000    0.70999998
   13.69388866  169.07099915    0.17000000    0.70999998
   13.69722271  172.12199402    0.17000000    0.70999998
   13.70027733  165.09899902    0.17000000    0.70999998
   13.70111084  163.59599304    0.17000000    0.70999998
   13.70416641  160.47399902    0.17000000    0.70999998
   13.70722198  158.77900696    0.17000000    0.70999998
   13.71055508  168.64100647    0.17000000    0.70999998
   13.71638870  168.64100647    0.17000000    0.70999998
   13.72055531  162.41900635    0.17000000    0.70999998
   13.72388840  161.42500305    0.17000000    0.70999998
   13.72694397  160.07200623    0.17000000    0.70999998
   13.73027706  157.92900085    0.17000000    0.70999998
   13.73361111  157.59599304    0.17000000    0.70999998
   13.73444462  151.60099792    0.17000000    0.70999998
   13.73722267  158.24499512    0.17000000    0.70999998
   13.74027824  153.18800354    0.17000000    0.70999998
   13.74361134  155.19299316    0.17000000    0.70999998
   13.74666691  154.50199890    0.17000000    0.70999998
   13.75000000  151.31900024    0.17000000    0.70999998
   13.75333309  150.36599731    0.17000000    0.70999998
   13.75944424  150.36599731    0.17000000    0.70999998
   13.76333332  147.87800598    0.17000000    0.70999998
   13.76666641  146.19700623    0.17000000    0.70999998
   13.76777744  147.26899719    0.17000000    0.70999998
   13.77055550  140.88200378    0.17000000    0.70999998
   13.77361107  144.39900208    0.17000000    0.70999998
   13.77694416  144.24400330    0.17000000    0.70999998
   13.77999973  149.04800415    0.17000000    0.70999998
   13.78333378  138.62399292    0.17000000    0.70999998
   13.78666687  144.00100708    0.17000000    0.70999998
   13.78972244  144.35000610    0.17000000    0.70999998
   13.79305553  139.16200256    0.17000000    0.70999998
   13.79638958  138.77499390    0.17000000    0.70999998
   13.80222225  138.77499390    0.17000000    0.70999998
   13.80638885  133.91299438    0.17000000    0.70999998
   13.80944443  135.86000061    0.17000000    0.70999998
   13.81277752  133.41999817    0.17000000    0.70999998
   13.81611156  132.75799561    0.17000000    0.70999998
   13.81916618  126.12899780    0.17000000    0.70999998
   13.82250023  138.75100708    0.17000000    0.70999998
   13.82555580  126.96700287    0.17000000    0.70999998
   13.82888889  128.05499268    0.17000000    0.70999998
   13.83222198  129.13000488    0.17000000    0.70999998
   13.83444405  126.21299744    0.17000000    0.70999998
   13.83583260  128.21299744    0.17000000    0.70999998
   13.83888817  125.40299988    0.17000000    0.70999998
   13.84499931  125.40299988    0.17000000    0.70999998
   13.84916592  119.53099823    0.17000000    0.70999998
   13.85249996  119.47100067    0.17000000    0.70999998
   13.85555553  116.77100372    0.17000000    0.70999998
   13.85888958  116.31300354    0.17000000    0.70999998
   13.86194515  116.91600037    0.17000000    0.70999998
   13.86527824  116.54199982    0.17000000    0.70999998
   13.86777782  117.12500000    0.17000000    0.70999998
   13.86916637  112.21800232    0.17000000    0.70999998
   13.87222195  117.22899628    0.17000000    0.70999998
   13.87555599  115.10700226    0.17000000    0.70999998
   13.87888908  115.10800171    0.17000000    0.70999998
   13.88194466  110.33200073    0.17000000    0.70999998
   13.88777733  110.33200073    0.17000000    0.70999998
   13.89194393  112.64499664    0.17000000    0.70999998
   13.89527798  106.56300354    0.17000000    0.70999998
   13.89833355  106.93299866    0.17000000    0.70999998
   13.90111065  107.60199738    0.17000000    0.70999998
   13.90222168  104.64199829    0.17000000    0.70999998
   13.90527725  107.30699921    0.17000000    0.70999998
   13.90861034  106.10800171    0.17000000    0.70999998
   13.91194439  108.93699646    0.17000000    0.70999998
   13.91499996  101.90399933    0.17000000    0.70999998
   13.91833401  100.58100128    0.17000000    0.70999998
   13.92166710  104.75800323    0.17000000    0.70999998
   13.92472267  102.05400085    0.17000000    0.70999998
   13.93083382  102.05400085    0.17000000    0.70999998
   13.93472195  117.99900055    0.17000000    0.70999998
   13.93805599  102.90699768    0.17000000    0.70999998
   13.94138908  105.38300323    0.17000000    0.70999998
   13.94444466  100.39600372    0.17000000    0.70999998
   13.94777775  105.86900330    0.17000000    0.70999998
   13.95083332  104.41400146    0.17000000    0.70999998
   13.95416641   99.26540375    0.17000000    0.70999998
   13.95749950   95.19259644    0.17000000    0.70999998
   13.96055508   97.02989960    0.17000000    0.70999998
   13.96388912   95.11609650    0.17000000    0.70999998
   13.96722221   94.41719818    0.17000000    0.70999998
   13.96777725   92.84639740    0.17000000    0.70999998
   13.97361088   92.84639740    0.17000000    0.70999998
   13.97777748   96.75530243    0.17000000    0.70999998
   13.98083305   92.70169830    0.17000000    0.70999998
   13.98416710   94.07299805    0.17000000    0.70999998
   13.98722267   89.87909698    0.17000000    0.70999998
   13.99055576   90.18800354    0.17000000    0.70999998
   13.99388885   88.25509644    0.17000000    0.70999998
   13.99694443   88.50270081    0.17000000    0.70999998
   14.00027752   85.65000153    0.17000000    0.70999998
   14.00111103   84.24770355    0.17000000    0.70999998
   14.00388908   87.72750092    0.17000000    0.70999998
   14.00694466   87.83020020    0.17000000    0.70999998
   14.01027775   89.26360321    0.17000000    0.70999998
   14.01638889   89.26360321    0.17000000    0.70999998
   14.02055550   83.66970062    0.17000000    0.70999998
   14.02361107   82.79650116    0.17000000    0.70999998
   14.02694416   81.05840302    0.17000000    0.70999998
   14.03027725   84.81880188    0.17000000    0.70999998
   14.03333378   78.98970032    0.17000000    0.70999998
   14.03444481   80.69950104    0.17000000    0.70999998
   14.03722286   80.40609741    0.17000000    0.70999998
   14.04027843   79.05149841    0.17000000    0.70999998
   14.04361153   80.27230072    0.17000000    0.70999998
   14.04694462   76.32499695    0.17000000    0.70999998
   14.05000019   80.75379944    0.17000000    0.70999998
   14.05333328   76.29149628    0.17000000    0.70999998
   14.05916691   76.29149628    0.17000000    0.70999998
   14.06333351   79.90450287    0.17000000    0.70999998
   14.06666660   75.37619781    0.17000000    0.70999998
   14.06777763   75.33499908    0.17000000    0.70999998
   14.07027817   76.70700073    0.17000000    0.70999998
   14.07333374   76.65380096    0.17000000    0.70999998
   14.07666683   75.36399841    0.17000000    0.70999998
   14.07999992   75.26029968    0.17000000    0.70999998
   14.08305550   75.93430328    0.17000000    0.70999998
   14.08638859   76.93830109    0.17000000    0.70999998
   14.08944416   78.72409821    0.17000000    0.70999998
   14.09277725   75.47190094    0.17000000    0.70999998
   14.09611034   75.09169769    0.17000000    0.70999998
   14.10194492   75.09169769    0.17000000    0.70999998
   14.10611153   74.39150238    0.17000000    0.70999998
   14.10944462   73.47299957    0.17000000    0.70999998
   14.11277771   72.78700256    0.17000000    0.70999998
   14.11583328   74.62580109    0.17000000    0.70999998
   14.11916637   72.70459747    0.17000000    0.70999998
   14.12222195   71.67500305    0.17000000    0.70999998
   14.12555599   72.11660004    0.17000000    0.70999998
   14.12888908   70.60430145    0.17000000    0.70999998
   14.13194466   70.97930145    0.17000000    0.70999998
   14.13444424   70.66439819    0.17000000    0.70999998
   14.13583279   71.31420135    0.17000000    0.70999998
   14.13888836   74.13970184    0.17000000    0.70999998
   14.14499950   74.13970184    0.17000000    0.70999998
   14.14916611   72.80090332    0.17000000    0.70999998
   14.15222168   71.39959717    0.17000000    0.70999998
   14.15555477   69.55449677    0.17000000    0.70999998
   14.15861034   69.35880280    0.17000000    0.70999998
   14.16194439   70.54090118    0.17000000    0.70999998
   14.16527748   70.80549622    0.17000000    0.70999998
   14.16777802   71.44239807    0.17000000    0.70999998
   14.16888905   70.77030182    0.17000000    0.70999998
   14.17222214   70.74839783    0.17000000    0.70999998
   14.17527771   70.18910217    0.17000000    0.70999998
   14.17861176   69.85980225    0.17000000    0.70999998
   14.18166733   71.22070313    0.17000000    0.70999998
   14.18777752   71.22070313    0.17000000    0.70999998
   14.19194412   69.50990295    0.17000000    0.70999998
   14.19499969   67.69480133    0.17000000    0.70999998
   14.19833374   70.57749939    0.17000000    0.70999998
   14.20111084   70.06649780    0.17000000    0.70999998
   14.20194435   68.59470367    0.17000000    0.70999998
   14.20499992   69.43170166    0.17000000    0.70999998
   14.20833302   70.04910278    0.17000000    0.70999998
   14.21166611   68.51290131    0.17000000    0.70999998
   14.21472168   67.68329620    0.17000000    0.70999998
   14.21805477   68.38189697    0.17000000    0.70999998
   14.22138882   69.81610107    0.17000000    0.70999998
   14.22444439   70.91719818    0.17000000    0.70999998
   14.23055553   70.91719818    0.17000000    0.70999998
   14.23472214   70.28079987    0.17000000    0.70999998
   14.23805618   69.56680298    0.17000000    0.70999998
   14.24111176   68.73670197    0.17000000    0.70999998
   14.24444485   70.61720276    0.17000000    0.70999998
   14.24777794   69.19210052    0.17000000    0.70999998
   14.25083351   67.68370056    0.17000000    0.70999998
   14.25416660   67.80789948    0.17000000    0.70999998
   14.25722218   67.61360168    0.17000000    0.70999998
   14.26055527   67.11959839    0.17000000    0.70999998
   14.26388931   67.36560059    0.17000000    0.70999998
   14.26694393   67.39820099    0.17000000    0.70999998
   14.26777744   66.54440308    0.17000000    0.70999998
   14.27333355   66.54440308    0.17000000    0.70999998
   14.27750015   67.06490326    0.17000000    0.70999998
   14.28083324   67.17189789    0.17000000    0.70999998
   14.28416729   68.61630249    0.17000000    0.70999998
   14.28722286   67.58940125    0.17000000    0.70999998
   14.29055595   68.42230225    0.17000000    0.70999998
   14.29361153   68.07579803    0.17000000    0.70999998
   14.29694462   67.08300018    0.17000000    0.70999998
   14.30027771   69.03160095    0.17000000    0.70999998
   14.30111122   67.12789917    0.17000000    0.70999998
   14.30388927   67.76170349    0.17000000    0.70999998
   14.30694485   66.94550323    0.17000000    0.70999998
   14.31027794   66.85240173    0.17000000    0.70999998
   14.31638908   66.85240173    0.17000000    0.70999998
   14.32055569   66.79389954    0.17000000    0.70999998
   14.32361126   66.32659912    0.17000000    0.70999998
   14.32694435   68.71510315    0.17000000    0.70999998
   14.32999992   66.64839935    0.17000000    0.70999998
   14.33333302   68.33499908    0.17000000    0.70999998
   14.33444405   66.95020294    0.17000000    0.70999998
   14.33694458   68.15440369    0.17000000    0.70999998
   14.34000015   66.68399811    0.17000000    0.70999998
   14.34333324   68.71929932    0.17000000    0.70999998
   14.34666634   65.07879639    0.17000000    0.70999998
   14.34972191   67.38629913    0.17000000    0.70999998
   14.35305595   67.26760101    0.17000000    0.70999998
   14.35916710   67.26760101    0.17000000    0.70999998
   14.36333370   67.98370361    0.17000000    0.70999998
   14.36638927   67.19020081    0.17000000    0.70999998
   14.36777782   67.86900330    0.17000000    0.70999998
   14.37027836   66.49490356    0.17000000    0.70999998
   14.37333393   68.14469910    0.17000000    0.70999998
   14.37666702   65.13639832    0.17000000    0.70999998
   14.38000011   66.49880219    0.17000000    0.70999998
   14.38305569   66.29940033    0.17000000    0.70999998
   14.38638878   65.36699677    0.17000000    0.70999998
   14.38972187   66.18029785    0.17000000    0.70999998
   14.39277744   65.55740356    0.17000000    0.70999998
   14.39611053   68.73159790    0.17000000    0.70999998
   14.40194416   68.73159790    0.17000000    0.70999998
   14.40611076   66.49549866    0.17000000    0.70999998
   14.40944386   65.81759644    0.17000000    0.70999998
   14.41249943   64.26000214    0.17000000    0.70999998
   14.41583252   66.23690033    0.17000000    0.70999998
   14.41916656   66.04640198    0.17000000    0.70999998
   14.42222214   65.77480316    0.17000000    0.70999998
   14.42555618   66.77529907    0.17000000    0.70999998
   14.42888927   65.96820068    0.17000000    0.70999998
   14.43194485   66.34750366    0.17000000    0.70999998
   14.43444443   66.01860046    0.17000000    0.70999998
   14.43555546   66.08190155    0.17000000    0.70999998
   14.43888855   64.56490326    0.17000000    0.70999998
   14.44472218   64.56490326    0.17000000    0.70999998
   14.44888878   68.14700317    0.17000000    0.70999998
   14.45222187   65.34159851    0.17000000    0.70999998
   14.45555496   65.07140350    0.17000000    0.70999998
   14.45861053   64.41470337    0.17000000    0.70999998
   14.46194458   66.95159912    0.17000000    0.70999998
   14.46500015   66.60890198    0.17000000    0.70999998
   14.46777725   65.52030182    0.17000000    0.70999998
   14.46888828   65.78739929    0.17000000    0.70999998
   14.47222137   65.91940308    0.17000000    0.70999998
   14.47527695   65.55030060    0.17000000    0.70999998
   14.47861099   64.65920258    0.17000000    0.70999998
   14.48166656   64.71630096    0.17000000    0.70999998
   14.48777771   64.71630096    0.17000000    0.70999998
   14.49194431   63.15610123    0.17000000    0.70999998
   14.49499989   64.94589996    0.17000000    0.70999998
   14.49833393   63.44760132    0.17000000    0.70999998
   14.50111103   64.26719666    0.17000000    0.70999998
   14.50194454   64.91889954    0.17000000    0.70999998
   14.50527763   65.23539734    0.17000000    0.70999998
   14.50833321   64.01069641    0.17000000    0.70999998
   14.51166630   65.61730194    0.17000000    0.70999998
   14.51472187   64.63259888    0.17000000    0.70999998
   14.51805496   63.58010101    0.17000000    0.70999998
   14.52138901   66.21070099    0.17000000    0.70999998
   14.52444458   64.21730042    0.17000000    0.70999998
   14.53055573   64.21730042    0.17000000    0.70999998
   14.53472233   65.38739777    0.17000000    0.70999998
   14.53777790   66.71829987    0.17000000    0.70999998
   14.54111195   64.29229736    0.17000000    0.70999998
   14.54444504   64.57740021    0.17000000    0.70999998
   14.54750061   63.02959824    0.17000000    0.70999998
   14.55083370   64.73680115    0.17000000    0.70999998
   14.55416679   63.99200058    0.17000000    0.70999998
   14.55722237   64.21829987    0.17000000    0.70999998
   14.56055546   63.64319992    0.17000000    0.70999998
   14.56361103   65.66280365    0.17000000    0.70999998
   14.56694412   66.34559631    0.17000000    0.70999998
   14.56777763   63.20439911    0.17000000    0.70999998
   14.57333374   63.20439911    0.17000000    0.70999998
   14.57750034   64.56410217    0.17000000    0.70999998
   14.58083344   63.55749893    0.17000000    0.70999998
   14.58388901   64.11260223    0.17000000    0.70999998
   14.60166740   62.98249817    0.17000000    0.70999998
   14.60388947   62.60340118    0.17000000    0.70999998
   14.60722256   63.46060181    0.17000000    0.70999998
   14.61055565   62.49399948    0.17000000    0.70999998
   14.61638927   62.49399948    0.17000000    0.70999998
   14.62055588   61.62009811    0.17000000    0.70999998
   14.62388897   61.74940109    0.17000000    0.70999998
   14.62694454   62.58119965    0.17000000    0.70999998
   14.63027763   62.23749924    0.17000000    0.70999998
   14.63333321   63.42100143    0.17000000    0.70999998
   14.63472176   63.00609970    0.17000000    0.70999998
   14.63722229   62.79059982    0.17000000    0.70999998
   14.64055538   61.53319931    0.17000000    0.70999998
   14.64361095   62.55400085    0.17000000    0.70999998
   14.64694405   61.24449921    0.17000000    0.70999998
   14.65027714   63.00120163    0.17000000    0.70999998
   14.65333271   64.71659851    0.17000000    0.70999998
   14.65916634   64.71659851    0.17000000    0.70999998
   14.66333294   62.53680038    0.17000000    0.70999998
   14.66666698   64.96910095    0.17000000    0.70999998
   14.66805553   63.69409943    0.17000000    0.70999998
   14.67027855   63.39550018    0.17000000    0.70999998
   14.67361164   62.93730164    0.17000000    0.70999998
   14.67666721   63.19829941    0.17000000    0.70999998
   14.68000031   63.47420120    0.17000000    0.70999998
   14.68333340   63.23030090    0.17000000    0.70999998
   14.68638897   63.24489975    0.17000000    0.70999998
   14.68972206   61.18360138    0.17000000    0.70999998
   14.69305515   62.81159973    0.17000000    0.70999998
   14.69611073   62.28229904    0.17000000    0.70999998
   14.70222187   62.28229904    0.17000000    0.70999998
   14.70611095   62.04800034    0.17000000    0.70999998
   14.70944405   61.14009857    0.17000000    0.70999998
   14.71277714   62.45360184    0.17000000    0.70999998
   14.71583271   60.94210052    0.17000000    0.70999998
   14.71916580   62.81060028    0.17000000    0.70999998
   14.72249985   61.56309891    0.17000000    0.70999998
   14.72555542   64.36609650    0.17000000    0.70999998
   14.72888851   62.11690140    0.17000000    0.70999998
   14.73194408   62.02600098    0.17000000    0.70999998
   14.73472214   61.95859909    0.17000000    0.70999998
   14.73583317   61.33129883    0.17000000    0.70999998
   14.73916721   64.10500336    0.17000000    0.70999998
   14.74499989   64.10500336    0.17000000    0.70999998
   14.74916649   62.22029877    0.17000000    0.70999998
   14.75222206   61.41799927    0.17000000    0.70999998
   14.75555515   61.48369980    0.17000000    0.70999998
   14.75888920   60.90670013    0.17000000    0.70999998
   14.76194477   62.99290085    0.17000000    0.70999998
   14.76527786   61.69950104    0.17000000    0.70999998
   14.76805496   62.07490158    0.17000000    0.70999998
   14.76888847   61.54439926    0.17000000    0.70999998
   14.77222157   62.81869888    0.17000000    0.70999998
   14.77527714   62.26110077    0.17000000    0.70999998
   14.77861118   61.98300171    0.17000000    0.70999998
   14.78194427   63.69240189    0.17000000    0.70999998
   14.78777790   63.69240189    0.17000000    0.70999998
   14.79194450   62.16009903    0.17000000    0.70999998
   14.79527855   61.43619919    0.17000000    0.70999998
   14.79833412   62.51359940    0.17000000    0.70999998
   14.80138874   62.26559830    0.17000000    0.70999998
   14.80194473   62.47969818    0.17000000    0.70999998
   14.80527782   61.52289963    0.17000000    0.70999998
   14.80833340   61.99470139    0.17000000    0.70999998
   14.81166649   63.42110062    0.17000000    0.70999998
   14.81500053   62.70849991    0.17000000    0.70999998
   14.81805515   62.67850113    0.17000000    0.70999998
   14.82138920   61.56779861    0.17000000    0.70999998
   14.82444477   64.15930176    0.17000000    0.70999998
   14.83055592   64.15930176    0.17000000    0.70999998
   14.83472157   63.10329819    0.17000000    0.70999998
   14.83527756   61.73680115    0.17000000    0.70999998
   14.83861065   62.06100082    0.17000000    0.70999998
   14.84166622   62.15719986    0.17000000    0.70999998
   14.84499931   61.43050003    0.17000000    0.70999998
   14.84833336   62.75239944    0.17000000    0.70999998
   14.85138893   62.57979965    0.17000000    0.70999998
   14.85472298   61.77159882    0.17000000    0.70999998
   14.85805607   62.39530182    0.17000000    0.70999998
   14.86111164   62.07860184    0.17000000    0.70999998
   14.86444473   65.60130310    0.17000000    0.70999998
   14.86750031   61.89810181    0.17000000    0.70999998
   14.86805534   62.60620117    0.17000000    0.70999998
   14.87361145   62.60620117    0.17000000    0.70999998
   14.87750053   62.19010162    0.17000000    0.70999998
   14.88083363   61.85200119    0.17000000    0.70999998
   14.88416672   63.01309967    0.17000000    0.70999998
   14.88722229   61.51169968    0.17000000    0.70999998
   14.89055538   61.97990036    0.17000000    0.70999998
   14.89388847   61.04710007    0.17000000    0.70999998
   14.89694405   62.36100006    0.17000000    0.70999998
   14.90027714   62.30690002    0.17000000    0.70999998
   14.90138817   61.80009842    0.17000000    0.70999998
   14.90388870   62.68669891    0.17000000    0.70999998
   14.90722179   61.62919998    0.17000000    0.70999998
   14.91027737   61.75650024    0.17000000    0.70999998
   14.91638851   61.75650024    0.17000000    0.70999998
   14.92055607   62.57490158    0.17000000    0.70999998
   14.92361164   62.92010117    0.17000000    0.70999998
   14.92694473   64.06340027    0.17000000    0.70999998
   14.93027782   62.48419952    0.17000000    0.70999998
   15.03111076   -1.00000000   -1.00000000   -1.00000000
   15.12777805   -1.00000000   -1.00000000   -1.00000000
   15.29166698   -1.00000000   -1.00000000   -1.00000000
   15.38277817   75.85710144    0.17000000    0.70999998
   15.38611126   62.41809845    0.17000000    0.70999998
   15.38944435   63.51380157    0.17000000    0.70999998
   15.39249992   63.07310104    0.17000000    0.70999998
   15.39583302   63.34120178    0.17000000    0.70999998
   15.39916611   62.28440094    0.17000000    0.70999998
   15.40305519   62.28440094    0.17000000    0.70999998
   15.40749931   62.28889847    0.17000000    0.70999998
   15.41083336   63.81430054    0.17000000    0.70999998
   15.41388893   61.77249908    0.17000000    0.70999998
   15.41638851   62.12360001    0.17000000    0.70999998
   15.41777802   63.17279816    0.17000000    0.70999998
   15.42083359   70.97499847    0.17000000    0.70999998
   15.42416668   63.26070023    0.17000000    0.70999998
   15.42750072   66.19049835    0.17000000    0.70999998
   15.43055630   69.95149994    0.17000000    0.70999998
   15.43388939   70.03849792    0.17000000    0.70999998
   15.43722248   66.52649689    0.17000000    0.70999998
   15.44027805   62.52959824    0.17000000    0.70999998
   15.44638920   62.52959824    0.17000000    0.70999998
   15.45055580   64.26679993    0.17000000    0.70999998
   15.45361137   64.51339722    0.17000000    0.70999998
   15.45694447   63.28030014    0.17000000    0.70999998
   15.46000004   63.99779892    0.17000000    0.70999998
   15.46333313   63.34429932    0.17000000    0.70999998
   15.46666622   62.43460083    0.17000000    0.70999998
   15.46972179   63.13970184    0.17000000    0.70999998
   15.47305489   62.15269852    0.17000000    0.70999998
   15.47638798   63.02450180    0.17000000    0.70999998
   15.47944355   63.79399872    0.17000000    0.70999998
   15.48277760   63.05139923    0.17000000    0.70999998
   15.48333359   63.22999954    0.17000000    0.70999998
   15.48916721   63.22999954    0.17000000    0.70999998
   15.49305534   63.06399918    0.17000000    0.70999998
   15.49611092   63.83359909    0.17000000    0.70999998
   15.49944496   63.92940140    0.17000000    0.70999998
   15.50277805   62.06990051    0.17000000    0.70999998
   15.50583363   61.41889954    0.17000000    0.70999998
   15.50916672   64.86129761    0.17000000    0.70999998
   15.51249981   63.57680130    0.17000000    0.70999998
   15.51555538   64.29840088    0.17000000    0.70999998
   15.51638889   63.25600052    0.17000000    0.70999998
   15.51944447   62.94879913    0.17000000    0.70999998
   15.52250004   62.31510162    0.17000000    0.70999998
   15.52583313   63.70989990    0.17000000    0.70999998
   15.53166676   63.70989990    0.17000000    0.70999998
   15.53583336   62.24480057    0.17000000    0.70999998
   15.53916740   63.54550171    0.17000000    0.70999998
   15.54222298   62.92449951    0.17000000    0.70999998
   15.54555607   62.43840027    0.17000000    0.70999998
   15.54888916   64.50930023    0.17000000    0.70999998
   15.54972267   62.67409897    0.17000000    0.70999998
   15.55249977   63.62720108    0.17000000    0.70999998
   15.55555534   64.01260376    0.17000000    0.70999998
   15.55888939   64.86640167    0.17000000    0.70999998
   15.56194496   65.67220306    0.17000000    0.70999998
   15.56527805   65.15200043    0.17000000    0.70999998
   15.56861115   62.76139832    0.17000000    0.70999998
   15.57444477   62.76139832    0.17000000    0.70999998
   15.57861137   62.60210037    0.17000000    0.70999998
   15.58194447   64.87989807    0.17000000    0.70999998
   15.58305550   62.62919998    0.17000000    0.70999998
   15.58555508   63.79520035    0.17000000    0.70999998
   15.58861065   64.55879974    0.17000000    0.70999998
   15.59194374   63.43659973    0.17000000    0.70999998
   15.59499931   61.68510056    0.17000000    0.70999998
   15.59833336   62.74330139    0.17000000    0.70999998
   15.60166740   63.50619888    0.17000000    0.70999998
   15.60472298   61.86309814    0.17000000    0.70999998
   15.60805607   61.80939865    0.17000000    0.70999998
   15.61138916   63.08219910    0.17000000    0.70999998
   15.61750031   63.08219910    0.17000000    0.70999998
   15.62166691   64.20110321    0.17000000    0.70999998
   15.62472248   64.41329956    0.17000000    0.70999998
   15.62805557   63.66809845    0.17000000    0.70999998
   15.63138866   63.02600098    0.17000000    0.70999998
   15.63444424   63.36059952    0.17000000    0.70999998
   15.63777733   63.48460007    0.17000000    0.70999998
   15.64111137   63.47729874    0.17000000    0.70999998
   15.64416695   63.40790176    0.17000000    0.70999998
   15.64750004   62.27970123    0.17000000    0.70999998
   15.64972210   63.97209930    0.17000000    0.70999998
   15.65111065   63.25949860    0.17000000    0.70999998
   15.65416622   62.37500000    0.17000000    0.70999998
   15.66027737   62.37500000    0.17000000    0.70999998
   15.66444397   62.99420166    0.17000000    0.70999998
   15.66777802   61.99620056    0.17000000    0.70999998
   15.67083359   63.01679993    0.17000000    0.70999998
   15.67416668   64.26470184    0.17000000    0.70999998
   15.67722225   63.98619843    0.17000000    0.70999998
   15.68055630   63.34609985    0.17000000    0.70999998
   15.68305588   63.42890167    0.17000000    0.70999998
   15.68444443   63.51229858    0.17000000    0.70999998
   15.68750000   62.81000137    0.17000000    0.70999998
   15.69083309   62.71429825    0.17000000    0.70999998
   15.69416714   63.99380112    0.17000000    0.70999998
   15.69722271   63.42419815    0.17000000    0.70999998
   15.70305538   63.42419815    0.17000000    0.70999998
   15.70722198   64.67369843    0.17000000    0.70999998
   15.71055508   63.42890167    0.17000000    0.70999998
   15.71361065   63.08990097    0.17000000    0.70999998
   15.71638870   62.64780045    0.17000000    0.70999998
   15.71749973   63.36740112    0.17000000    0.70999998
   15.72055531   63.48870087    0.17000000    0.70999998
   15.72388840   63.61320114    0.17000000    0.70999998
   15.72722149   63.02320099    0.17000000    0.70999998
   15.73027706   63.67750168    0.17000000    0.70999998
   15.73361111   63.77420044    0.17000000    0.70999998
   15.73666668   64.77030182    0.17000000    0.70999998
   15.74000072   64.75050354    0.17000000    0.70999998
   15.74583340   64.75050354    0.17000000    0.70999998
   15.75000000   63.26219940    0.17000000    0.70999998
   15.75333309   62.99509811    0.17000000    0.70999998
   15.75666714   64.04589844    0.17000000    0.70999998
   15.75972176   63.56370163    0.17000000    0.70999998
   15.76305580   63.44120026    0.17000000    0.70999998
   15.76638889   64.23220062    0.17000000    0.70999998
   15.76944447   64.48280334    0.17000000    0.70999998
   15.77277756   63.73680115    0.17000000    0.70999998
   15.77583313   62.95339966    0.17000000    0.70999998
   15.77916622   64.65570068    0.17000000    0.70999998
   15.78249931   64.90149689    0.17000000    0.70999998
   15.78305531   64.76899719    0.17000000    0.70999998
   15.78888893   64.76899719    0.17000000    0.70999998
   15.79305553   65.54609680    0.17000000    0.70999998
   15.79611111   65.39890289    0.17000000    0.70999998
   15.79944515   64.20330048    0.17000000    0.70999998
   15.80249977   65.05370331    0.17000000    0.70999998
   15.80583382   63.78799820    0.17000000    0.70999998
   15.80916691   63.40420151    0.17000000    0.70999998
   15.81250000   63.42119980    0.17000000    0.70999998
   15.81555557   64.02279663    0.17000000    0.70999998
   15.81638908   64.36260223    0.17000000    0.70999998
   15.81944466   65.31300354    0.17000000    0.70999998
   15.82250023   63.52679825    0.17000000    0.70999998
   15.82583332   62.77050018    0.17000000    0.70999998
   15.83166695   62.77050018    0.17000000    0.70999998
   15.83583260   64.16639709    0.17000000    0.70999998
   15.83888817   63.01810074    0.17000000    0.70999998
   15.84222221   65.86789703    0.17000000    0.70999998
   15.84555531   64.30740356    0.17000000    0.70999998
   15.84861088   64.60099792    0.17000000    0.70999998
   15.84972191   64.92489624    0.17000000    0.70999998
   15.85249996   64.48909760    0.17000000    0.70999998
   15.85555553   64.94139862    0.17000000    0.70999998
   15.85888958   63.43830109    0.17000000    0.70999998
   15.86222267   62.99739838    0.17000000    0.70999998
   15.86527824   64.05909729    0.17000000    0.70999998
   15.86861134   63.84930038    0.17000000    0.70999998
   15.87444496   63.84930038    0.17000000    0.70999998
   15.87861156   65.84230042    0.17000000    0.70999998
   15.88194466   63.42710114    0.17000000    0.70999998
   15.88305569   63.46820068    0.17000000    0.70999998
   15.88555527   65.19550323    0.17000000    0.70999998
   15.88888836   66.51110077    0.17000000    0.70999998
   15.89194393   64.17009735    0.17000000    0.70999998
   15.89527798   65.77970123    0.17000000    0.70999998
   15.89833355   64.09619904    0.17000000    0.70999998
   15.90166664   65.72650146    0.17000000    0.70999998
   15.90499973   64.63200378    0.17000000    0.70999998
   15.90805531   64.71659851    0.17000000    0.70999998
   15.91138840   64.02950287    0.17000000    0.70999998
   15.91722298   64.02950287    0.17000000    0.70999998
   15.92138958   65.19979858    0.17000000    0.70999998
   15.92472267   67.65319824    0.17000000    0.70999998
   15.92805576   66.78420258    0.17000000    0.70999998
   15.93111134   64.69170380    0.17000000    0.70999998
   15.93444443   67.73359680    0.17000000    0.70999998
   15.93750000   64.52749634    0.17000000    0.70999998
   15.94083309   64.79650116    0.17000000    0.70999998
   15.94416714   65.24259949    0.17000000    0.70999998
   15.94722271   66.05359650    0.17000000    0.70999998
   15.94972229   65.06690216    0.17000000    0.70999998
   15.95111084   65.77469635    0.17000000    0.70999998
   15.95416641   65.56179810    0.17000000    0.70999998
   15.96027756   65.56179810    0.17000000    0.70999998
   15.96444416   66.84449768    0.17000000    0.70999998
   15.96749973   64.72460175    0.17000000    0.70999998
   15.97083282   65.36789703    0.17000000    0.70999998
   15.97388840   64.31950378    0.17000000    0.70999998
   15.97722149   64.96630096    0.17000000    0.70999998
   15.98055553   67.14140320    0.17000000    0.70999998
   15.98305511   65.11479950    0.17000000    0.70999998
   15.98416710   65.31559753    0.17000000    0.70999998
   15.98722267   65.01989746    0.17000000    0.70999998
   15.99055576   64.96140289    0.17000000    0.70999998
   15.99388885   64.36329651    0.17000000    0.70999998
   15.99694443   64.80860138    0.17000000    0.70999998
   16.00305557   64.80860138    0.17000000    0.70999998
   16.00722313   65.56770325    0.17000000    0.70999998
   16.01027870   64.96710205    0.17000000    0.70999998
   16.01361084   66.09329987    0.17000000    0.70999998
   16.01638794   65.70110321    0.17000000    0.70999998
   16.01722145   65.65869904    0.17000000    0.70999998
   16.02027702   66.94400024    0.17000000    0.70999998
   16.02361107   65.55979919    0.17000000    0.70999998
   16.02694511   64.28459930    0.17000000    0.70999998
   16.03000069   65.11569977    0.17000000    0.70999998
   16.03333282   65.55560303    0.17000000    0.70999998
   16.03638840   66.61340332    0.17000000    0.70999998
   16.03972244   65.97049713    0.17000000    0.70999998
   16.04583359   65.97049713    0.17000000    0.70999998
   16.04999924   67.33540344    0.17000000    0.70999998
   16.05333328   65.11000061    0.17000000    0.70999998
   16.05638885   66.67440033    0.17000000    0.70999998
   16.05972099   66.39250183    0.17000000    0.70999998
   16.06305504   65.02600098    0.17000000    0.70999998
   16.06611061   65.33229828    0.17000000    0.70999998
   16.06944466   65.61470032    0.17000000    0.70999998
   16.07250023   67.06719971    0.17000000    0.70999998
   16.07583427   66.03639984    0.17000000    0.70999998
   16.07916832   65.79460144    0.17000000    0.70999998
   16.08222389   65.83899689    0.17000000    0.70999998
   16.08305550   67.43470001    0.17000000    0.70999998
   16.08861160   67.43470001    0.17000000    0.70999998
   16.09277916   66.17849731    0.17000000    0.70999998
   16.09611130   65.69059753    0.17000000    0.70999998
   16.09944534   66.41159821    0.17000000    0.70999998
   16.10250092   67.58799744    0.17000000    0.70999998
   16.10583305   67.34839630    0.17000000    0.70999998
   16.10888863   65.41110229    0.17000000    0.70999998
   16.11222267   67.40209961    0.17000000    0.70999998
   16.11555672   66.85209656    0.17000000    0.70999998
   16.11638832   67.16850281    0.17000000    0.70999998
   16.11916733   66.56890106    0.17000000    0.70999998
   16.12222290   66.92769623    0.17000000    0.70999998
   16.12555504   70.01119995    0.17000000    0.70999998
   16.13166618   70.01119995    0.17000000    0.70999998
   16.13583374   67.65529633    0.17000000    0.70999998
   16.13888931   69.92749786    0.17000000    0.70999998
   16.14222145   67.70989990    0.17000000    0.70999998
   16.14527702   68.00650024    0.17000000    0.70999998
   16.14861107   66.00599670    0.17000000    0.70999998
   16.14972115   66.03810120    0.17000000    0.70999998
   16.15222168   65.93530273    0.17000000    0.70999998
   16.15527725   66.49289703    0.17000000    0.70999998
   16.15861130   66.69360352    0.17000000    0.70999998
   16.16194344   66.83029938    0.17000000    0.70999998
   16.16499901   66.48390198    0.17000000    0.70999998
   16.16833305   67.40390015    0.17000000    0.70999998
   16.17444420   67.40390015    0.17000000    0.70999998
   16.17860985   68.28299713    0.17000000    0.70999998
   16.18166542   68.94529724    0.17000000    0.70999998
   16.18305397   66.71900177    0.17000000    0.70999998
   16.18555450   66.56420135    0.17000000    0.70999998
   16.18861008   70.37239838    0.17000000    0.70999998
   16.19194412   67.94670105    0.17000000    0.70999998
   16.19527626   69.30970001    0.17000000    0.70999998
   16.19833183   67.19129944    0.17000000    0.70999998
   16.20166779   66.92109680    0.17000000    0.70999998
   16.20499992   68.60420227    0.17000000    0.70999998
   16.20805550   67.28230286    0.17000000    0.70999998
   16.21138954   68.51640320    0.17000000    0.70999998
   16.21722221   68.51640320    0.17000000    0.70999998
   16.22138977   67.90950012    0.17000000    0.70999998
   16.22472191   67.16459656    0.17000000    0.70999998
   16.22777748   69.97650146    0.17000000    0.70999998
   16.23111153   68.89019775    0.17000000    0.70999998
   16.23444557   68.44239807    0.17000000    0.70999998
   16.23750114   68.24160004    0.17000000    0.70999998
   16.24083328   68.04299927    0.17000000    0.70999998
   16.24388885   68.85050201    0.17000000    0.70999998
   16.24722290   68.10690308    0.17000000    0.70999998
   16.24972153   70.24649811    0.17000000    0.70999998
   16.25083351   68.56020355    0.17000000    0.70999998
   16.25388908   68.47070313    0.17000000    0.70999998
   16.26000023   68.47070313    0.17000000    0.70999998
   16.26416588   67.80889893    0.17000000    0.70999998
   16.26749992   67.99160004    0.17000000    0.70999998
   16.27083397   67.38510132    0.17000000    0.70999998
   16.27388954   69.07900238    0.17000000    0.70999998
   16.27722168   69.91139984    0.17000000    0.70999998
   16.28027725   68.36180115    0.17000000    0.70999998
   16.28305435   67.08399963    0.17000000    0.70999998
   16.28416634   66.69709778    0.17000000    0.70999998
   16.28750038   67.68620300    0.17000000    0.70999998
   16.29055595   70.24500275    0.17000000    0.70999998
   16.29388809   69.46769714    0.17000000    0.70999998
   16.29694366   67.95089722    0.17000000    0.70999998
   16.30305481   67.95089722    0.17000000    0.70999998
   16.30722237   68.89129639    0.17000000    0.70999998
   16.31027794   71.01319885    0.17000000    0.70999998
   16.31361008   68.91200256    0.17000000    0.70999998
   16.31638718   67.86540222    0.17000000    0.70999998
   16.31722260   68.47229767    0.17000000    0.70999998
   16.32055664   69.33119965    0.17000000    0.70999998
   16.32361221   68.88059998    0.17000000    0.70999998
   16.32694626   68.89550018    0.17000000    0.70999998
   16.33000183   68.52739716    0.17000000    0.70999998
   16.33333397   69.42050171    0.17000000    0.70999998
   16.33666801   68.87319946    0.17000000    0.70999998
   16.33972359   68.13960266    0.17000000    0.70999998
   16.34583473   68.13960266    0.17000000    0.70999998
   16.35000038   69.63210297    0.17000000    0.70999998
   16.35305595   68.80560303    0.17000000    0.70999998
   16.35639000   69.56649780    0.17000000    0.70999998
   16.35972214   67.80979919    0.17000000    0.70999998
   16.36277771   67.85030365    0.17000000    0.70999998
   16.36611176   68.31700134    0.17000000    0.70999998
   16.36944389   69.95929718    0.17000000    0.70999998
   16.37249947   67.93769836    0.17000000    0.70999998
   16.37583351   67.33609772    0.17000000    0.70999998
   16.37888908   68.78459930    0.17000000    0.70999998
   16.38222313   67.91580200    0.17000000    0.70999998
   16.38305473   68.11399841    0.17000000    0.70999998
   16.40388870   68.11399841    0.17000000    0.70999998
   16.40805435   71.32430267    0.17000000    0.70999998
   16.41110992   70.05229950    0.17000000    0.70999998
   16.41444397   68.81289673    0.17000000    0.70999998
   16.41638756   70.36560059    0.17000000    0.70999998
   16.41805458   69.31030273    0.17000000    0.70999998
   16.42138863   68.76149750    0.17000000    0.70999998
   16.42444420   69.93000031    0.17000000    0.70999998
   16.42777634   69.16210175    0.17000000    0.70999998
   16.43111038   69.30840302    0.17000000    0.70999998
   16.43416595   69.46890259    0.17000000    0.70999998
   16.43750000   70.00260162    0.17000000    0.70999998
   16.44055557   68.56060028    0.17000000    0.70999998
   16.44666672   68.56060028    0.17000000    0.70999998
   16.45083427   69.49800110    0.17000000    0.70999998
   16.45388985   69.50070190    0.17000000    0.70999998
   16.45722389   68.96880341    0.17000000    0.70999998
   16.46055603   69.04010010    0.17000000    0.70999998
   16.46361160   68.25599670    0.17000000    0.70999998
   16.46694565   69.70690155    0.17000000    0.70999998
   16.47000122   67.64559937    0.17000000    0.70999998
   16.47333336   71.94159698    0.17000000    0.70999998
   16.47666740   70.12580109    0.17000000    0.70999998
   16.47972298   69.79270172    0.17000000    0.70999998
   16.48305511   68.56719971    0.17000000    0.70999998
   16.48361206   69.33059692    0.17000000    0.70999998
   16.48944473   69.33059692    0.17000000    0.70999998
   16.49361229   70.77600098    0.17000000    0.70999998
   16.49694443   69.92479706    0.17000000    0.70999998
   16.50000000   69.46980286    0.17000000    0.70999998
   16.50333405   70.10630035    0.17000000    0.70999998
   16.50638962   70.50399780    0.17000000    0.70999998
   16.50972176   69.02259827    0.17000000    0.70999998
   16.51305580   70.26210022    0.17000000    0.70999998
   16.51611137   70.31320190    0.17000000    0.70999998
   16.51694489   70.59169769    0.17000000    0.70999998
   16.52000046   69.28530121    0.17000000    0.70999998
   16.52305603   70.13150024    0.17000000    0.70999998
   16.52638817   72.39320374    0.17000000    0.70999998
   16.53222275   72.39320374    0.17000000    0.70999998
   16.53638840   70.29519653    0.17000000    0.70999998
   16.53972244   71.42590332    0.17000000    0.70999998
   16.54277802   69.77320099    0.17000000    0.70999998
   16.54611015   69.44550323    0.17000000    0.70999998
   16.54944420   70.45939636    0.17000000    0.70999998
   16.55027771   69.81390381    0.17000000    0.70999998
   16.55305481   70.97589874    0.17000000    0.70999998
   16.55611038   70.56569672    0.17000000    0.70999998
   16.55944443   68.44400024    0.17000000    0.70999998
   16.56250000   70.09559631    0.17000000    0.70999998
   16.56583214   68.67780304    0.17000000    0.70999998
   16.56916809   70.54830170    0.17000000    0.70999998
   16.57500076   70.54830170    0.17000000    0.70999998
   16.57916832   70.57510376    0.17000000    0.70999998
   16.58250046   69.95480347    0.17000000    0.70999998
   16.58361244   69.99659729    0.17000000    0.70999998
   16.58611107   71.43360138    0.17000000    0.70999998
   16.58944511   70.50340271    0.17000000    0.70999998
   16.59277916   71.78240204    0.17000000    0.70999998
   16.59583473   69.78109741    0.17000000    0.70999998
   16.59916687   70.56430054    0.17000000    0.70999998
   16.60250092   69.34649658    0.17000000    0.70999998
   16.60555649   70.35669708    0.17000000    0.70999998
   16.60888863   70.92680359    0.17000000    0.70999998
   16.61222267   72.17530060    0.17000000    0.70999998
   16.61805534   72.17530060    0.17000000    0.70999998
   16.62222290   69.52729797    0.17000000    0.70999998
   16.62527847   69.82379913    0.17000000    0.70999998
   16.62861061   69.38050079    0.17000000    0.70999998
   16.63166618   69.59310150    0.17000000    0.70999998
   16.63500023   70.30400085    0.17000000    0.70999998
   16.63833237   72.01789856    0.17000000    0.70999998
   16.64138794   69.06549835    0.17000000    0.70999998
   16.64472198   69.99099731    0.17000000    0.70999998
   16.64805603   69.80819702    0.17000000    0.70999998
   16.65027809   68.37030029    0.17000000    0.70999998
   16.65166664   70.18879700    0.17000000    0.70999998
   16.65472221   68.95269775    0.17000000    0.70999998
   16.66083336   68.95269775    0.17000000    0.70999998
   16.66499901   69.11499786    0.17000000    0.70999998
   16.66805458   69.66369629    0.17000000    0.70999998
   16.67138863   68.09850311    0.17000000    0.70999998
   16.67472076   68.23329926    0.17000000    0.70999998
   16.67777634   68.03610229    0.17000000    0.70999998
   16.68111038   68.95629883    0.17000000    0.70999998
   16.68361092   68.18350220    0.17000000    0.70999998
   16.68472099   68.86190033    0.17000000    0.70999998
   16.68777657   68.78749847    0.17000000    0.70999998
   16.69111061   68.26480103    0.17000000    0.70999998
   16.69416618   68.36940002    0.17000000    0.70999998
   16.69749832   69.53479767    0.17000000    0.70999998
   16.70361137   69.53479767    0.17000000    0.70999998
   16.70777893   68.37920380    0.17000000    0.70999998
   16.71111107   69.93779755    0.17000000    0.70999998
   16.71416664   70.54699707    0.17000000    0.70999998
   16.71694565   69.10109711    0.17000000    0.70999998
   16.71805573   70.03829956    0.17000000    0.70999998
   16.72111130   69.03089905    0.17000000    0.70999998
   16.72444534   70.25969696    0.17000000    0.70999998
   16.72750092   69.22370148    0.17000000    0.70999998
   16.73083305   69.79440308    0.17000000    0.70999998
   16.73416710   69.97250366    0.17000000    0.70999998
   16.73750114   72.37039948    0.17000000    0.70999998
   16.74055672   68.67949677    0.17000000    0.70999998
   16.74638939   68.67949677    0.17000000    0.70999998
   16.75055504   67.52600098    0.17000000    0.70999998
   16.75388908   67.80960083    0.17000000    0.70999998
   16.75722313   68.95259857    0.17000000    0.70999998
   16.76027870   66.99720001    0.17000000    0.70999998
   16.76361084   68.34149933    0.17000000    0.70999998
   16.76694489   70.07189941    0.17000000    0.70999998
   16.77000046   69.36740112    0.17000000    0.70999998
   16.77333260   69.64800262    0.17000000    0.70999998
   16.77638817   68.86799622    0.17000000    0.70999998
   16.77972221   67.36489868    0.17000000    0.70999998
   16.78305435   67.18810272    0.17000000    0.70999998
   16.78361130   67.26049805    0.17000000    0.70999998
   16.78944397   67.26049805    0.17000000    0.70999998
   16.79361153   71.47750092    0.17000000    0.70999998
   16.79666710   69.57599640    0.17000000    0.70999998
   16.79999924   68.83439636    0.17000000    0.70999998
   16.80305481   70.31240082    0.17000000    0.70999998
   16.80638885   69.49359894    0.17000000    0.70999998
   16.80972099   69.07790375    0.17000000    0.70999998
   16.81277657   70.51989746    0.17000000    0.70999998
   16.81611061   69.20639801    0.17000000    0.70999998
   16.81694603   68.38220215    0.17000000    0.70999998
   16.81972313   67.77410126    0.17000000    0.70999998
   16.82277870   69.25749969    0.17000000    0.70999998
   16.82611275   68.25769806    0.17000000    0.70999998
   16.83222389   68.25769806    0.17000000    0.70999998
   16.83638954   70.04029846    0.17000000    0.70999998
   16.83944511   67.42659760    0.17000000    0.70999998
   16.84277916   66.82630157    0.17000000    0.70999998
   16.84611130   68.20780182    0.17000000    0.70999998
   16.84916687   67.47959900    0.17000000    0.70999998
   16.85027885   66.99369812    0.17000000    0.70999998
   16.85305595   66.81780243    0.17000000    0.70999998
   16.85611153   67.15940094    0.17000000    0.70999998
   16.85944557   68.07920074    0.17000000    0.70999998
   16.86250114   66.64360046    0.17000000    0.70999998
   16.86583328   68.55999756    0.17000000    0.70999998
   16.86916733   68.23590088    0.17000000    0.70999998
   16.87500000   68.23590088    0.17000000    0.70999998
   16.87916756   66.83390045    0.17000000    0.70999998
   16.88249969   68.07489777    0.17000000    0.70999998
   16.88361168   68.07710266    0.17000000    0.70999998
   16.88611031   67.97480011    0.17000000    0.70999998
   16.88916588   67.83830261    0.17000000    0.70999998
   16.89249992   67.73310089    0.17000000    0.70999998
   16.89555550   66.64730072    0.17000000    0.70999998
   16.89888954   67.81809998    0.17000000    0.70999998
   16.90222168   68.72810364    0.17000000    0.70999998
   16.90527725   67.18419647    0.17000000    0.70999998
   16.90861130   67.34449768    0.17000000    0.70999998
   16.91194344   68.58989716    0.17000000    0.70999998
   16.91777802   68.58989716    0.17000000    0.70999998
   16.92194366   68.78459930    0.17000000    0.70999998
   16.92527771   68.52749634    0.17000000    0.70999998
   16.92833328   67.29799652    0.17000000    0.70999998
   16.93166542   66.68160248    0.17000000    0.70999998
   16.93499947   66.77410126    0.17000000    0.70999998
   16.93805504   65.46060181    0.17000000    0.70999998
   16.94138718   68.30519867    0.17000000    0.70999998
   16.94472122   67.88169861    0.17000000    0.70999998
   16.94777679   66.27239990    0.17000000    0.70999998
   16.95027924   68.79979706    0.17000000    0.70999998
   16.95166779   67.86750031    0.17000000    0.70999998
   16.95472336   67.09880066    0.17000000    0.70999998
   16.96083450   67.09880066    0.17000000    0.70999998
   16.96472359   66.78829956    0.17000000    0.70999998
   16.96805573   67.79209900    0.17000000    0.70999998
   16.97138977   68.51119995    0.17000000    0.70999998
   16.97444534   68.06050110    0.17000000    0.70999998
   16.97777748   66.52610016    0.17000000    0.70999998
   16.98111153   67.73310089    0.17000000    0.70999998
   16.98361206   69.16089630    0.17000000    0.70999998
   16.98472214   67.43119812    0.17000000    0.70999998
   16.98777771   66.06189728    0.17000000    0.70999998
   16.99111176   65.99400330    0.17000000    0.70999998
   16.99444389   68.31379700    0.17000000    0.70999998
   16.99749947   69.69029999    0.17000000    0.70999998
   17.00361061   69.69029999    0.17000000    0.70999998
   17.00777817   67.02570343    0.17000000    0.70999998
   17.01083374   69.16880035    0.17000000    0.70999998
   17.01416588   68.86509705    0.17000000    0.70999998
   17.01694489   66.08360291    0.17000000    0.70999998
   17.01777840   67.67700195    0.17000000    0.70999998
   17.02083397   66.11869812    0.17000000    0.70999998
   17.02416611   65.26660156    0.17000000    0.70999998
   17.02750015   65.39469910    0.17000000    0.70999998
   17.03055573   65.75160217    0.17000000    0.70999998
   17.03388786   65.90280151    0.17000000    0.70999998
   17.03694344   65.39659882    0.17000000    0.70999998
   17.04027748   66.85649872    0.17000000    0.70999998
   17.04638863   66.85649872    0.17000000    0.70999998
   17.05055428   65.98570251    0.17000000    0.70999998
   17.05388832   67.67690277    0.17000000    0.70999998
   17.05694389   65.14769745    0.17000000    0.70999998
   17.06027794   65.54840088    0.17000000    0.70999998
   17.06333351   67.73840332    0.17000000    0.70999998
   17.06666756   65.55190277    0.17000000    0.70999998
   17.07000160   67.24790192    0.17000000    0.70999998
   17.07305717   67.68460083    0.17000000    0.70999998
   17.07638931   65.54109955    0.17000000    0.70999998
   17.07972336   66.39489746    0.17000000    0.70999998
   17.08277893   66.62069702    0.17000000    0.70999998
   17.08361244   67.99829865    0.17000000    0.70999998
   17.08916664   67.99829865    0.17000000    0.70999998
   17.09333420   65.12480164    0.17000000    0.70999998
   17.09666824   66.34470367    0.17000000    0.70999998
   17.09972191   64.88629913    0.17000000    0.70999998
   17.10305595   66.51580048    0.17000000    0.70999998
   17.10639000   64.91329956    0.17000000    0.70999998
   17.10944557   65.18620300    0.17000000    0.70999998
   17.11277771   63.56760025    0.17000000    0.70999998
   17.11611176   63.42850113    0.17000000    0.70999998
   17.11694527   64.84300232    0.17000000    0.70999998
   17.11972237   63.71910095    0.17000000    0.70999998
   17.12277794   64.42479706    0.17000000    0.70999998
   17.12611198   63.87229919    0.17000000    0.70999998
   17.13222313   63.87229919    0.17000000    0.70999998
   17.13611031   65.84989929    0.17000000    0.70999998
   17.13944435   65.56759644    0.17000000    0.70999998
   17.14277840   65.21130371    0.17000000    0.70999998
   17.14583397   65.73760223    0.17000000    0.70999998
   17.14916611   64.89659882    0.17000000    0.70999998
   17.15027809   64.84439850    0.17000000    0.70999998
   17.15277672   64.72910309    0.17000000    0.70999998
   17.15583229   65.72740173    0.17000000    0.70999998
   17.15916634   65.73040009    0.17000000    0.70999998
   17.16250038   64.63469696    0.17000000    0.70999998
   17.16555595   65.99340057    0.17000000    0.70999998
   17.16888809   65.46549988    0.17000000    0.70999998
   17.17499924   65.46549988    0.17000000    0.70999998
   17.17916679   64.59169769    0.17000000    0.70999998
   17.18222237   65.32080078    0.17000000    0.70999998
   17.18361092   67.41069794    0.17000000    0.70999998
   17.18610954   64.36820221    0.17000000    0.70999998
   17.18916512   64.72589874    0.17000000    0.70999998
   17.19249916   64.16690063    0.17000000    0.70999998
   17.19583321   64.46089935    0.17000000    0.70999998
   17.19888878   64.60780334    0.17000000    0.70999998
   17.20222282   63.68880081    0.17000000    0.70999998
   17.20555687   64.05729675    0.17000000    0.70999998
   17.20861244   64.68479919    0.17000000    0.70999998
   17.21194458   65.28610229    0.17000000    0.70999998
   17.21777916   65.28610229    0.17000000    0.70999998
   17.22194481   64.40010071    0.17000000    0.70999998
   17.22527885   64.48090363    0.17000000    0.70999998
   17.22833443   64.63439941    0.17000000    0.70999998
   17.23166656   63.99169922    0.17000000    0.70999998
   17.23472214   63.61650085    0.17000000    0.70999998
   17.23805618   64.97290039    0.17000000    0.70999998
   17.24138832   65.06289673    0.17000000    0.70999998
   17.24444389   64.04789734    0.17000000    0.70999998
   17.24777794   64.69740295    0.17000000    0.70999998
   17.25027847   64.26309967    0.17000000    0.70999998
   17.25138855   64.80159760    0.17000000    0.70999998
   17.25444412   67.36100006    0.17000000    0.70999998
   17.26055527   67.36100006    0.17000000    0.70999998
   17.26472282   65.94599915    0.17000000    0.70999998
   17.26805496   64.04139709    0.17000000    0.70999998
   17.27111053   64.93160248    0.17000000    0.70999998
   17.27444458   64.55220032    0.17000000    0.70999998
   17.27777672   63.32030106    0.17000000    0.70999998
   17.28083229   63.03440094    0.17000000    0.70999998
   17.28361130   63.98979950    0.17000000    0.70999998
   17.28472137   64.12049866    0.17000000    0.70999998
   17.28777695   65.71710205    0.17000000    0.70999998
   17.29111099   63.98350143    0.17000000    0.70999998
   17.29444313   63.50889969    0.17000000    0.70999998
   17.29749870   64.90769958    0.17000000    0.70999998
   17.30360985   64.90769958    0.17000000    0.70999998
   17.30749893   63.83869934    0.17000000    0.70999998
   17.31083298   64.35949707    0.17000000    0.70999998
   17.31416512   64.18280029    0.17000000    0.70999998
   17.31694603   65.06670380    0.17000000    0.70999998
   17.31777954   62.86050034    0.17000000    0.70999998
   17.32083511   65.33249664    0.17000000    0.70999998
   17.32416725   62.82839966    0.17000000    0.70999998
   17.32750130   63.67160034    0.17000000    0.70999998
   17.33055687   63.08369827    0.17000000    0.70999998
   17.33388901   63.89319992    0.17000000    0.70999998
   17.33722305   63.15129852    0.17000000    0.70999998
   17.34027863   63.64569855    0.17000000    0.70999998
   17.34638977   63.64569855    0.17000000    0.70999998
   17.35055542   64.70040131    0.17000000    0.70999998
   17.35361099   64.36000061    0.17000000    0.70999998
   17.35694504   65.58149719    0.17000000    0.70999998
   17.36027908   65.55329895    0.17000000    0.70999998
   17.36333466   64.62079620    0.17000000    0.70999998
   17.36666679   63.81779861    0.17000000    0.70999998
   17.36972237   62.63140106    0.17000000    0.70999998
   17.37305641   64.78450012    0.17000000    0.70999998
   17.37638855   64.85530090    0.17000000    0.70999998
   17.37944412   64.80850220    0.17000000    0.70999998
   17.38277817   65.29859924    0.17000000    0.70999998
   17.38361168   64.23220062    0.17000000    0.70999998
   17.38916588   64.23220062    0.17000000    0.70999998
   17.39333344   64.10130310    0.17000000    0.70999998
   17.39666748   63.27600098    0.17000000    0.70999998
   17.39972115   64.35939789    0.17000000    0.70999998
   17.41749954   61.94319916    0.17000000    0.70999998
   17.41972160   61.46559906    0.17000000    0.70999998
   17.42305565   61.33919907    0.17000000    0.70999998
   17.42611122   62.04759979    0.17000000    0.70999998
   17.43222237   62.04759979    0.17000000    0.70999998
   17.43638802   61.78150177    0.17000000    0.70999998
   17.43944359   62.27019882    0.17000000    0.70999998
   17.44277763   61.77099991    0.17000000    0.70999998
   17.44610977   62.43700027    0.17000000    0.70999998
   17.44916534   62.56819916    0.17000000    0.70999998
   17.45055580   61.50989914    0.17000000    0.70999998
   17.45305634   61.71960068    0.17000000    0.70999998
   17.45639038   61.96960068    0.17000000    0.70999998
   17.45944595   61.71250153    0.17000000    0.70999998
   17.46277809   61.10260010    0.17000000    0.70999998
   17.46583366   62.00350189    0.17000000    0.70999998
   17.46916771   62.59970093    0.17000000    0.70999998
   17.47500038   62.59970093    0.17000000    0.70999998
   17.47916794   62.21400070    0.17000000    0.70999998
   17.48250008   62.66790009    0.17000000    0.70999998
   17.48388863   63.43259811    0.17000000    0.70999998
   17.48611069   61.33789825    0.17000000    0.70999998
   17.48944473   60.79510117    0.17000000    0.70999998
   17.49250031   62.12519836    0.17000000    0.70999998
   17.49583435   62.57709885    0.17000000    0.70999998
   17.49888992   62.45790100    0.17000000    0.70999998
   17.50222206   62.09400177    0.17000000    0.70999998
   17.50555611   60.79230118    0.17000000    0.70999998
   17.50861168   62.15520096    0.17000000    0.70999998
   17.51194382   61.16550064    0.17000000    0.70999998
   17.51777840   61.16550064    0.17000000    0.70999998
   17.52194405   62.68379974    0.17000000    0.70999998
   17.52527809   62.65000153    0.17000000    0.70999998
   17.52861023   64.24230194    0.17000000    0.70999998
   17.53166580   56.52640152    0.17000000    0.70999998
   17.53499985   61.85829926    0.17000000    0.70999998
   17.53805542   62.14419937    0.17000000    0.70999998
   17.54138756   61.19200134    0.17000000    0.70999998
   17.54472160   59.80839920    0.17000000    0.70999998
   17.54777718   61.84609985    0.17000000    0.70999998
   17.55055428   63.08169937    0.17000000    0.70999998
   17.55166626   61.85739899    0.17000000    0.70999998
   17.55499840   61.28829956    0.17000000    0.70999998
   17.56083298   61.28829956    0.17000000    0.70999998
   17.56499863   61.41099930    0.17000000    0.70999998
   17.56805611   62.27859879    0.17000000    0.70999998
   17.57139015   61.54589844    0.17000000    0.70999998
   17.57444572   60.73260117    0.17000000    0.70999998
   17.57777786   63.58459854    0.17000000    0.70999998
   17.58111191   61.38479996    0.17000000    0.70999998
   17.58388901   61.32609940    0.17000000    0.70999998
   17.58472252   62.90470123    0.17000000    0.70999998
   17.58805656   62.35279846    0.17000000    0.70999998
   17.59111214   61.89080048    0.17000000    0.70999998
   17.59444427   61.60520172    0.17000000    0.70999998
   17.59749985   61.26610184    0.17000000    0.70999998
   17.60361099   61.26610184    0.17000000    0.70999998
   17.60777855   60.95149994    0.17000000    0.70999998
   17.61083412   61.91650009    0.17000000    0.70999998
   17.61416626   62.28639984    0.17000000    0.70999998
   17.61722183   60.40750122    0.17000000    0.70999998
   17.61777878   59.62350082    0.17000000    0.70999998
   17.62111092   61.92850113    0.17000000    0.70999998
   17.62416649   60.74459839    0.17000000    0.70999998
   17.62750053   60.53739929    0.17000000    0.70999998
   17.63055611   61.42309952    0.17000000    0.70999998
   17.63388824   62.05210114    0.17000000    0.70999998
   17.63722229   60.83000183    0.17000000    0.70999998
   17.64027786   61.64569855    0.17000000    0.70999998
   17.64638901   61.64569855    0.17000000    0.70999998
   17.65055466   61.63090134    0.17000000    0.70999998
   17.65111160   61.84840012    0.17000000    0.70999998
   17.65444374   61.60770035    0.17000000    0.70999998
   17.65749931   61.88840103    0.17000000    0.70999998
   17.66083336   60.90520096    0.17000000    0.70999998
   17.66388893   61.79209900    0.17000000    0.70999998
   17.66722107   60.75519943    0.17000000    0.70999998
   17.67055511   61.68889999    0.17000000    0.70999998
   17.67361069   62.00880051    0.17000000    0.70999998
   17.67694473   61.05220032    0.17000000    0.70999998
   17.68027687   62.15259933    0.17000000    0.70999998
   17.68333244   59.80960083    0.17000000    0.70999998
   17.68388748   60.30849838    0.17000000    0.70999998
   17.68916512   60.30849838    0.17000000    0.70999998
   17.69333267   61.97060013    0.17000000    0.70999998
   17.69666672   60.70640182    0.17000000    0.70999998
   17.70000076   61.59360123    0.17000000    0.70999998
   17.70305634   61.93500137    0.17000000    0.70999998
   17.70639038   61.86009979    0.17000000    0.70999998
   17.70944595   60.64009857    0.17000000    0.70999998
   17.71277809   60.13639832    0.17000000    0.70999998
   17.71611214   62.05559921    0.17000000    0.70999998
   17.71722221   60.09159851    0.17000000    0.70999998
   17.71972275   60.33420181    0.17000000    0.70999998
   17.72305679   61.41070175    0.17000000    0.70999998
   17.72611237   59.30030060    0.17000000    0.70999998
   17.73222351   59.30030060    0.17000000    0.70999998
   17.73638916   60.91049957    0.17000000    0.70999998
   17.73944473   59.86080170    0.17000000    0.70999998
   17.74277878   63.66759872    0.17000000    0.70999998
   17.74583435   61.08409882    0.17000000    0.70999998
   17.74916649   60.49390030    0.17000000    0.70999998
   17.75055504   61.88949966    0.17000000    0.70999998
   17.75277710   61.64419937    0.17000000    0.70999998
   17.75611115   60.25859833    0.17000000    0.70999998
   17.75916672   62.26610184    0.17000000    0.70999998
   17.76250076   59.91690063    0.17000000    0.70999998
   17.76583290   60.65250015    0.17000000    0.70999998
   17.76888847   60.90380096    0.17000000    0.70999998
   17.77499962   60.90380096    0.17000000    0.70999998
   17.77916718   61.37319946    0.17000000    0.70999998
   17.78222275   60.31409836    0.17000000    0.70999998
   17.78388786   60.38899994    0.17000000    0.70999998
   17.78610992   61.70769882    0.17000000    0.70999998
   17.78944397   61.40919876    0.17000000    0.70999998
   17.79249954   60.56959915    0.17000000    0.70999998
   17.79583359   61.63980103    0.17000000    0.70999998
   17.79916573   60.61249924    0.17000000    0.70999998
   17.80222130   63.15190125    0.17000000    0.70999998
   17.80555534   61.83380127    0.17000000    0.70999998
   17.80861092   61.43439865    0.17000000    0.70999998
   17.81194305   60.17750168    0.17000000    0.70999998
   17.81777954   60.17750168    0.17000000    0.70999998
   17.82194519   60.35499954    0.17000000    0.70999998
   17.82527924   59.88180161    0.17000000    0.70999998
   17.82833481   61.30229950    0.17000000    0.70999998
   17.83166695   59.85100174    0.17000000    0.70999998
   17.83500099   60.30759811    0.17000000    0.70999998
   17.83805656   59.73669815    0.17000000    0.70999998
   17.84138870   60.30929947    0.17000000    0.70999998
   17.84472275   59.86489868    0.17000000    0.70999998
   17.84777832   60.41830063    0.17000000    0.70999998
   17.85055542   60.35889816    0.17000000    0.70999998
   17.85138893   59.51269913    0.17000000    0.70999998
   17.85472298   60.04040146    0.17000000    0.70999998
   17.86055565   60.04040146    0.17000000    0.70999998
   17.86472321   59.92850113    0.17000000    0.70999998
   17.86805534   60.93529892    0.17000000    0.70999998
   17.87138939   61.03649902    0.17000000    0.70999998
   17.87444496   59.56900024    0.17000000    0.70999998
   17.87777710   60.47169876    0.17000000    0.70999998
   17.88083267   60.01800156    0.17000000    0.70999998
   17.88388824   60.82649994    0.17000000    0.70999998
   17.88472176   59.86019897    0.17000000    0.70999998
   17.88777733   61.17530060    0.17000000    0.70999998
   17.89111137   59.93310165    0.17000000    0.70999998
   17.89444351   60.61700058    0.17000000    0.70999998
   17.89749908   60.12900162    0.17000000    0.70999998
   17.90361023   60.12900162    0.17000000    0.70999998
   17.90749931   59.98160172    0.17000000    0.70999998
   17.91083336   58.93360138    0.17000000    0.70999998
   17.91416550   60.08900070    0.17000000    0.70999998
   17.91722107   59.98889923    0.17000000    0.70999998
   17.91777802   59.07210159    0.17000000    0.70999998
   17.92111015   58.47109985    0.17000000    0.70999998
   17.92416573   60.16799927    0.17000000    0.70999998
   17.92749977   59.41600037    0.17000000    0.70999998
   17.93083191   59.98270035    0.17000000    0.70999998
   17.93388748   59.14730072    0.17000000    0.70999998
   17.93722153   60.56159973    0.17000000    0.70999998
   17.94027710   58.38990021    0.17000000    0.70999998
   17.94638824   58.38990021    0.17000000    0.70999998
   17.95055580   60.34809875    0.17000000    0.70999998
   17.95111275   61.11780167    0.17000000    0.70999998
   17.95416832   61.06409836    0.17000000    0.70999998
   17.95750046   60.29430008    0.17000000    0.70999998
   17.96083450   59.86510086    0.17000000    0.70999998
   17.96389008   59.95429993    0.17000000    0.70999998
   17.96722221   60.28770065    0.17000000    0.70999998
   17.97027779   61.60060120    0.17000000    0.70999998
   17.97361183   60.48070145    0.17000000    0.70999998
   17.97694588   59.44660187    0.17000000    0.70999998
   17.98000145   59.93019867    0.17000000    0.70999998
   17.98333359   59.15900040    0.17000000    0.70999998
   17.98444557   60.00650024    0.17000000    0.70999998
   17.98916626   60.00650024    0.17000000    0.70999998
   17.99333382   60.44720078    0.17000000    0.70999998
   17.99666786   61.13990021    0.17000000    0.70999998
   17.99972153   59.77899933    0.17000000    0.70999998
   18.00361061   59.73070145    0.00000000    0.00000000
   18.00749969   59.11550140    0.00000000    0.00000000
   18.01138878   58.62530136    0.00000000    0.00000000
   18.01527786   60.80459976    0.00000000    0.00000000
   18.01777840   58.66159821    0.00000000    0.00000000
   18.01972198   59.31250000    0.00000000    0.00000000
   18.02333260   59.24060059    0.00000000    0.00000000
   18.02722168   59.53129959    0.00000000    0.00000000
   18.03277779   59.53129959    0.00000000    0.00000000
   18.03750038   59.75970078    0.00000000    0.00000000
   18.04138756   59.67190170    0.00000000    0.00000000
   18.04500008   59.36230087    0.00000000    0.00000000
   18.04833221   60.87340164    0.03000000    0.03000000
   18.05111122   59.97050095    0.03000000    0.03000000
   18.05194283   59.50519943    0.03000000    0.03000000
   18.05527687   59.10739899    0.03000000    0.03000000
   18.05861092   60.89899826    0.03000000    0.03000000
   18.06194305   59.55500031    0.03000000    0.03000000
   18.06499863   59.61650085    0.03000000    0.03000000
   18.06833458   59.68740082    0.03000000    0.03000000
   18.07500076   59.68740082    0.03000000    0.03000000
   18.07888985   59.73260117    0.03000000    0.03000000
   18.08222389   59.70420074    0.03000000    0.03000000
   18.08444595   59.27479935    0.03000000    0.03000000
   18.08583450   58.60779953    0.03000000    0.03000000
   18.08916664   59.12689972    0.03000000    0.03000000
   18.09250069   59.77310181    0.03000000    0.03000000
   18.09555626   60.50650024    0.03000000    0.03000000
   18.09889030   57.93780136    0.03000000    0.03000000
   18.10194397   59.41479874    0.03000000    0.03000000
   18.10527802   60.34790039    0.03000000    0.03000000
   18.10861206   61.16469955    0.03000000    0.03000000
   18.11166763   58.64670181    0.03000000    0.03000000
   18.11777878   58.64670181    0.03000000    0.03000000
   18.12194443   58.72399902    0.03000000    0.03000000
   18.12500000   60.53649902    0.03000000    0.03000000
   18.12833405   59.31159973    0.03000000    0.03000000
   18.13166618   59.71879959    0.03000000    0.03000000
   18.13472176   58.89020157    0.03000000    0.03000000
   18.13805580   59.82709885    0.03000000    0.03000000
   18.14111137   60.74050140    0.03000000    0.03000000
   18.14444351   59.15729904    0.03000000    0.03000000
   18.14777756   59.38019943    0.03000000    0.03000000
   18.15083313   58.59840012    0.03000000    0.03000000
   18.15138817   60.15840149    0.03000000    0.03000000
   18.15472221   58.45729828    0.03000000    0.03000000
   18.16055489   58.45729828    0.03000000    0.03000000
   18.16472244   58.33349991    0.03000000    0.03000000
   18.16805458   59.03400040    0.03000000    0.03000000
   18.17111015   59.19110107    0.03000000    0.03000000
   18.17444420   58.35549927    0.03000000    0.03000000
   18.17777634   59.29629898    0.03000000    0.03000000
   18.18083191   60.97719955    0.03000000    0.03000000
   18.18416595   58.41389847    0.03000000    0.03000000
   18.18472099   60.41870117    0.03000000    0.03000000
   18.18777657   59.64080048    0.03000000    0.03000000
   18.19111061   59.07709885    0.03000000    0.03000000
   18.19416618   59.13059998    0.03000000    0.03000000
   18.19749832   59.18470001    0.03000000    0.03000000
   18.20333481   59.18470001    0.03000000    0.03000000
   18.20750046   59.09489822    0.03000000    0.03000000
   18.21083450   60.14530182    0.03000000    0.03000000
   18.21389008   59.73860168    0.03000000    0.03000000
   18.21722221   58.26879883    0.03000000    0.03000000
   18.21805573   59.19580078    0.03000000    0.03000000
   18.22083473   59.32180023    0.03000000    0.03000000
   18.22416687   58.70029831    0.03000000    0.03000000
   18.22722244   58.95460129    0.03000000    0.03000000
   18.23055649   60.09439850    0.03000000    0.01000000
   18.23361206   59.58589935    0.03000000    0.19000000
   18.23694420   58.94250107    0.05000000    0.44000000
   18.24027824   58.47689819    0.07000000    0.76999998
   18.24638939   58.47689819    0.09000000    0.76999998
   18.25027847   60.60570145    0.09000000    0.76999998
   18.25138855   58.55329895    0.09000000    0.79000002
   18.25416756   58.98030090    0.09000000    0.79000002
   18.25749969   58.11159897    0.09000000    0.79000002
   18.26055527   58.19319916    0.09000000    0.80000001
   18.26388931   58.80020142    0.09000000    0.81999999
   18.26694489   58.00120163    0.09000000    0.80000001
   18.27027702   57.77259827    0.09000000    0.81999999
   18.27361107   60.08819962    0.09000000    0.80000001
   18.27666664   58.04600143    0.09000000    0.80000001
   18.28000069   58.80250168    0.07000000    0.80000001
   18.28333282   58.78760147    0.07000000    0.80000001
   18.28472137   57.96049881    0.09000000    0.79000002
   18.28916550   57.96049881    0.09000000    0.79000002
   18.29333305   59.39730072    0.07000000    0.79000002
   18.29638863   59.68619919    0.09000000    0.79000002
   18.29972076   58.16699982    0.07000000    0.79000002
   18.30305481   58.43510056    0.07000000    0.79000002
   18.30611038   59.32040024    0.07000000    0.79000002
   18.30944443   59.15840149    0.07000000    0.79000002
   18.31250000   59.89899826    0.07000000    0.79000002
   18.31583214   60.31420135    0.09000000    0.76999998
   18.31805611   59.94290161    0.07000000    0.76999998
   18.31944466   59.97100067    0.07000000    0.76999998
   18.32277870   58.67150116    0.07000000    0.76999998
   18.32583427   57.93090057    0.07000000    0.76999998
   18.33194542   57.93090057    0.09000000    0.76999998
   18.33611107   59.70759964    0.07000000    0.75000000
   18.33944511   58.42459869    0.07000000    0.75000000
   18.34250069   58.41379929    0.07000000    0.75000000
   18.34583473   58.02659988    0.07000000    0.75000000
   18.34889030   57.98600006    0.38000000    2.67000008
   18.35138893   58.66400146    0.38000000    2.67000008
   18.35277748   58.45819855    0.38000000    2.67000008
   18.35611153   59.25170135    0.38000000    2.69000006
   18.35916710   58.52050018    0.40000001    2.69000006
   18.36250114   58.90549850    0.38000000    2.66000009
   18.36555672   58.65800095    0.38000000    2.67000008
   18.36888885   58.02040100    0.40000001    2.67000008
   18.37472153   58.02040100    0.38000000    2.67000008
   18.37888908   58.73469925    0.40000001    2.67000008
   18.38222313   59.84640121    0.40000001    2.67000008
   18.38472176   59.46429825    0.41999999    2.67000008
   18.38583374   58.33089828    0.41999999    2.66000009
   18.38916588   59.06330109    0.44000000    2.66000009
   18.39222145   58.65380096    0.76999998    2.67000008
   18.39555550   58.52859879    1.46000004    2.69000006
   18.39861107   58.44869995    1.91999996    2.67000008
   18.40194321   58.46440125    2.40000010    2.67000008
   18.40527725   58.95790100    2.94000006    2.69000006
   18.40833282   57.89120102    3.09999990    2.67000008
   18.41166687   58.18690109    3.09999990    2.67000008
   18.41749954   58.18690109    4.90999985    2.69000006
   18.43610954   58.96860123    4.90999985    2.67000008
   18.43916512   58.30350113    4.90999985    2.67000008
   18.44249916   58.12599945    4.90999985    2.69000006
   18.44583321   58.45660019    4.90999985    2.67000008
   18.44888878   58.35179901    4.90999985    2.67000008
   18.45222282   57.28170013    4.90999985    2.67000008
   18.45527840   57.96149826    4.90999985    2.67000008
   18.46083450   57.96149826    4.90999985    2.67000008
   18.46500015   58.96810150    4.90999985    2.69000006
   18.46805573   58.70140076    4.90999985    2.69000006
   18.46916771   58.90570068    4.90999985    2.69000006
   18.47166634   58.91529846    4.90999985    2.71000004
   18.47500038   57.49649811    4.90999985    2.71000004
   18.47833443   58.79309845    0.38000000    2.67000008
   18.48139000   57.96289825    0.38000000    2.67000008
   18.48472214   58.65919876    0.38000000    2.67000008
   18.48777771   58.15019989    0.40000001    2.66000009
   18.49111176   58.53409958    0.40000001    2.66000009
   18.49444389   58.98460007    0.40000001    2.67000008
   18.49749947   58.22940063    0.41999999    2.67000008
   18.50361061   58.22940063    0.41999999    2.67000008
   18.50777817   58.32860184    0.41999999    2.67000008
   18.51083374   58.78129959    0.41999999    2.67000008
   18.51416588   58.23189926    0.41999999    2.67000008
   18.51749992   60.62680054    0.41999999    2.67000008
   18.52083397   58.17060089    0.41999999    2.67000008
   18.52388954   57.38230133    0.44000000    2.67000008
   18.52722168   58.07400131    0.41999999    2.67000008
   18.53027725   57.52809906    0.41999999    2.67000008
   18.53361130   58.79270172    0.41999999    2.67000008
   18.53583336   57.86449814    0.44000000    2.67000008
   18.53722191   57.30410004    0.44000000    2.67000008
   18.54055595   58.16350174    0.67000002    2.66000009
   18.54638863   58.16350174    0.73000002    2.66000009
   18.55055428   58.73130035    0.81999999    2.67000008
   18.55388832   57.87080002    0.81999999    2.66000009
   18.55694389   57.85260010    0.89999998    2.66000009
   18.56027794   58.57049942    0.89999998    2.66000009
   18.56361008   57.32949829    0.89999998    2.66000009
   18.56666756   58.10449982    0.89999998    2.66000009
   18.56916809   57.18059921    0.88000000    2.66000009
   18.57027817   58.65890121    0.88000000    2.66000009
   18.57361221   57.75770187    0.89999998    2.66000009
   18.57694626   57.42139816    0.89999998    2.66000009
   18.58000183   57.92729950    0.89999998    2.66000009
   18.58333397   58.55080032    0.89999998    2.66000009
   18.58916664   58.55080032    0.89999998    2.66000009
   18.59333420   58.04299927    0.89999998    2.66000009
   18.59666824   57.99750137    0.89999998    2.66000009
   18.60000038   57.09859848    0.92000002    2.66000009
   18.60250092   58.03310013    0.94000000    2.66000009
   18.60333443   57.84939957    0.92000002    2.66000009
   18.60666656   58.51559830    0.92000002    2.66000009
   18.61000061   57.28379822    0.94000000    2.66000009
   18.61305618   57.97949982    0.92000002    2.66000009
   18.61638832   59.65829849    0.94000000    2.66000009
   18.61972237   58.33620071    0.94000000    2.66000009
   18.62277794   60.50529861    0.94000000    2.66000009
   18.62611198   58.17210007    0.94000000    2.66000009
   18.63222313   58.17210007    0.46000001    2.66000009
   18.63638878   59.84260178    0.47999999    2.66000009
   18.63944435   58.33489990    0.47999999    2.66000009
   18.64277840   57.25049973    0.47999999    2.66000009
   18.64583397   59.49969864    0.50000000    2.66000009
   18.64916611   57.45579910    0.47999999    2.66000009
   18.65250015   58.01559830    0.47999999    2.67000008
   18.65555573   58.39199829    0.50000000    2.66000009
   18.65888786   57.87570190    0.50000000    2.66000009
   18.66222191   57.19359970    0.50000000    2.66000009
   18.66527748   57.32960129    0.50000000    2.66000009
   18.66860962   58.83620071    0.51999998    2.66000009
   18.66916656   58.22549820    0.51999998    2.66000009
   18.67499924   58.22549820    0.51999998    2.66000009
   18.67916679   57.81999969    0.50000000    2.66000009
   18.68222237   59.20119858    0.51999998    2.66000009
   18.68555450   60.20339966    0.51999998    2.66000009
   18.68888855   58.16759872    0.50000000    2.66000009
   18.69194412   57.48180008    0.50000000    2.66000009
   18.69527626   57.44250107    0.50000000    2.66000009
   18.69861031   58.47230148    0.50000000    2.66000009
   18.70166779   58.35169983    0.50000000    2.66000009
   18.70250130   58.61589813    0.50000000    2.66000009
   18.70527840   57.57709885    0.51999998    2.66000009
   18.70861244   58.05569839    0.51999998    2.66000009
   18.71194458   58.39730072    0.51999998    2.66000009
   18.71777916   58.39730072    0.51999998    2.66000009
   18.72194481   57.22869873    0.51999998    2.66000009
   18.72527885   57.70009995    0.51999998    2.66000009
   18.72833443   57.44910049    0.51999998    2.66000009
   18.73166656   57.14960098    0.51999998    2.66000009
   18.73472214   56.64640045    0.50000000    2.66000009
   18.73583412   58.81740189    0.51999998    2.66000009
   18.73833275   57.12730026    0.50000000    2.66000009
   18.74166679   58.11600113    0.51999998    2.66000009
   18.74500084   57.38000107    0.50000000    2.64000010
   18.74805641   57.51639938    0.50000000    2.66000009
   18.75138855   56.62129974    0.50000000    2.66000009
   18.75472260   57.14929962    0.50000000    2.66000009
   18.76055527   57.14929962    0.51999998    2.66000009
   18.76472282   57.80170059    0.50000000    2.66000009
   18.76805496   57.61640167    0.50000000    2.66000009
   18.76916695   57.23049927    0.50000000    2.66000009
   18.77138901   59.02650070    0.50000000    2.64000010
   18.77472115   57.43410110    0.51999998    2.64000010
   18.77805519   58.27280045    0.51999998    2.64000010
   18.78111076   58.17160034    0.51999998    2.64000010
   18.78444481   57.89690018    0.51999998    2.66000009
   18.78777695   57.22340012    0.51999998    2.64000010
   18.79083252   56.93840027    0.51999998    2.64000010
   18.79416656   56.87160110    0.52999997    2.66000009
   18.79722214   56.02349854    0.51999998    2.66000009
   18.80360985   56.02349854    0.51999998    2.64000010
   18.80749893   57.25389862    0.51999998    2.64000010
   18.81083298   57.94319916    0.51999998    2.64000010
   18.81416512   57.46760178    0.51999998    2.64000010
   18.81722260   57.82089996    0.51999998    2.64000010
   18.82055664   57.38650131    0.51999998    2.64000010
   18.82389069   57.15779877    0.52999997    2.64000010
   18.82694626   57.39479828    0.56999999    2.64000010
   18.83027840   57.85120010    0.56999999    2.64000010
   18.83333397   57.43569946    0.58999997    2.64000010
   18.83583450   57.84669876    0.61000001    2.64000010
   18.83694458   56.75999832    0.63000000    2.61999989
   18.84027863   58.61429977    0.51999998    2.61999989
   18.84638977   58.61429977    0.52999997    2.64000010
   18.85055542   59.08110046    0.55000001    2.61999989
   18.85361099   58.47769928    0.58999997    2.61999989
   18.85694504   57.74050140    0.70999998    2.64000010
   18.86027908   57.98970032    0.80000001    2.64000010
   18.86333466   57.86380005    0.86000001    2.64000010
   18.86666679   57.71319962    0.98000002    2.64000010
   18.86916733   57.07820129    0.80000001    2.64000010
   18.87000084   57.88769913    0.80000001    2.64000010
   18.87333298   57.46699905    0.67000002    2.64000010
   18.87666702   58.53039932    0.63000000    2.64000010
   18.87972260   57.57659912    0.55000001    2.64000010
   18.88305473   58.07780075    0.52999997    2.64000010
   18.88916588   58.07780075    0.55000001    2.64000010
   18.89333344   58.16979980    0.55000001    2.64000010
   18.89666748   57.99639893    0.52999997    2.64000010
   18.89972115   57.64659882    0.55000001    2.64000010
   18.90250015   57.46770096    0.55000001    2.64000010
   18.90361023   58.23509979    0.55000001    2.64000010
   18.90666580   57.64530182    0.52999997    2.64000010
   18.90999985   57.64339828    0.52999997    2.64000010
   18.91305542   58.56399918    0.52999997    2.64000010
   18.91666603   58.29119873    0.52999997    2.64000010
   18.91972160   58.16479874    0.55000001    2.64000010
   18.92305565   56.29740143    0.52999997    2.64000010
   18.92611122   57.10630035    0.55000001    2.64000010
   18.93194389   57.10630035    0.52999997    2.64000010
   18.93610954   57.21049881    0.55000001    2.64000010
   18.93944359   56.78879929    0.55000001    2.64000010
   18.94277763   57.75109863    0.55000001    2.61999989
   18.94583321   57.84040070    0.55000001    2.64000010
   18.94916534   57.52650070    0.55000001    2.64000010
   18.95222282   57.11289978    0.55000001    2.64000010
   18.95555687   58.68799973    0.55000001    2.61999989
   18.95888901   57.47740173    0.55000001    2.64000010
   18.96194458   57.62060165    0.55000001    2.61999989
   18.96527863   58.17620087    0.55000001    2.61999989
   18.96861076   57.41680145    0.56999999    2.61999989
   18.96916771   57.39260101    0.56999999    2.61999989
   18.97500038   57.39260101    0.56999999    2.64000010
   18.97888947   57.60359955    0.56999999    2.61999989
   18.98222351   58.35240173    0.56999999    2.64000010
   18.98555565   57.57059860    0.56999999    2.61999989
   18.98861122   57.39130020    0.56999999    2.61999989
   18.99194527   58.67900085    0.56999999    2.61999989
   18.99527740   57.89130020    0.58999997    2.61999989
   18.99833298   59.65319824    0.58999997    2.61999989
   19.00166702   57.16640091    0.58999997    2.61999989
   19.00250053   58.14300156    0.58999997    2.64000010
   19.00527763   57.32590103    0.58999997    2.61999989
   19.00833321   58.23690033    0.58999997    2.61999989
   19.01166725   57.45780182    0.58999997    2.61999989
   19.01777840   57.45780182    0.58999997    2.61999989
   19.02194405   58.48089981    0.58999997    2.61999989
   19.02499962   57.31800079    0.58999997    2.61999989
   19.02833366   57.58649826    0.58999997    2.61999989
   19.03166580   58.12519836    0.61000001    2.61999989
   19.03472137   58.46599960    1.39999998    2.61999989
   19.03583336   58.72999954    1.26999998    2.61999989
   19.03861046   58.12289810    0.94000000    2.61999989
   19.04166603   58.63330078    0.67000002    2.59999990
   19.04500008   59.47999954    0.61000001    2.59999990
   19.04805565   59.87210083    0.61000001    2.61999989
   19.05138779   58.17179871    0.63000000    2.61999989
   19.05472183   58.65710068    0.63000000    2.59999990
   19.06055450   58.65710068    0.63000000    2.61999989
   19.06472206   60.83789825    0.63000000    2.61999989
   19.06805611   58.34740067    0.63000000    2.61999989
   19.06916809   57.29719925    0.63000000    2.61999989
   19.07166672   59.32699966    0.63000000    2.59999990
   19.07472229   58.28570175    0.63000000    2.61999989
   19.07805634   57.82310104    0.63000000    2.61999989
   19.08139038   58.07369995    0.64999998    2.61999989
   19.08444595   57.93719864    0.63000000    2.61999989
   19.08777809   58.85620117    0.63000000    2.61999989
   19.09083366   57.41239929    0.63000000    2.61999989
   19.09416771   57.60889816    0.64999998    2.61999989
   19.09749985   57.90119934    0.64999998    2.61999989
   19.10333443   57.90119934    0.63000000    2.61999989
   19.10750008   57.82590103    0.63000000    2.61999989
   19.11083412   59.30739975    0.63000000    2.61999989
   19.11388969   58.48569870    0.63000000    2.61999989
   19.11722183   59.05820084    0.63000000    2.59999990
   19.12055588   57.67869949    0.63000000    2.59999990
   19.12361145   56.82989883    0.64999998    2.61999989
   19.12694550   56.73690033    0.64999998    2.59999990
   19.13027763   57.26570129    0.64999998    2.59999990
   19.13333321   57.71179962    0.64999998    2.61999989
   19.13583374   58.29869843    0.67000002    2.59999990
   19.13722229   57.86349869    0.64999998    2.59999990
   19.14027786   57.11289978    0.64999998    2.59999990
   19.14638901   57.11289978    0.67000002    2.61999989
   19.15027809   58.09280014    0.67000002    2.59999990
   19.15361023   57.53939819    0.67000002    2.59999990
   19.15694427   58.23870087    0.64999998    2.59999990
   19.15999985   57.35749817    0.67000002    2.59999990
   19.16333389   59.48149872    0.64999998    2.59999990
   19.16666603   57.01319885    0.67000002    2.59999990
   19.16916656   57.86769867    0.64999998    2.59999990
   19.17027664   59.15259933    0.64999998    2.59999990
   19.17333221   58.86029816    0.67000002    2.59999990
   19.17666626   57.41199875    0.67000002    2.59999990
   19.18000031   57.47669983    0.64999998    2.59999990
   19.18305397   57.36880112    0.67000002    2.59999990
   19.18916512   57.36880112    0.67000002    2.59999990
   19.19333267   57.89400101    0.69000000    2.59999990
   19.19638824   57.46820068    0.69000000    2.59999990
   19.19972038   57.78580093    0.69000000    2.59999990
   19.20250130   59.53799820    0.69000000    2.59999990
   19.20333481   57.51689911    0.69000000    2.61999989
   19.20639038   58.20750046    0.69000000    2.59999990
   19.20972252   57.28699875    0.70999998    2.59999990
   19.21305656   58.23220062    0.70999998    2.59999990
   19.21611214   58.11849976    0.70999998    2.59999990
   19.21944427   58.33990097    0.73000002    2.59999990
   19.22249985   57.33069992    0.70999998    2.59999990
   19.22583389   58.11199951    0.67000002    2.59999990
   19.23194504   58.11199951    0.69000000    2.57999992
   19.23611069   58.62720108    0.67000002    2.59999990
   19.23944473   57.12269974    0.67000002    2.59999990
   19.24250031   57.73659897    0.67000002    2.59999990
   19.24583435   57.53430176    0.67000002    2.57999992
   19.24888992   58.35839844    0.67000002    2.57999992
   19.25222206   58.39369965    0.67000002    2.59999990
   19.25555611   58.29439926    0.67000002    2.59999990
   19.25861168   58.17210007    0.67000002    2.59999990
   19.26194382   58.13420105    0.67000002    2.57999992
   19.26527786   57.99250031    0.67000002    2.57999992
   19.26833344   57.34590149    0.67000002    2.57999992
   19.26916695   58.73669815    0.67000002    2.57999992
   19.27472115   58.73669815    0.67000002    2.57999992
   19.27888870   59.25350189    0.67000002    2.57999992
   19.28222275   57.30640030    0.67000002    2.57999992
   19.28527641   57.61930084    0.67000002    2.59999990
   19.28861046   58.60990143    0.67000002    2.59999990
   19.29194450   57.31439972    0.67000002    2.57999992
   19.29527664   57.62070084    0.64999998    2.57999992
   19.29833221   57.99069977    0.64999998    2.57999992
   19.30166626   59.49349976    0.64999998    2.57999992
   19.30249977   57.90739822    0.64999998    2.59999990
   19.30527687   57.45370102    0.64999998    2.59999990
   19.30833244   59.08649826    0.64999998    2.57999992
   19.31166649   62.84280014    0.64999998    2.57999992
   19.31777954   62.84280014    0.64999998    2.57999992
   19.32166672   58.36830139    0.64999998    2.57999992
   19.32500076   57.73880005    0.67000002    2.57999992
   19.32833481   58.58449936    0.67000002    2.57999992
   19.33139038   57.36529922    0.67000002    2.57999992
   19.33472252   58.50839996    0.67000002    2.57999992
   19.33583450   57.55379868    0.69000000    2.59999990
   19.33833313   57.30220032    0.67000002    2.57999992
   19.34138870   58.02170181    0.69000000    2.57999992
   19.34472275   57.98239899    0.69000000    2.57999992
   19.34805679   57.49980164    0.69000000    2.55999994
   19.35111237   58.39070129    0.70999998    2.57999992
   19.35444450   60.65019989    0.69000000    2.57999992
   19.36055565   60.65019989    0.70999998    2.55999994
   19.36472321   56.99700165    0.73000002    2.57999992
   19.36777878   58.62870026    0.73000002    2.55999994
   19.36916733   58.27349854    0.73000002    2.57999992
   19.37166595   58.04190063    0.75000000    2.57999992
   19.37472153   57.58760071    0.75000000    2.57999992
   19.37805557   57.84600067    0.73000002    2.55999994
   19.38138962   57.30839920    0.73000002    2.55999994
   19.38444519   59.20040131    0.73000002    2.55999994
   19.38777733   58.76630020    0.73000002    2.57999992
   19.39111137   57.75510025    0.73000002    2.55999994
   19.39416695   57.75210190    0.75000000    2.57999992
   19.39749908   61.42110062    0.75000000    2.55999994
   19.40333366   61.42110062    0.75000000    2.55999994
   19.40749931   59.08430099    0.76999998    2.57999992
   19.41083336   59.22980118    0.75000000    2.55999994
   19.41388893   57.87049866    0.75000000    2.57999992
   19.41722107   59.18050003    0.75000000    2.57999992
   19.42055511   59.48020172    0.76999998    2.55999994
   19.42361069   60.01800156    0.76999998    2.55999994
   19.42694473   64.81990051    0.75000000    2.55999994
   19.43000031   59.28879929    0.75000000    2.55999994
   19.43333244   59.73080063    0.76999998    2.55999994
   19.43583298   57.62779999    0.76999998    2.55999994
   19.45639038   57.62779999    0.81999999    2.55999994
   19.46055603   58.49750137    0.83999997    2.53999996
   19.46389008   58.07070160    0.81999999    2.55999994
   19.46722221   59.23239899    0.83999997    2.55999994
   19.46916771   60.64410019    0.83999997    2.55999994
   19.47083473   58.06990051    0.81999999    2.55999994
   19.47416687   58.35940170    0.83999997    2.55999994
   19.47722244   65.08640289    0.80000001    2.53999996
   19.48055649   61.25759888    0.80000001    2.53999996
   19.48388863   57.81150055    0.81999999    2.55999994
   19.48694420   58.48089981    0.81999999    2.55999994
   19.49027824   57.24129868    0.81999999    2.53999996
   19.49333382   59.72560120    0.80000001    2.53999996
   19.49916649   59.72560120    0.81999999    2.55999994
   19.50333405   57.86259842    0.81999999    2.53999996
   19.50666618   57.74209976    0.81999999    2.53999996
   19.51000023   57.39429855    0.81999999    2.53999996
   19.51305580   58.13380051    0.81999999    2.53999996
   19.51638794   58.74499893    0.81999999    2.53999996
   19.51944351   59.49589920    0.86000001    2.53999996
   19.52277756   58.12649918    0.88000000    2.53999996
   19.52611160   57.05929947    0.88000000    2.53999996
   19.52916718   58.02439880    0.88000000    2.53999996
   19.53249931   60.56940079    0.89999998    2.53999996
   19.53583336   58.59049988    0.89999998    2.55999994
   19.53610992   57.58240128    0.89999998    2.53999996
   19.54222107   57.58240128    0.89999998    2.53999996
   19.54611015   57.27870178    0.89999998    2.53999996
   19.54944420   57.43199921    0.92000002    2.53999996
   19.55277634   57.34669876    0.92000002    2.53999996
   19.55583191   57.03630066    0.92000002    2.53999996
   19.55916595   57.54420090    0.92000002    2.53999996
   19.56250000   57.56100082    0.94000000    2.53999996
   19.56555557   58.08969879    0.94000000    2.53999996
   19.56888962   57.76070023    0.95999998    2.53999996
   19.56944466   58.31299973    0.95999998    2.53999996
   19.57250023   58.76699829    0.95999998    2.53999996
   19.57583427   58.85749817    0.98000002    2.53999996
   19.57888985   58.42330170    1.01999998    2.51999998
   19.58500099   58.42330170    1.09000003    2.51999998
   19.58916664   57.63830185    1.13000000    2.51999998
   19.59222221   58.46210098    1.13000000    2.51999998
   19.59555626   56.58729935    1.16999996    2.51999998
   19.59889030   52.94509888    1.19000006    2.51999998
   19.60194397   51.57749939    1.21000004    2.51999998
   19.60277748   50.80360031    1.21000004    2.51999998
   19.60555649   48.23450089    1.23000002    2.51999998
   19.60888863   45.77759933    1.25000000    2.51999998
   19.61194420   44.42839813    1.25000000    2.51999998
   19.61527824   45.32740021    1.36000001    2.51999998
   19.61861038   45.47510147    1.38000000    2.51999998
   19.62194443   46.83620071    1.46000004    2.51999998
   19.62777710   46.83620071    1.58000004    2.50000000
   19.63194466   75.95089722    1.58000004    2.50000000
   19.63500023   -1.00000000    1.60000002    2.51999998
   19.63861084   -1.00000000    1.53999996    2.51999998
   19.64166641   -1.00000000    1.53999996    2.51999998
   19.64500046   -1.00000000    1.58000004    2.51999998
   19.64833260   -1.00000000    1.58000004    2.50000000
   19.65138817   -1.00000000    1.55999994    2.50000000
   19.65472221   -1.00000000    1.51999998    2.50000000
   19.65777779   -1.00000000    1.51999998    2.50000000
   19.66110992   -1.00000000    1.46000004    2.50000000
   19.66444397   -1.00000000    1.41999996    2.50000000
   19.67472076   -1.00000000    1.46000004    2.50000000
   19.67777634   -1.00000000    1.44000006    2.50000000
   19.68111038   -1.00000000    1.39999998    2.51999998
   19.68444443   -1.00000000    1.39999998    2.50000000
   19.68750000   -1.00000000    1.39999998    2.50000000
   19.69083214   -1.00000000    1.50000000    2.50000000
   19.69416618   -1.00000000    1.44000006    2.50000000
   19.69722176   -1.00000000    1.39999998    2.50000000
   19.70055580   -1.00000000    1.38000000    2.50000000
   19.70416832   -1.00000000    1.36000001    2.50000000
   19.70722389   -1.00000000    1.36000001    2.50000000
   19.71750069   -1.00000000    1.30999994    2.50000000
   19.72083473   -1.00000000    1.30999994    2.48000002
   19.72389030   -1.00000000    1.33000004    2.48000002
   19.72722244   -1.00000000    1.33000004    2.50000000
   19.73055649   -1.00000000    1.33000004    2.48000002
   19.73361206   -1.00000000    1.33000004    2.48000002
   19.73722267   -1.00000000    1.30999994    2.48000002
   19.74055672   -1.00000000    1.28999996    2.48000002
   19.74361229   -1.00000000    1.28999996    2.48000002
   19.74694443   -1.00000000    1.30999994    2.48000002
   19.75000000   -1.00000000    1.30999994    2.48000002
   19.76027870   -1.00000000    1.36000001    2.48000002
   19.76361084   -1.00000000    1.36000001    2.48000002
   19.76694489   -1.00000000    1.36000001    2.48000002
   19.77055550   -1.00000000    1.36000001    2.48000002
   19.77361107   -1.00000000    1.36000001    2.48000002
   19.77694511   -1.00000000    1.38000000    2.48000002
   19.78027725   -1.00000000    1.38000000    2.48000002
   19.78333282   -1.00000000    1.44000006    2.48000002
   19.78666687   -1.00000000    1.48000002    2.48000002
   19.78999901   -1.00000000    1.48000002    2.48000002
   19.79305458   -1.00000000    1.51999998    2.48000002
   19.80333328   -1.00000000    1.51999998    2.46000004
   19.80638885   -1.00000000    1.51999998    2.48000002
   19.80972099   -1.00000000    1.50000000    2.48000002
   19.81305504   -1.00000000    1.50000000    2.48000002
   19.81611061   -1.00000000    1.50000000    2.48000002
   19.81944466   -1.00000000    1.48000002    2.46000004
   19.82250023   -1.00000000    1.48000002    2.46000004
   19.82583427   -1.00000000    1.63000000    2.46000004
   19.82916832   -1.00000000    1.64999998    2.46000004
   19.83222389   -1.00000000    1.91999996    2.46000004
   19.83555603   -1.00000000    2.11999989    2.46000004
   19.84611130   -1.00000000    1.98000002    2.46000004
   19.84916687   -1.00000000    1.91999996    2.44000006
   19.85250092   -1.00000000    1.98000002    2.44000006
   19.85583305   -1.00000000    1.75000000    2.46000004
   19.85888863   -1.00000000    1.71000004    2.46000004
   19.86222267   -1.00000000    1.91999996    2.44000006
   19.86527824   -1.00000000    1.76999998    2.46000004
   19.86861038   -1.00000000    1.53999996    2.46000004
   19.87222290   -1.00000000    1.46000004    2.46000004
   19.87555504   -1.00000000    1.48000002    2.46000004
   19.87861061   -1.00000000    1.44000006    2.46000004
   19.88888931   -1.00000000    1.46000004    2.46000004
   19.89222145   -1.00000000    1.46000004    2.46000004
   19.89527702   -1.00000000    1.48000002    2.46000004
   19.89861107   -1.00000000    1.48000002    2.46000004
   19.90194321   -1.00000000    1.46000004    2.46000004
   19.90527725   -1.00000000    1.48000002    2.46000004
   19.90861130   -1.00000000    1.50000000    2.46000004
   19.91166687   -1.00000000    1.55999994    2.44000006
   19.91499901   -1.00000000    1.55999994    2.44000006
   19.91805458   -1.00000000    1.58000004    2.44000006
   19.92138863   -1.00000000    1.48000002    2.46000004
   19.93166542   -1.00000000    1.39999998    2.44000006
   19.93499947   -1.00000000    1.38000000    2.44000006
   19.93861008   -1.00000000    1.36000001    2.44000006
   19.94166565   -1.00000000    1.39999998    2.42000008
   19.94499969   -1.00000000    1.38000000    2.44000006
   19.94833183   -1.00000000    1.46000004    2.44000006
   19.95138931   -1.00000000    1.48000002    2.44000006
   19.95472336   -1.00000000    1.44000006    2.44000006
   19.95805550   -1.00000000    1.41999996    2.44000006
   19.96111107   -1.00000000    1.41999996    2.42000008
   19.96444511   -1.00000000    1.41999996    2.42000008
   19.97472191   -1.00000000    1.38000000    2.42000008
   19.97777748   -1.00000000    1.44000006    2.42000008
   19.98111153   -1.00000000    1.51999998    2.42000008
   19.98416710   -1.00000000    1.91999996    2.42000008
   19.98750114   -1.00000000    1.91999996    2.42000008
   19.99083328   -1.00000000    1.83000004    2.42000008
   19.99388885   -1.00000000    1.64999998    2.42000008
   19.99722290   -1.00000000    1.58000004    2.42000008
   20.00055504   -1.00000000    1.63000000    2.42000008
   20.00388908   -1.00000000    1.63000000    2.42000008
   20.00694466   -1.00000000    1.60000002    2.42000008
   20.01749992   -1.00000000    1.60000002    2.42000008
   20.02055550   -1.00000000    1.66999996    2.42000008
   20.02388954   -1.00000000    1.69000006    2.40000010
   20.02722168   -1.00000000    1.80999994    2.40000010
   20.03027725   -1.00000000    1.66999996    2.40000010
   20.03361130   -1.00000000    1.66999996    2.40000010
   20.03722191   -1.00000000    1.53999996    2.40000010
   20.04027748   -1.00000000    1.51999998    2.40000010
   20.04361153   -1.00000000    1.51999998    2.40000010
   20.04694366   -1.00000000    1.55999994    2.40000010
   20.04999924   -1.00000000    1.44000006    2.40000010
   20.06027794   -1.00000000    1.44000006    2.40000010
   20.06361008   -1.00000000    1.41999996    2.40000010
   20.06666756   -1.00000000    1.46000004    2.40000010
   20.07027817   -1.00000000    1.44000006    2.40000010
   20.07333374   -1.00000000    1.41999996    2.40000010
   20.07666779   -1.00000000    1.38000000    2.40000010
   20.08000183   -1.00000000    1.34000003    2.40000010
   20.08305550   -1.00000000    1.38000000    2.40000010
   20.08638954   -1.00000000    1.38000000    2.40000010
   20.08972359   -1.00000000    1.41999996    2.40000010
   20.09277916   -1.00000000    1.44000006    2.40000010
   20.10305595   -1.00000000    1.50000000    2.39000010
   20.10639000   -1.00000000    1.50000000    2.39000010
   20.10972214   -1.00000000    1.51999998    2.39000010
   20.11277771   -1.00000000    1.53999996    2.39000010
   20.11611176   -1.00000000    1.55999994    2.39000010
   20.11916733   -1.00000000    1.60000002    2.39000010
   20.12249947   -1.00000000    1.63000000    2.39000010
   20.12583351   -1.00000000    1.64999998    2.39000010
   20.12888908   -1.00000000    1.66999996    2.39000010
   20.13222313   -1.00000000    1.64999998    2.39000010
   20.13555527   -1.00000000    1.66999996    2.39000010
   20.14611053   -1.00000000    1.78999996    2.36999989
   20.14916611   -1.00000000    1.85000002    2.36999989
   20.15250015   -1.00000000    1.86000001    2.36999989
   20.15555573   -1.00000000    1.86000001    2.36999989
   20.15888786   -1.00000000    1.85000002    2.36999989
   20.16222191   -1.00000000    1.85000002    2.36999989
   20.16527748   -1.00000000    1.98000002    2.36999989
   20.16860962   -1.00000000    2.03999996    2.36999989
   20.17222214   -1.00000000    2.00000000    2.36999989
   20.17555428   -1.00000000    1.96000004    2.36999989
   20.17860985   -1.00000000    1.94000006    2.36999989
   20.18888855   -1.00000000    1.98000002    2.36999989
   20.19194412   -1.00000000    2.00000000    2.36999989
   20.19527626   -1.00000000    2.03999996    2.34999990
   20.19861031   -1.00000000    2.03999996    2.36999989
   20.20166779   -1.00000000    2.11999989    2.36999989
   20.20527840   -1.00000000    2.21000004    2.34999990
   20.20861244   -1.00000000    2.36999989    2.34999990
   20.21166801   -1.00000000    2.50000000    2.34999990
   20.21500015   -1.00000000    2.82999992    2.34999990
   20.21805573   -1.00000000    2.80999994    2.34999990
   20.22138977   -1.00000000    2.61999989    2.34999990
   20.23166656   -1.00000000    2.07999992    2.34999990
   20.23500061   -1.00000000    2.11999989    2.34999990
   20.23833275   -1.00000000    2.11999989    2.32999992
   20.24166679   -1.00000000    2.05999994    2.32999992
   20.24472237   -1.00000000    2.05999994    2.34999990
   20.24805641   -1.00000000    2.01999998    2.34999990
   20.25111198   -1.00000000    2.07999992    2.34999990
   20.25444412   -1.00000000    2.17000008    2.32999992
   20.25777817   -1.00000000    2.30999994    2.32999992
   20.26083374   -1.00000000    2.42000008    2.32999992
   20.26416588   -1.00000000    2.61999989    2.32999992
   20.27444458   -1.00000000    3.32999992    2.32999992
   20.27777672   -1.00000000    3.46000004    2.32999992
   20.28111076   -1.00000000    3.57999992    2.30999994
   20.28416634   -1.00000000    3.59999990    2.30999994
   20.28750038   -1.00000000    3.66000009    2.30999994
   20.29055595   -1.00000000    3.36999989    2.30999994
   20.29388809   -1.00000000    3.48000002    2.30999994
   20.29722214   -1.00000000    3.64000010    2.30999994
   20.30027771   -1.00000000    3.70000005    2.28999996
   20.30388832   -1.00000000    3.70000005    2.30999994
   20.30722237   -1.00000000    3.76999998    2.30999994
   20.31722260   -1.00000000    4.32999992    2.28999996
   20.32055664   -1.00000000    4.53999996    2.28999996
   20.32389069   -1.00000000    4.59999990    2.28999996
   20.32694626   -1.00000000    4.61999989    2.26999998
   20.33027840   -1.00000000    4.71999979    2.26999998
   20.33361244   -1.00000000    4.67999983    2.26999998
   20.33694458   -1.00000000    4.80999994    2.28999996
   20.34027863   -1.00000000    4.86999989    2.26999998
   20.34333420   -1.00000000    4.88999987    2.26999998
