    HOUR (UT)   FLARE FACTOR    SKY TESTER    SUN TESTER
   12.29666710   -1.00000000   -1.00000000   -1.00000000
   12.32222176  203.49400330    4.42999983    1.75000000
   12.32555580  215.70599365    4.38999987    1.75000000
   12.32861137  215.63400269    4.36999989    1.75000000
   12.33194447  210.17700195    4.34999990    1.75000000
   12.33527756  196.01300049    4.34999990    1.76999998
   12.33833313  193.73100281    4.30999994    1.75000000
   12.34249973  193.73100281    4.30999994    1.76999998
   12.34666634  198.05200195    4.26999998    1.76999998
   12.35000038  188.89399719    4.26000023    1.76999998
   12.35305595  201.51199341    4.23999977    1.76999998
   12.35555553  193.74000549    4.21999979    1.76999998
   12.35694504  176.97200012    4.21999979    1.76999998
   12.36000061  199.22200012    4.21999979    1.78999996
   12.36333370  195.03300476    4.19999981    1.78999996
   12.36638927  183.36000061    4.17999983    1.78999996
   12.36972237  186.05299377    4.17999983    1.78999996
   12.37305546  191.04800415    4.17999983    1.78999996
   12.37611103  201.62600708    4.15999985    1.78999996
   12.37944412  191.41600037    4.15999985    1.78999996
   12.38527775  191.41600037    4.15999985    1.80999994
   12.38944435  185.63400269    4.13999987    1.80999994
   12.39277744  192.39399719    4.13999987    1.80999994
   12.39611053  172.71400452    4.11999989    1.83000004
   12.39916611  186.92500305    4.09999990    1.83000004
   12.40249920  179.31500244    4.07999992    1.83000004
   12.40555477  185.80999756    4.05999994    1.83000004
   12.40888882  173.83799744    4.05999994    1.83000004
   12.41222191  173.41499329    4.03999996    1.85000002
   12.41527748  175.41499329    4.01999998    1.85000002
   12.41861153  164.48899841    4.00000000    1.83000004
   12.42194462  189.35400391    3.99000001    1.85000002
   12.42222214  170.99099731    3.99000001    1.85000002
   12.42833328  170.99099731    3.97000003    1.85000002
   12.43249989  161.73100281    3.95000005    1.86000001
   12.43555546  171.92100525    3.93000007    1.86000001
   12.43888855  161.79699707    3.91000009    1.85000002
   12.44194412  167.05499268    3.89000010    1.86000001
   12.44527817  163.27099609    3.89000010    1.86000001
   12.44861126  161.38499451    3.86999989    1.86000001
   12.45166683  161.36300659    3.86999989    1.86000001
   12.45499992  166.72399902    3.84999990    1.86000001
   12.45555496  164.83299255    3.84999990    1.86000001
   12.45861053  171.04899597    3.84999990    1.86000001
   12.46194458  160.60800171    3.82999992    1.86000001
   12.46500015  159.40199280    3.82999992    1.88000000
   12.47111034  159.40199280    3.82999992    1.88000000
   12.47527695  167.69200134    3.80999994    1.88000000
   12.47833252  164.74899292    3.78999996    1.88000000
   12.48166656  162.55900574    3.76999998    1.89999998
   12.48500061  156.68800354    3.76999998    1.89999998
   12.48805618  167.12399292    3.75000000    1.89999998
   12.48888874  164.88299561    3.73000002    1.89999998
   12.49166679  173.31599426    3.73000002    1.91999996
   12.49499989  163.93299866    3.73000002    1.91999996
   12.49805546  163.36799622    3.73000002    1.89999998
   12.50138855  157.14199829    3.70000005    1.89999998
   12.50472260  154.37500000    3.68000007    1.91999996
   12.50777817  162.01499939    3.66000009    1.91999996
   12.51388931  162.01499939    3.64000010    1.91999996
   12.51805496  162.86599731    3.59999990    1.91999996
   12.52138901  155.54800415    3.57999992    1.91999996
   12.52222157  161.03399658    3.57999992    1.91999996
   12.52499962  152.97200012    3.57999992    1.91999996
   12.52833271  147.71800232    3.53999996    1.94000006
   12.53138828  162.85899353    3.53999996    1.94000006
   12.53472233  157.44900513    3.51999998    1.91999996
   12.53805637  152.92900085    3.50000000    1.94000006
   12.54111195  149.24899292    3.50000000    1.94000006
   12.54444504  162.74099731    3.50000000    1.94000006
   12.54777813  143.63099670    3.50000000    1.94000006
   12.55083370  150.11099243    3.48000002    1.94000006
   12.55666733  150.11099243    3.46000004    1.96000004
   12.56083393  155.18400574    3.46000004    1.96000004
   12.56416702  158.01499939    3.45000005    1.96000004
   12.56750011  145.48800659    3.45000005    1.96000004
   12.57055569  138.48399353    3.45000005    1.96000004
   12.57388878  148.33700562    3.43000007    1.96000004
   12.57694435  138.55200195    3.41000009    1.96000004
   12.58027744  139.64999390    3.41000009    1.96000004
   12.58361053  145.53599548    3.41000009    1.96000004
   12.58666611  143.14599609    3.39000010    1.96000004
   12.58916664  149.54100037    3.39000010    1.98000002
   12.59027767  149.49699402    3.36999989    1.98000002
   12.59361076  142.09500122    3.36999989    1.98000002
   12.59972191  142.09500122    3.32999992    1.98000002
   12.60388947  139.56300354    3.32999992    2.00000000
   12.60694504  139.36599731    3.30999994    2.00000000
   12.61027813  143.95700073    3.30999994    2.00000000
   12.61333370  138.77200317    3.30999994    2.00000000
   12.61666679  145.36399841    3.26999998    2.00000000
   12.61999989  135.90600586    3.26999998    2.00000000
   12.62250042  145.07299805    3.25000000    2.00000000
   12.62361145  141.77799988    3.25000000    2.01999998
   12.62694454  142.74200439    3.23000002    2.01999998
   12.63000011  139.07099915    3.21000004    2.00000000
   12.63333321  136.60400391    3.20000005    2.01999998
   12.63666630  145.08399963    3.20000005    2.01999998
   12.64249992  145.08399963    3.18000007    2.01999998
   12.64666653  138.12600708    3.16000009    2.01999998
   12.64999962  139.27900696    3.16000009    2.01999998
   12.65305519  130.34599304    3.14000010    2.01999998
   12.65583324  136.58399963    3.14000010    2.03999996
   12.65666676  136.80499268    3.14000010    2.03999996
   12.65999985  138.23199463    3.11999989    2.03999996
   12.66305542  139.06300354    3.09999990    2.03999996
   12.66638851  139.82200623    3.09999990    2.03999996
   12.66972256  141.68400574    3.09999990    2.03999996
   12.67277813  137.53700256    3.09999990    2.03999996
   12.67611122  136.59100342    3.09999990    2.05999994
   12.67944431  141.28599548    3.09999990    2.03999996
   12.68527794  141.28599548    3.07999992    2.03999996
   12.68944454  142.37100220    3.05999994    2.03999996
   12.69277763  144.80200195    3.05999994    2.03999996
   12.69583321  143.50000000    3.05999994    2.05999994
   12.69916630  137.43299866    3.03999996    2.05999994
   12.70249939  133.28500366    3.03999996    2.05999994
   12.70555496  134.26899719    3.01999998    2.05999994
   12.70888901  137.27400208    3.01999998    2.05999994
   12.71194458  136.10800171    3.00000000    2.05999994
   12.71527767  146.46200562    3.00000000    2.05999994
   12.71861076  136.73399353    2.98000002    2.05999994
   12.72166634  133.12699890    2.98000002    2.07999992
   12.72249985  141.79200745    2.98000002    2.07999992
   12.72805500  141.79200745    2.96000004    2.07999992
   12.73222160  138.01499939    2.96000004    2.07999992
   12.73555565  142.66499329    2.96000004    2.07999992
   12.73888874  131.54400635    2.94000006    2.07999992
   12.74194431  135.16499329    2.94000006    2.07999992
   12.74527836  133.71699524    2.94000006    2.07999992
   12.74833393  155.82699585    2.93000007    2.07999992
   12.75166702  133.35400391    2.93000007    2.07999992
   12.75500011  135.67399597    2.93000007    2.07999992
   12.75583363  135.30000305    2.93000007    2.07999992
   12.75833321  140.24899292    2.93000007    2.09999990
   12.76166630  144.88200378    2.93000007    2.09999990
   12.76500034  133.25000000    2.93000007    2.09999990
   12.77111053  133.25000000    2.93000007    2.09999990
   12.77527714  153.21699524    2.93000007    2.09999990
   12.77833271  134.61700439    2.93000007    2.09999990
   12.78166676  139.50999451    2.94000006    2.09999990
   12.78500080  140.47099304    2.93000007    2.11999989
   12.78805637  136.17599487    2.94000006    2.11999989
   12.78916740  145.75599670    2.93000007    2.09999990
   12.79166698  142.78599548    2.93000007    2.11999989
   12.79500008  141.11700439    2.93000007    2.09999990
   12.79833412  136.15699768    2.93000007    2.11999989
   12.80138874  141.23300171    2.93000007    2.11999989
   12.80472279  128.40199280    2.91000009    2.11999989
   12.80777836  140.25500488    2.91000009    2.13000011
   12.81388950  140.25500488    2.91000009    2.11999989
   12.81805515  134.16900635    2.89000010    2.11999989
   12.82111073  140.89199829    2.89000010    2.11999989
   12.82250023  142.98500061    2.89000010    2.11999989
   12.82472229  144.44500732    2.89000010    2.11999989
   12.82805538  141.46800232    2.86999989    2.11999989
   12.83138847  144.80499268    2.89000010    2.11999989
   12.83444405  151.10600281    2.96000004    2.13000011
   12.83777714  140.82899475    3.25000000    2.11999989
   12.84083271  133.63900757    3.57999992    2.13000011
   12.84416676  150.01199341    3.99000001    2.13000011
   12.84749985  144.01199341    4.38999987    2.13000011
   12.85055637  138.92799377    4.76000023    2.13000011
   12.85666752  138.92799377    4.90999985    2.13000011
   12.86083412  145.18400574    4.90999985    2.15000010
   12.86416721  133.55700684    4.90999985    2.17000008
   12.86722279  134.55000305    4.90999985    2.17000008
   12.87055588  183.88600159    4.90999985    2.09999990
   12.87388897  245.25799561    4.90999985    1.89999998
   12.87694454  171.05099487    4.90999985    1.76999998
   12.88027763  121.16699982    4.90999985    1.88000000
   12.88333321  137.68400574    4.90999985    2.00000000
   12.88666630  139.59899902    4.90999985    2.11999989
   12.88916683  132.18899536    4.90999985    2.17000008
   12.89027786  136.17300415    4.90999985    2.17000008
   12.89361095  140.57299805    4.90999985    2.19000006
   12.89944458  140.57299805    4.90999985    2.17000008
   12.90361118  141.73599243    4.90999985    2.17000008
   12.90694427  141.13800049    4.90999985    2.17000008
   12.91027737  139.71000671    4.90999985    2.17000008
   12.91333294  131.32299805    4.90999985    2.17000008
   12.91666698  132.02400208    4.90999985    2.17000008
   12.91972256  126.19200134    4.51000023    2.17000008
   12.92250061  133.05799866    4.15999985    2.17000008
   12.92333412  131.77600098    3.99000001    2.17000008
   12.92666721  133.01100159    3.46000004    2.17000008
   12.93000031  134.86000061    3.05999994    2.17000008
   12.93305588  135.44200134    2.80999994    2.17000008
   12.93638897  132.34300232    2.69000006    2.17000008
   12.94250011  132.34300232    2.66000009    2.17000008
   12.94666672  138.29899597    2.64000010    2.19000006
   12.94972229  131.44799805    2.66000009    2.19000006
   12.95305538  134.73899841    2.64000010    2.19000006
   12.95583344  134.34199524    2.64000010    2.19000006
   12.95666695  130.13200378    2.66000009    2.19000006
   12.96000004  137.70100403    2.66000009    2.19000006
   12.96333313  132.60899353    2.66000009    2.19000006
   12.96638870  133.85299683    2.66000009    2.19000006
   12.96972179  132.81799316    2.66000009    2.19000006
   12.97277737  141.47999573    2.66000009    2.19000006
   12.97611046  134.90899658    2.66000009    2.19000006
   12.97944355  136.87600708    2.66000009    2.19000006
   12.98527813  136.87600708    2.66000009    2.21000004
   12.98944473  138.79699707    2.64000010    2.21000004
   12.99250031  130.42900085    2.64000010    2.19000006
   12.99583340  149.92799377    2.61999989    2.19000006
   12.99916649  139.06900024    2.59999990    2.19000006
   13.00249958  131.47300720    2.57999992    2.21000004
   13.00555515  135.66400146    2.57999992    2.21000004
   13.00888920  134.36999512    2.57999992    2.21000004
   13.01194477  133.01499939    2.55999994    2.21000004
   13.01527786  131.00199890    2.55999994    2.21000004
   13.01861095  149.30599976    2.53999996    2.21000004
   13.02166653  139.71000671    2.53999996    2.21000004
   13.02250004  129.55499268    2.53999996    2.21000004
   13.02805519  129.55499268    2.51999998    2.21000004
   13.03222179  141.71400452    2.51999998    2.23000002
   13.03555584  145.18899536    2.51999998    2.23000002
   13.03861141  146.44200134    2.50000000    2.21000004
   13.04194450  156.48300171    2.50000000    2.23000002
   13.04527855  143.57099915    2.48000002    2.23000002
   13.04833412  157.99699402    2.48000002    2.23000002
   13.05166721  137.48699951    2.46000004    2.23000002
   13.05472279  135.29800415    2.46000004    2.23000002
   13.05583382  137.58200073    2.46000004    2.23000002
   13.05833340  138.50500488    2.46000004    2.23000002
   13.06166649  142.39799500    2.44000006    2.23000002
   13.06500053  141.94999695    2.44000006    2.23000002
   13.07083321  141.94999695    2.44000006    2.23000002
   13.07499981  139.65299988    2.44000006    2.25000000
   13.07833290  140.14300537    2.44000006    2.25000000
   13.08166695  130.52000427    2.44000006    2.23000002
   13.08472157  144.96800232    2.42000008    2.25000000
   13.08805561  144.70799255    2.42000008    2.25000000
   13.08916664  137.70599365    2.42000008    2.25000000
   13.09166622  135.61999512    2.42000008    2.25000000
   13.09499931  141.56199646    2.42000008    2.25000000
   13.09833336  140.89500427    2.40000010    2.25000000
   13.10138893  159.53300476    2.40000010    2.25000000
   13.10472298  127.38300323    2.39000010    2.25000000
   13.10805607  149.11199951    2.39000010    2.25000000
   13.11388969  149.11199951    2.36999989    2.25000000
   13.11805534  143.31500244    2.36999989    2.25000000
   13.12111092  146.72099304    2.36999989    2.25000000
   13.12250042  167.86000061    2.36999989    2.25000000
   13.12472248  154.11099243    2.36999989    2.26999998
   13.12805557  152.47799683    2.36999989    2.26999998
   13.13138866  153.78999329    2.36999989    2.25000000
   13.13444424  162.17199707    2.36999989    2.26999998
   13.13777733  150.92500305    2.36999989    2.26999998
   13.14111137  144.83799744    2.36999989    2.25000000
   13.14416695  150.56500244    2.36999989    2.26999998
   13.14750004  151.03599548    2.39000010    2.26999998
   13.15055561  140.64700317    2.39000010    2.26999998
   13.15666676  140.64700317    2.36999989    2.26999998
   13.16083336  155.29600525    2.39000010    2.26999998
   13.16388893  151.96600342    2.36999989    2.26999998
   13.16722298  140.87899780    2.36999989    2.26999998
   13.17055607  136.56700134    2.36999989    2.26999998
   13.17361164  140.20899963    2.36999989    2.26999998
   13.17694473  132.28100586    2.34999990    2.26999998
   13.18027782  141.56799316    2.34999990    2.26999998
   13.18333340  137.33099365    2.32999992    2.28999996
   13.18666649  145.58399963    2.32999992    2.26999998
   13.18916702  135.98800659    2.30999994    2.26999998
   13.19000053  134.69500732    2.32999992    2.28999996
   13.19333363  132.92300415    2.30999994    2.28999996
   13.19944477  132.92300415    2.28999996    2.28999996
   13.20361137  134.03100586    2.28999996    2.28999996
   13.20694447  132.81199646    2.28999996    2.28999996
   13.21000004  141.83599854    2.28999996    2.28999996
   13.21333313  145.56599426    2.28999996    2.28999996
   13.21666622  148.71299744    2.28999996    2.28999996
   13.21972179  139.43200684    2.28999996    2.28999996
   13.22249985  139.03599548    2.28999996    2.28999996
   13.22333336  139.78900146    2.28999996    2.28999996
   13.22666645  143.78300476    2.26999998    2.28999996
   13.22999954  147.18600464    2.26999998    2.28999996
   13.23305511  133.46200562    2.26999998    2.28999996
   13.23638916  137.78999329    2.26999998    2.28999996
   13.24222279  137.78999329    2.25000000    2.30999994
   13.24638939  147.87800598    2.23000002    2.28999996
   13.24972248  138.99699402    2.21000004    2.30999994
   13.25277805  145.83000183    2.21000004    2.30999994
   13.25583363  137.05999756    2.21000004    2.30999994
   13.25638866  139.31700134    2.21000004    2.30999994
   13.25972176  147.81300354    2.19000006    2.30999994
   13.26305580  136.57699585    2.19000006    2.30999994
   13.26611137  133.85299683    2.17000008    2.30999994
   13.26944447  133.85699463    2.17000008    2.30999994
   13.27250004  139.79299927    2.17000008    2.30999994
   13.27583313  142.15400696    2.17000008    2.32999992
   13.27916622  145.20399475    2.17000008    2.30999994
   13.28527832  145.20399475    2.17000008    2.30999994
   13.28944492  151.11199951    2.17000008    2.30999994
   13.29250050  137.22900391    2.17000008    2.32999992
   13.29583359  147.21600342    2.17000008    2.32999992
   13.29916668  147.82699585    2.17000008    2.32999992
   13.30222225  138.44799805    2.17000008    2.32999992
   13.30555534  144.58299255    2.17000008    2.32999992
   13.30861092  137.54100037    2.17000008    2.32999992
   13.31194496  131.53399658    2.15000010    2.32999992
   13.31527805  137.25799561    2.15000010    2.30999994
   13.31833363  140.77000427    2.15000010    2.32999992
   13.32166672  140.59300232    2.13000011    2.32999992
   13.32250023  139.57200623    2.15000010    2.32999992
   13.34305477  139.57200623    2.09999990    2.32999992
   13.34722233  140.33799744    2.09999990    2.32999992
   13.35055637  136.88400269    2.07999992    2.32999992
   13.35388947  147.38900757    2.07999992    2.34999990
   13.35583401  137.08399963    2.07999992    2.32999992
   13.35750008  141.75999451    2.07999992    2.32999992
   13.36055565  154.74200439    2.07999992    2.34999990
   13.36388969  138.43899536    2.07999992    2.32999992
   13.36694431  141.14100647    2.07999992    2.32999992
   13.37027836  144.26600647    2.07999992    2.34999990
   13.37361145  151.98199463    2.07999992    2.34999990
   13.37666702  146.48300171    2.07999992    2.34999990
   13.38000011  147.33799744    2.07999992    2.34999990
   13.38583279  147.33799744    2.07999992    2.34999990
   13.39000034  146.75799561    2.09999990    2.34999990
   13.39333344  140.11999512    2.09999990    2.34999990
   13.39638901  139.29600525    2.07999992    2.34999990
   13.39972210  142.41600037    2.07999992    2.36999989
   13.40305519   92.88680267    2.07999992    2.36999989
   13.40611076   -1.00000000    2.05999994    2.36999989
   13.40944386   -1.00000000    2.05999994    2.34999990
   13.41249943   -1.00000000    2.07999992    2.34999990
   13.41583252  138.65600586    2.05999994    2.36999989
   13.41916656  138.22200012    2.05999994    2.34999990
   13.42222214  149.07299805    2.07999992    2.34999990
   13.42277813  141.47500610    2.07999992    2.34999990
   13.42888927  141.47500610    2.05999994    2.34999990
   13.43277836  147.60699463    2.03999996    2.34999990
   13.43611145  142.71699524    2.03999996    2.34999990
   13.43944454  149.13999939    2.03999996    2.36999989
   13.44250011  145.66200256    2.03999996    2.36999989
   13.44583321  159.92999268    2.03999996    2.36999989
   13.44888878  142.55799866    2.03999996    2.34999990
   13.45222187  139.78500366    2.03999996    2.36999989
   13.45555496  148.46499634    2.03999996    2.36999989
   13.45611095  142.66600037    2.03999996    2.36999989
   13.45916653  151.14900208    2.03999996    2.36999989
   13.46249962  156.58700562    2.05999994    2.36999989
   13.46555519  150.50000000    2.07999992    2.36999989
   13.47166634  150.50000000    2.17000008    2.39000010
   13.47583294  148.35000610    2.25000000    2.36999989
   13.47888851  157.34800720    2.39000010    2.39000010
   13.48222160  155.84500122    2.57999992    2.36999989
   13.48527813  148.66999817    2.84999990    2.39000010
   13.48861122  155.84899902    3.26999998    2.39000010
   13.48944473  157.29400635    3.36999989    2.39000010
   13.49222279  142.75799561    3.59999990    2.39000010
   13.49555588  160.35099792    3.95000005    2.36999989
   13.49861145  157.22799683    4.30999994    2.36999989
   13.50194454  154.12199402    4.57999992    2.34999990
   13.50500011  159.95899963    4.69999981    2.30999994
   13.50833321  167.33099365    4.80999994    2.28999996
   13.51444435  167.33099365    4.90999985    2.30999994
   13.51861095  160.80200195    4.90999985    2.26999998
   13.52166653  167.68299866    4.90999985    2.30999994
   13.52277756  170.85699463    4.90999985    2.30999994
   13.52555561  161.55200195    4.90999985    2.28999996
   13.52888870  161.04299927    4.90999985    2.32999992
   13.53194427  157.15600586    4.90999985    2.32999992
   13.53527832  155.07899475    4.90999985    2.34999990
   13.53833389  158.64999390    4.53999996    2.36999989
   13.54166698  151.42199707    4.26000023    2.39000010
   13.54500008  147.75700378    3.99000001    2.39000010
   13.54805565  149.60299683    3.68000007    2.40000010
   13.55138874  153.98899841    3.36999989    2.39000010
   13.55722237  153.98899841    2.76999998    2.39000010
   13.56138897  151.02499390    2.42000008    2.39000010
   13.56472206  160.23800659    2.23000002    2.39000010
   13.56777763  154.81599426    2.09999990    2.39000010
   13.57111073  159.74299622    2.03999996    2.40000010
   13.57444477  153.96000671    2.03999996    2.40000010
   13.57750034  157.36700439    2.09999990    2.40000010
   13.58083344  161.17399597    2.15000010    2.40000010
   13.58388901  152.61099243    2.19000006    2.39000010
   13.58722210  162.02600098    2.21000004    2.40000010
   13.58944416  158.52000427    2.19000006    2.40000010
   13.59083271  167.35400391    2.19000006    2.40000010
   13.59416676  167.41200256    2.17000008    2.40000010
   13.60000038  167.41200256    2.15000010    2.39000010
   13.60416698  160.53300476    2.15000010    2.39000010
   13.60750008  157.12500000    2.15000010    2.40000010
   13.61083412  175.70700073    2.17000008    2.40000010
   13.61388969  156.95799255    2.17000008    2.40000010
   13.61722279  165.45599365    2.13000011    2.40000010
   13.62027836  165.99400330    2.03999996    2.40000010
   13.62277794  157.93699646    1.98000002    2.40000010
   13.62416649  167.78399658    1.94000006    2.40000010
   13.62750053  158.03199768    1.89999998    2.40000010
   13.63055611  171.09599304    1.86000001    2.40000010
   13.63388920  165.12100220    1.86000001    2.40000010
   13.63694477  162.68400574    1.85000002    2.39000010
   13.64305496  162.68400574    1.85000002    2.40000010
   13.64722252  158.60600281    1.85000002    2.40000010
   13.65027714  155.75000000    1.85000002    2.40000010
   13.65361118  163.47200012    1.85000002    2.40000010
   13.65611076  161.67100525    1.85000002    2.42000008
   13.65722179  165.22599792    1.85000002    2.40000010
   13.66055489  162.22500610    1.85000002    2.40000010
   13.66361046  162.77999878    1.85000002    2.40000010
   13.66694450  157.24299622    1.85000002    2.40000010
   13.67000008  164.76499939    1.85000002    2.40000010
   13.67333412  160.24299622    1.85000002    2.42000008
   13.67666721  156.88999939    1.86000001    2.42000008
   13.68000031  143.87300110    1.86000001    2.42000008
   13.68583298  143.87300110    1.86000001    2.42000008
   13.69000053  150.67399597    1.86000001    2.42000008
   13.69305515  157.21800232    1.86000001    2.40000010
   13.69638920  158.76300049    1.85000002    2.42000008
   13.69972229  156.96299744    1.85000002    2.42000008
   13.70277786  167.48100281    1.83000004    2.42000008
   13.70611095  155.75199890    1.83000004    2.42000008
   13.70944405  164.32899475    1.83000004    2.42000008
   13.71249962  154.57499695    1.80999994    2.42000008
   13.71583271  157.37100220    1.80999994    2.42000008
   13.71888828  148.76699829    1.80999994    2.42000008
   13.72222137  163.29499817    1.80999994    2.42000008
   13.72277737  158.62699890    1.80999994    2.44000006
   13.72861099  158.62699890    1.80999994    2.42000008
   13.73277760  153.35099792    1.78999996    2.42000008
   13.73611164  159.89999390    1.78999996    2.42000008
   13.73916721  162.41799927    1.80999994    2.42000008
   13.74250031  154.89100647    1.78999996    2.42000008
   13.74583340  157.54600525    1.78999996    2.42000008
   13.74888897  153.15600586    1.78999996    2.44000006
   13.75222206  151.18899536    1.78999996    2.42000008
   13.75555515  152.47599792    1.78999996    2.42000008
   13.75611115  155.00900269    1.78999996    2.42000008
   13.75916672  149.45300293    1.78999996    2.44000006
   13.76249981  155.84399414    1.76999998    2.44000006
   13.76555538  150.19599915    1.76999998    2.44000006
   13.77138901  150.19599915    1.76999998    2.44000006
   13.77555561  148.31399536    1.75000000    2.44000006
   13.77888870  150.75300598    1.75000000    2.44000006
   13.78222179  156.31399536    1.75000000    2.44000006
   13.78527832  153.37500000    1.75000000    2.44000006
   13.78861141  153.09199524    1.75000000    2.42000008
   13.78944492  154.60600281    1.75000000    2.42000008
   13.79222298  151.81599426    1.75000000    2.44000006
   13.79555607  156.50199890    1.75000000    2.44000006
   13.79861164  156.31700134    1.75000000    2.44000006
   13.80194473  150.18499756    1.75000000    2.44000006
   13.80527782  155.70100403    1.75000000    2.46000004
   13.80833340  148.19200134    1.76999998    2.46000004
   13.81444454  148.19200134    1.75000000    2.46000004
   13.81861115  159.30900574    1.73000002    2.46000004
   13.82166672  149.16099548    1.75000000    2.44000006
   13.82277775  152.88699341    1.73000002    2.44000006
   13.82527733  160.88699341    1.73000002    2.44000006
   13.82861137  149.83000183    1.73000002    2.46000004
   13.83166695  157.48500061    1.75000000    2.46000004
   13.83500004  151.23599243    1.73000002    2.46000004
   13.83833313  152.49400330    1.73000002    2.44000006
   13.84166622  159.74600220    1.73000002    2.46000004
   13.84472179  158.28399658    1.73000002    2.46000004
   13.84805489  157.74299622    1.73000002    2.46000004
   13.85111141  158.39799500    1.71000004    2.46000004
   13.85722256  158.39799500    1.71000004    2.46000004
   13.86138916  163.88400269    1.71000004    2.46000004
   13.86472225  162.48300171    1.69000006    2.46000004
   13.86777782  169.92300415    1.69000006    2.46000004
   13.87111092  151.95899963    1.71000004    2.46000004
   13.87416649  161.31900024    1.69000006    2.46000004
   13.87750053  166.35099792    1.69000006    2.46000004
   13.88083363  166.06799316    1.69000006    2.46000004
   13.88388920  172.92900085    1.69000006    2.46000004
   13.88722229  157.09199524    1.66999996    2.46000004
   13.88972187  171.57899475    1.66999996    2.46000004
   13.89083290  156.08599854    1.66999996    2.46000004
   13.89416695  160.67700195    1.69000006    2.46000004
   13.89999962  160.67700195    1.66999996    2.48000002
   13.90416622  155.70799255    1.66999996    2.46000004
   13.90749931  159.13000488    1.64999998    2.46000004
   13.91055489  148.15100098    1.64999998    2.46000004
   13.91388893  164.16999817    1.64999998    2.46000004
   13.91722298  161.70599365    1.64999998    2.46000004
   13.92027855  156.71400452    1.64999998    2.46000004
   13.92305565  164.51199341    1.64999998    2.48000002
   13.92388916  163.59199524    1.64999998    2.46000004
   13.92722225  164.99000549    1.64999998    2.48000002
   13.93027782  163.71299744    1.64999998    2.46000004
   13.93361092  166.33399963    1.64999998    2.46000004
   13.93694496  163.49600220    1.64999998    2.46000004
   13.94277763  163.49600220    1.64999998    2.48000002
   13.94694424  153.13000488    1.64999998    2.46000004
   13.95027733  156.05799866    1.64999998    2.46000004
   13.95361137  153.64100647    1.63000000    2.48000002
   13.95638847  154.10200500    1.63000000    2.48000002
   13.95722198  167.99800110    1.63000000    2.48000002
   13.96055508  158.34300232    1.63000000    2.46000004
   13.96361065  156.99699402    1.63000000    2.48000002
   13.96694374  163.09100342    1.63000000    2.48000002
   13.97027779  147.41200256    1.61000001    2.46000004
   13.97333336  156.49800110    1.61000001    2.46000004
   13.97666645  153.44400024    1.60000002    2.46000004
   13.97999954  154.66600037    1.60000002    2.46000004
   13.98583317  154.66600037    1.60000002    2.48000002
   13.99000072  152.68800354    1.60000002    2.48000002
   13.99305534  156.85899353    1.60000002    2.48000002
   13.99638939  152.34399414    1.58000004    2.48000002
   13.99944496  153.98199463    1.58000004    2.50000000
   14.00277805  154.40299988    1.60000002    2.48000002
   14.00611115  166.33900452    1.60000002    2.48000002
   14.00916672  154.32200623    1.60000002    2.48000002
   14.01249981  147.38999939    1.60000002    2.48000002
   14.01583290  156.84100342    1.60000002    2.48000002
   14.01888847  153.87600708    1.60000002    2.48000002
   14.02222157  157.58900452    1.60000002    2.48000002
   14.02305508  150.07099915    1.60000002    2.50000000
   14.02861118  150.07099915    1.60000002    2.50000000
   14.03277779  153.52299500    1.60000002    2.48000002
   14.03583336  151.88999939    1.60000002    2.48000002
   14.03916740  145.56799316    1.60000002    2.48000002
   14.04250050  160.07000732    1.58000004    2.48000002
   14.04555607  166.34800720    1.58000004    2.48000002
   14.04888916  153.43499756    1.58000004    2.48000002
   14.05194473  152.59599304    1.58000004    2.48000002
   14.05527782  147.33999634    1.58000004    2.48000002
   14.05638885  162.35600281    1.58000004    2.48000002
   14.05888939  147.56799316    1.58000004    2.48000002
   14.06222248  155.24400330    1.58000004    2.48000002
   14.06555557  146.27900696    1.58000004    2.50000000
   14.07138920  146.27900696    1.55999994    2.48000002
   14.07555580  149.17100525    1.55999994    2.48000002
   14.07888889  152.41900635    1.53999996    2.50000000
   14.08194447  154.92900085    1.53999996    2.50000000
   14.08527756  152.62800598    1.53999996    2.50000000
   14.08833313  154.21699524    1.55999994    2.48000002
   14.08972168  158.54299927    1.55999994    2.48000002
   14.09194374  148.30000305    1.53999996    2.50000000
   14.09527779  151.79800415    1.53999996    2.50000000
   14.09833336  158.35099792    1.53999996    2.50000000
   14.10166740  153.55000305    1.53999996    2.50000000
   14.10500050  149.40499878    1.53999996    2.50000000
   14.10805607  152.34199524    1.53999996    2.50000000
   14.11416721  152.34199524    1.53999996    2.50000000
   14.11833382  145.80599976    1.53999996    2.50000000
   14.12166691  151.21600342    1.53999996    2.50000000
   14.12305546  157.25300598    1.53999996    2.50000000
   14.12527752  145.78199768    1.53999996    2.50000000
   14.12861156  151.63699341    1.53999996    2.50000000
   14.13166714  159.78999329    1.53999996    2.50000000
   14.13500023  156.54800415    1.53999996    2.51999998
   14.13833332  156.89399719    1.53999996    2.51999998
   14.14138889  156.57200623    1.53999996    2.51999998
   14.14472198  147.30299377    1.53999996    2.50000000
   14.14805508  147.54400635    1.55999994    2.50000000
   14.15111065  151.64500427    1.55999994    2.50000000
   14.15722179  151.64500427    1.55999994    2.50000000
   14.16111088  148.23699951    1.66999996    2.50000000
   14.16444397  150.14199829    1.66999996    2.50000000
   14.16777802  148.25700378    1.88000000    2.51999998
   14.17083359  153.11000061    2.17000008    2.51999998
   14.17416668  154.27200317    2.19000006    2.50000000
   14.17750072  154.59300232    2.23000002    2.50000000
   14.18055630  146.41600037    2.34999990    2.48000002
   14.18388939  151.43800354    2.40000010    2.48000002
   14.18722248  153.60899353    2.51999998    2.50000000
   14.18972206  144.81599426    2.48000002    2.46000004
   14.19055557  150.64100647    2.42000008    2.46000004
   14.19388866  156.01199341    2.26999998    2.51999998
   14.19999981  156.01199341    2.09999990    2.51999998
   14.20416641  150.05799866    1.73000002    2.51999998
   14.20722198  142.43299866    1.53999996    2.51999998
   14.21055508  145.18400574    1.50000000    2.51999998
   14.21388912  151.98800659    1.48000002    2.51999998
   14.21694374  144.63299561    1.48000002    2.51999998
   14.22027779  142.99200439    1.46000004    2.51999998
   14.22305489  150.38800049    1.46000004    2.51999998
   14.22388840  139.34300232    1.46000004    2.51999998
   14.22722149  141.59100342    1.44000006    2.51999998
   14.23055553  155.02400208    1.44000006    2.51999998
   14.23361111  148.87600708    1.46000004    2.51999998
   14.23694515  147.46299744    1.46000004    2.51999998
   14.24277782  147.46299744    1.48000002    2.53999996
   14.24694443  153.62699890    1.48000002    2.51999998
   14.25027752  140.04400635    1.48000002    2.51999998
   14.25333309  156.19599915    1.48000002    2.51999998
   14.25638866  150.43800354    1.48000002    2.51999998
   14.25694466  159.44900513    1.48000002    2.51999998
   14.26027775  141.00500488    1.48000002    2.51999998
   14.26361084  148.55000305    1.46000004    2.51999998
   14.26666641  147.26400757    1.46000004    2.51999998
   14.26999950  149.72300720    1.46000004    2.51999998
   14.27305508  144.83299255    1.46000004    2.51999998
   14.27638817  153.56399536    1.46000004    2.51999998
   14.27972221  141.70899963    1.46000004    2.51999998
   14.28555584  141.70899963    1.46000004    2.51999998
   14.28972244  152.98899841    1.44000006    2.51999998
   14.29305553  149.82800293    1.46000004    2.51999998
   14.29611111  152.72200012    1.44000006    2.51999998
   14.29944515  161.51899719    1.44000006    2.51999998
   14.30277824  150.71600342    1.41999996    2.51999998
   14.30583382  163.42599487    1.41999996    2.53999996
   14.30916691  155.77200317    1.41999996    2.53999996
   14.31250000  154.99699402    1.41999996    2.51999998
   14.31555557  150.27799988    1.39999998    2.51999998
   14.31888866  150.04699707    1.38000000    2.53999996
   14.32194424  150.25000000    1.38000000    2.53999996
   14.32305527  142.94799805    1.36000001    2.53999996
   14.32861137  142.94799805    1.36000001    2.53999996
   14.33249950  141.15400696    1.36000001    2.53999996
   14.33583260  144.62199402    1.34000003    2.53999996
   14.33916664  148.13499451    1.34000003    2.53999996
   14.35666752  130.19500732    1.34000003    2.53999996
   14.35916710  133.55400085    1.34000003    2.53999996
   14.36222267  152.37500000    1.34000003    2.53999996
   14.36555576  140.79499817    1.34000003    2.53999996
   14.37166691  140.79499817    1.34000003    2.53999996
   14.37555599  134.84700012    1.34000003    2.53999996
   14.37888908  147.83399963    1.34000003    2.53999996
   14.38222218  148.92500305    1.34000003    2.53999996
   14.38527775  142.59199524    1.36000001    2.51999998
   14.38861084  139.29400635    1.36000001    2.53999996
   14.39000034  139.24000549    1.36000001    2.53999996
   14.39222240  134.00000000    1.36000001    2.53999996
   14.39555550  136.95599365    1.36000001    2.53999996
   14.39888859  141.27799988    1.36000001    2.53999996
   14.40194416  142.51300049    1.36000001    2.53999996
   14.40527725  145.44999695    1.36000001    2.53999996
   14.40861034  132.34800720    1.36000001    2.53999996
   14.41444397  132.34800720    1.36000001    2.53999996
   14.41861153  143.51499939    1.36000001    2.53999996
   14.42166710  137.00300598    1.36000001    2.53999996
   14.42333412  131.08799744    1.36000001    2.53999996
   14.42527771  136.85499573    1.36000001    2.55999994
   14.42861176  140.77299500    1.34000003    2.55999994
   14.43194485  132.56700134    1.34000003    2.53999996
   14.43500042  129.93499756    1.36000001    2.55999994
   14.43833351  135.89700317    1.34000003    2.55999994
   14.44166660  138.30499268    1.34000003    2.55999994
   14.44472218  138.16000366    1.34000003    2.55999994
   14.44805527  141.74200439    1.34000003    2.55999994
   14.45138836  139.41000366    1.34000003    2.53999996
   14.45722198  139.41000366    1.34000003    2.55999994
   14.46138859  132.14599609    1.34000003    2.53999996
   14.46444416  139.72799683    1.34000003    2.55999994
   14.46777725  143.52099609    1.34000003    2.55999994
   14.47111034  135.43499756    1.33000004    2.55999994
   14.47416592  132.34800720    1.33000004    2.53999996
   14.47749996  139.66600037    1.33000004    2.53999996
   14.48083305  132.41299438    1.34000003    2.55999994
   14.48388958  135.39500427    1.33000004    2.53999996
   14.48722267  137.27099609    1.33000004    2.55999994
   14.49000072  137.41499329    1.33000004    2.55999994
   14.49111176  138.09899902    1.33000004    2.55999994
   14.49416733  140.41900635    1.33000004    2.55999994
   14.50000000  140.41900635    1.33000004    2.55999994
   14.50416660  141.03199768    1.30999994    2.55999994
   14.50749969  136.99800110    1.30999994    2.55999994
   14.51055527  133.60499573    1.30999994    2.55999994
   14.51388931  140.62300110    1.30999994    2.55999994
   14.51722240  132.97500610    1.30999994    2.55999994
   14.52027798  131.24499512    1.28999996    2.55999994
   14.52333355  133.77999878    1.30999994    2.55999994
   14.52388859  137.03999329    1.30999994    2.55999994
   14.52722168  141.81799316    1.30999994    2.55999994
   14.53055573  134.07299805    1.33000004    2.55999994
   14.53361130  141.43899536    1.30999994    2.55999994
   14.53694534  140.67500305    1.30999994    2.57999992
   14.54305553  140.67500305    1.30999994    2.55999994
   14.54694462  127.63400269    1.30999994    2.55999994
   14.55027771  130.49299622    1.33000004    2.55999994
   14.55361176  130.02499390    1.30999994    2.55999994
   14.55666733  135.16099548    1.30999994    2.55999994
   14.55694485  131.16000366    1.30999994    2.55999994
   14.56027794  133.10000610    1.30999994    2.55999994
   14.56361103  131.13299561    1.30999994    2.55999994
   14.56666660  130.35000610    1.30999994    2.55999994
   14.56999969  127.36199951    1.30999994    2.55999994
   14.57333374  132.07499695    1.30999994    2.55999994
   14.57638836  128.72900391    1.30999994    2.55999994
   14.57972240  132.08299255    1.30999994    2.55999994
   14.58583260  132.08299255    1.28999996    2.55999994
   14.59000015  126.21900177    1.30999994    2.55999994
   14.59027767  125.20600128    1.30999994    2.55999994
   14.59361076  131.69799805    1.30999994    2.55999994
   14.59694386  120.56500244    1.33000004    2.55999994
   14.60000038  127.32900238    1.30999994    2.55999994
   14.60333347  129.41400146    1.30999994    2.55999994
   14.60666752  131.37199402    1.30999994    2.55999994
   14.60972214  131.28599548    1.30999994    2.55999994
   14.61305618  131.86799622    1.30999994    2.57999992
   14.61638927  126.85099792    1.30999994    2.55999994
   14.61944485  124.18199921    1.28999996    2.55999994
   14.62277794  130.59199524    1.30999994    2.55999994
   14.62333393  129.84199524    1.30999994    2.55999994
   14.62861156  129.84199524    1.28999996    2.55999994
   14.63277817  128.67700195    1.28999996    2.55999994
   14.63583279  120.55100250    1.30999994    2.55999994
   14.63916683  135.09300232    1.28999996    2.55999994
   14.64249992  132.55499268    1.30999994    2.55999994
   14.64555550  126.74600220    1.30999994    2.57999992
   14.64888859  128.80099487    1.28999996    2.57999992
   14.65222168  134.75100708    1.28999996    2.57999992
   14.65527725  130.76199341    1.28999996    2.55999994
   14.65666676  127.63999939    1.28999996    2.55999994
   14.65916634  133.50999451    1.28999996    2.57999992
   14.66222191  126.05000305    1.28999996    2.55999994
   14.66555500  123.01100159    1.26999998    2.57999992
   14.67138958  123.01100159    1.26999998    2.57999992
   14.67555618  123.13700104    1.26999998    2.57999992
   14.67888927  119.12200165    1.26999998    2.57999992
   14.68194485  132.63400269    1.26999998    2.55999994
   14.68527794  122.51899719    1.26999998    2.57999992
   14.68861103  129.65199280    1.26999998    2.57999992
   14.69000053  128.77900696    1.26999998    2.57999992
   14.69222260  122.99299622    1.26999998    2.57999992
   14.69527817  125.97299957    1.26999998    2.57999992
   14.69861126  125.29100037    1.26999998    2.57999992
   14.70194435  126.17199707    1.26999998    2.57999992
   14.70499992  120.62500000    1.26999998    2.57999992
   14.70833302  127.63099670    1.26999998    2.57999992
   14.71416664  127.63099670    1.26999998    2.57999992
   14.71833324  129.82400513    1.26999998    2.57999992
   14.72166634  126.13300323    1.26999998    2.57999992
   14.72333336  128.75300598    1.26999998    2.57999992
   14.72555542  134.06700134    1.26999998    2.55999994
   14.72861099  125.52500153    1.25000000    2.57999992
   14.73194408  124.65899658    1.25000000    2.57999992
   14.73500061  130.20799255    1.25000000    2.57999992
   14.73833370  135.51199341    1.25000000    2.57999992
   14.74166679  131.94599915    1.25000000    2.57999992
   14.74472237  124.32199860    1.25000000    2.57999992
   14.74805546  126.26799774    1.23000002    2.57999992
   14.75138855  119.90399933    1.23000002    2.57999992
   14.75722218  119.90399933    1.23000002    2.57999992
   14.76138878  125.87799835    1.23000002    2.59999990
   14.76444435  127.56600189    1.21000004    2.57999992
   14.76777744  127.42199707    1.23000002    2.59999990
   14.77083302  139.48300171    1.23000002    2.57999992
   14.77416611  125.09300232    1.23000002    2.57999992
   14.77750015  132.66900635    1.23000002    2.57999992
   14.78055573  134.80999756    1.23000002    2.57999992
   14.78388977  129.78900146    1.23000002    2.59999990
   14.78722286  137.38800049    1.23000002    2.57999992
   14.79000092  131.95599365    1.23000002    2.57999992
   14.79083347  130.14399719    1.23000002    2.57999992
   14.79388905  129.41999817    1.23000002    2.57999992
   14.80000019  129.41999817    1.23000002    2.59999990
   14.80416679  124.17400360    1.23000002    2.57999992
   14.80722237  128.00399780    1.23000002    2.57999992
   14.81055546  126.25700378    1.21000004    2.59999990
   14.81388950  127.26699829    1.21000004    2.57999992
   14.81694412  126.15699768    1.21000004    2.59999990
   14.82027817  123.67800140    1.21000004    2.59999990
   14.82333374  125.51899719    1.21000004    2.57999992
   14.82388878  122.31900024    1.21000004    2.57999992
   14.82694435  127.60700226    1.21000004    2.57999992
   14.83027744  131.97099304    1.21000004    2.59999990
   14.83333302  124.62200165    1.21000004    2.59999990
   14.83666611  119.32299805    1.21000004    2.59999990
   14.84277725  119.32299805    1.21000004    2.59999990
   14.84694386  126.38999939    1.21000004    2.59999990
   14.85027790  127.78800201    1.21000004    2.57999992
   14.85333347  126.25399780    1.21000004    2.59999990
   14.85666752  120.16899872    1.21000004    2.57999992
   14.85722256  123.97100067    1.21000004    2.57999992
   14.86027813  122.92800140    1.21000004    2.59999990
   14.86361122  116.46499634    1.21000004    2.59999990
   14.86694431  125.42500305    1.21000004    2.59999990
   14.86999989  123.28900146    1.21000004    2.59999990
   14.87333393  125.06099701    1.21000004    2.59999990
   14.87638855  127.17099762    1.19000006    2.57999992
   14.87972260  124.43000031    1.21000004    2.57999992
   14.88555527  124.43000031    1.19000006    2.57999992
   14.88972187  129.80099487    1.19000006    2.59999990
   14.89027786  117.13099670    1.19000006    2.59999990
   14.89361095  130.94299316    1.19000006    2.59999990
   14.89666653  125.53700256    1.19000006    2.59999990
   14.89999962  119.65000153    1.19000006    2.59999990
   14.90333271  118.23999786    1.16999996    2.59999990
   14.90638828  125.28700256    1.19000006    2.59999990
   14.90972137  120.95899963    1.16999996    2.59999990
   14.91305542  123.17500305    1.19000006    2.57999992
   14.91611099  116.48799896    1.16999996    2.59999990
   14.91944504  119.37699890    1.16999996    2.59999990
   14.92250061  127.10600281    1.16999996    2.59999990
   14.92361164  131.08799744    1.16999996    2.59999990
   14.92861176  131.08799744    1.16999996    2.59999990
   14.93249989  118.27899933    1.14999998    2.59999990
   14.93583298  130.85000610    1.14999998    2.59999990
   14.93916702  120.23600006    1.14999998    2.59999990
   14.94222260  128.09599304    1.14999998    2.59999990
   14.94555569  126.47000122    1.14999998    2.59999990
   14.94888878  127.85700226    1.14999998    2.59999990
   14.95194435  124.93099976    1.13000000    2.59999990
   14.95527744  121.45899963    1.13000000    2.61999989
   14.95694447  122.04499817    1.13000000    2.61999989
   14.95888901  124.16600037    1.14999998    2.59999990
   14.96194458  129.77600098    1.14999998    2.59999990
   14.96527767  118.91699982    1.14999998    2.59999990
   14.97138882  118.91699982    1.13000000    2.61999989
   14.97555542  130.05099487    1.13000000    2.59999990
   14.97861099  125.47200012    1.13000000    2.59999990
   14.98194408  135.63900757    1.13000000    2.61999989
   14.98527813  124.63300323    1.13000000    2.59999990
   14.98833370  120.68099976    1.14999998    2.59999990
   14.99027824  125.31099701    1.13000000    2.61999989
   14.99222279  118.21399689    1.13000000    2.61999989
   14.99527836  122.25399780    1.21000004    2.61999989
   14.99861145  131.95399475    1.13000000    2.59999990
   15.00194454  119.60500336    1.14999998    2.59999990
   15.00500011  122.11399841    1.14999998    2.61999989
   15.00833321  121.49800110    1.19000006    2.61999989
   15.01416683  121.49800110    1.19000006    2.61999989
   15.01833344  135.38400269    1.16999996    2.59999990
   15.02166653  130.76600647    1.21000004    2.61999989
   15.02361107  124.38500214    1.21000004    2.57999992
   15.02527714  117.73899841    1.21000004    2.57999992
   15.02861118  127.12799835    1.21000004    2.61999989
   15.03166676  122.60600281    1.19000006    2.59999990
   15.03500080  119.58999634    1.14999998    2.59999990
   15.03805637  121.36499786    1.14999998    2.59999990
   15.04138947  124.31099701    1.14999998    2.59999990
   15.04472256  132.04800415    1.13000000    2.59999990
   15.04777813  125.70400238    1.16999996    2.59999990
   15.05111122  132.66400146    1.25000000    2.61999989
   15.05694485  132.66400146    1.33000004    2.59999990
   15.06111145  122.29299927    1.28999996    2.59999990
   15.06444454  126.42199707    1.26999998    2.61999989
   15.06750011  124.99600220    1.21000004    2.61999989
   15.07083321  120.21700287    1.21000004    2.59999990
   15.07416630  125.16300201    1.23000002    2.61999989
   15.07722187  117.06300354    1.21000004    2.59999990
   15.08055592  115.49900055    1.21000004    2.59999990
   15.08388901  122.18199921    1.21000004    2.59999990
   15.08694458  120.00499725    1.21000004    2.61999989
   15.09027767  121.00800323    1.19000006    2.61999989
   15.09083271  123.88700104    1.19000006    2.61999989
   15.09388828  126.00399780    1.16999996    2.61999989
   15.10000038  126.00399780    1.14999998    2.59999990
   15.10388947  111.71299744    1.14999998    2.61999989
   15.10722256  121.91000366    1.13000000    2.59999990
   15.11055565  124.83899689    1.11000001    2.61999989
   15.11361122  121.39600372    1.11000001    2.61999989
   15.11694431  119.11699677    1.09000003    2.61999989
   15.12027836  125.70500183    1.07000005    2.61999989
   15.12333393  120.77999878    1.09000003    2.61999989
   15.12416649  115.69499969    1.07000005    2.61999989
   15.12694454  122.47000122    1.07000005    2.61999989
   15.13027763  113.08000183    1.07000005    2.61999989
   15.13361073  113.46399689    1.07000005    2.61999989
   15.13666630  124.26399994    1.07000005    2.61999989
   15.14277744  124.26399994    1.07000005    2.64000010
   15.14694405  125.75000000    1.05999994    2.61999989
   15.14999962  114.61299896    1.05999994    2.61999989
   15.15333271  128.00900269    1.05999994    2.61999989
   15.15666676  120.27200317    1.03999996    2.61999989
   15.15749931  122.11799622    1.03999996    2.61999989
   15.15999985  119.38600159    1.03999996    2.61999989
   15.16333294  122.91899872    1.05999994    2.64000010
   15.16666698  127.07700348    1.03999996    2.61999989
   15.16972256  126.39900208    1.03999996    2.61999989
   15.17305565  119.45600128    1.03999996    2.61999989
   15.17638874  124.49700165    1.03999996    2.64000010
   15.17944431  124.18499756    1.03999996    2.61999989
   15.18555546  124.18499756    1.03999996    2.61999989
   15.18972206  116.28199768    1.01999998    2.61999989
   15.19083309  125.06600189    1.01999998    2.61999989
   15.19333363  125.47299957    1.01999998    2.61999989
   15.19666672  123.68599701    1.01999998    2.61999989
   15.19999981  121.91200256    1.01999998    2.61999989
   15.20305538  129.02699280    1.01999998    2.61999989
   15.20638847  133.52900696    1.01999998    2.64000010
   15.20972157  120.85299683    1.01999998    2.61999989
   15.21277714  126.21299744    1.01999998    2.64000010
   15.31277752   -1.00000000   -1.00000000   -1.00000000
   15.45944405   -1.00000000   -1.00000000   -1.00000000
   15.57999992   -1.00000000   -1.00000000   -1.00000000
   15.63583279   -1.00000000   -1.00000000   -1.00000000
   15.68138885  133.99200439    0.95999998    2.64000010
   15.68472195  126.65899658    0.95999998    2.64000010
   15.68777752  126.33399963    0.95999998    2.64000010
   15.69111156  129.96299744    0.94000000    2.66000009
   15.69444466  135.51699829    0.94000000    2.66000009
   15.69750023  127.29000092    0.94000000    2.66000009
   15.70166683  127.29000092    0.92000002    2.64000010
   15.70583344  126.98300171    0.92000002    2.66000009
   15.70916653  130.58000183    0.94000000    2.64000010
   15.71222210  130.25500488    0.94000000    2.66000009
   15.71444416  128.57099915    0.95999998    2.66000009
   15.71583271  131.88400269    0.94000000    2.66000009
   15.71916580  130.23300171    0.95999998    2.66000009
   15.72222137  137.06300354    0.95999998    2.66000009
   15.72555542  134.12699890    0.95999998    2.66000009
   15.72888851  128.34100342    0.95999998    2.66000009
   15.73194408  129.72799683    0.95999998    2.66000009
   15.73527813  134.27400208    0.94000000    2.66000009
   15.73861122  136.03199768    0.94000000    2.66000009
   15.74444485  136.03199768    0.92000002    2.64000010
   15.74861145  128.94799805    0.92000002    2.66000009
   15.75194454  133.09599304    0.92000002    2.66000009
   15.75500011  135.44599915    0.92000002    2.66000009
   15.75833321  126.48000336    0.89999998    2.66000009
   15.76166630  125.00399780    0.89999998    2.64000010
   15.76472187  121.30300140    0.89999998    2.66000009
   15.76805496  128.26699829    0.92000002    2.66000009
   15.77138901  121.68599701    0.92000002    2.66000009
   15.77444458  129.22999573    0.92000002    2.66000009
   15.77777767  131.81799316    0.92000002    2.66000009
   15.78083324  116.86100006    0.92000002    2.66000009
   15.78138828  126.06500244    0.92000002    2.66000009
   15.78750038  126.06500244    0.92000002    2.66000009
   15.79138947  133.62800598    0.94000000    2.66000009
   15.79472256  133.27299500    0.94000000    2.67000008
   15.79805565  130.44299316    0.94000000    2.66000009
   15.80111122  130.69700623    0.94000000    2.66000009
   15.80444431  126.33200073    0.94000000    2.66000009
   15.80777836  135.97500610    0.94000000    2.66000009
   15.81083393  126.09300232    0.94000000    2.66000009
   15.81416702  123.86900330    0.95999998    2.66000009
   15.81472206  133.48500061    0.95999998    2.66000009
   15.81777763  126.93299866    0.95999998    2.66000009
   15.82111073  126.54100037    0.98000002    2.66000009
   15.82416630  123.06199646    0.98000002    2.66000009
   15.83027744  123.06199646    0.98000002    2.66000009
   15.83444405  137.46899414    0.98000002    2.67000008
   15.83777714  125.37799835    1.01999998    2.66000009
   15.84083271  129.64399719    1.00000000    2.66000009
   15.84416676  125.51899719    1.00000000    2.66000009
   15.84722233  124.43099976    0.98000002    2.66000009
   15.84805489  127.66400146    0.98000002    2.66000009
   15.85083389  127.19999695    0.95999998    2.66000009
   15.85416698  127.31900024    0.95999998    2.66000009
   15.85722256  130.27799988    0.98000002    2.66000009
   15.86055565  128.40499878    0.98000002    2.66000009
   15.86388969  124.48400116    1.00000000    2.66000009
   15.86694431  121.38200378    1.00000000    2.66000009
   15.87305546  121.38200378    1.00000000    2.64000010
   15.87722206  129.42500305    1.00000000    2.66000009
   15.88055611  123.32099915    1.00000000    2.66000009
   15.88166714  126.60199738    1.00000000    2.66000009
   15.88416672  128.81799316    0.98000002    2.66000009
   15.88749981  120.28900146    0.98000002    2.66000009
   15.89055538  126.68900299    0.95999998    2.66000009
   15.89388847  127.68199921    0.94000000    2.66000009
   15.89722252  133.69999695    0.95999998    2.66000009
   15.90027714  129.21899414    0.94000000    2.66000009
   15.90361118  127.81500244    0.94000000    2.66000009
   15.90694427  126.94699860    0.94000000    2.66000009
   15.90999985  123.52300262    0.95999998    2.66000009
   15.91583252  123.52300262    0.94000000    2.66000009
   15.92000008  119.13099670    0.94000000    2.66000009
   15.92333412  125.69999695    0.94000000    2.66000009
   15.92638874  123.78500366    0.94000000    2.66000009
   15.92972279  136.32800293    0.94000000    2.66000009
   15.93305588  132.19700623    0.94000000    2.66000009
   15.93611145  119.66699982    0.94000000    2.66000009
   15.93944454  125.89299774    0.94000000    2.66000009
   15.94277763  123.65299988    0.94000000    2.66000009
   15.94583321  128.00100708    0.94000000    2.67000008
   15.94805527  129.98199463    0.94000000    2.66000009
   15.94944477  120.02999878    0.94000000    2.66000009
   15.95277786  127.40200043    0.94000000    2.66000009
   15.95888901  127.40200043    0.94000000    2.66000009
   15.96277714  134.40100098    0.94000000    2.66000009
   15.96611118  125.05599976    0.94000000    2.66000009
   15.96944427  127.56600189    0.94000000    2.67000008
   15.97249985  128.05099487    0.94000000    2.66000009
   15.97583294  124.94200134    0.92000002    2.66000009
   15.97916603  125.88099670    0.92000002    2.66000009
   15.98138809  118.31999969    0.92000002    2.66000009
   15.98277760  127.25000000    0.92000002    2.66000009
   15.98611164  122.58300018    0.92000002    2.66000009
   15.98916721  127.41500092    0.92000002    2.66000009
   15.99250031  130.94599915    0.92000002    2.66000009
   15.99583340  127.79000092    0.92000002    2.66000009
   16.00166702  127.79000092    0.92000002    2.66000009
   16.00583267  122.87100220    0.92000002    2.66000009
   16.00888824  124.50199890    0.92000002    2.66000009
   16.01222229  133.34899902    0.94000000    2.66000009
   16.01472282  128.36099243    0.95999998    2.66000009
   16.01583290  120.12400055    0.95999998    2.66000009
   16.01916695  123.82499695    0.94000000    2.66000009
   16.02222252  123.45700073    0.94000000    2.66000009
   16.02555466  128.36300659    0.94000000    2.66000009
   16.02888870  133.73199463    0.95999998    2.66000009
   16.03194427  126.38600159    0.98000002    2.67000008
   16.03527641  126.93099976    0.98000002    2.67000008
   16.03833199  119.08200073    0.98000002    2.67000008
   16.04444313  119.08200073    0.95999998    2.67000008
   16.04861069  126.54000092    0.94000000    2.67000008
   16.05194283  127.88300323    0.94000000    2.66000009
   16.05499840  116.41600037    0.95999998    2.66000009
   16.05833244  118.94699860    0.95999998    2.67000008
   16.06138802  127.33000183    0.95999998    2.66000009
   16.06472206  130.01899719    0.95999998    2.67000008
   16.06805611  121.98799896    0.95999998    2.66000009
   16.07111168  123.26599884    0.95999998    2.66000009
   16.07444572  119.64499664    0.94000000    2.66000009
   16.07777786  123.74800110    0.92000002    2.67000008
   16.08083344  126.20800018    0.92000002    2.67000008
   16.08139038  122.01300049    0.92000002    2.67000008
   16.08722305  122.01300049    0.92000002    2.66000009
   16.09138870  123.30899811    0.92000002    2.66000009
   16.09472275  123.66200256    0.92000002    2.66000009
   16.09777832  122.27300262    0.92000002    2.66000009
   16.10111237  126.69499969    0.92000002    2.67000008
   16.10444450  120.59400177    0.92000002    2.67000008
   16.10750008  129.62500000    0.89999998    2.67000008
   16.11083412  131.99099731    0.89999998    2.67000008
   16.11416626  136.42999268    0.89999998    2.66000009
   16.11499977  127.88999939    0.89999998    2.66000009
   16.11750031  124.41799927    0.89999998    2.66000009
   16.12083435  122.74500275    0.92000002    2.66000009
   16.12388992  125.89800262    0.89999998    2.67000008
   16.13027763  125.89800262    0.89999998    2.66000009
   16.13444519  125.88200378    0.89999998    2.67000008
   16.13750076  119.05599976    0.89999998    2.66000009
   16.14083290  117.58200073    0.89999998    2.66000009
   16.14388847  121.27700043    0.88000000    2.67000008
   16.14722252  123.54799652    0.88000000    2.66000009
   16.14833260  122.63700104    0.88000000    2.66000009
   16.15083313  120.52200317    0.89999998    2.66000009
   16.15416718  126.94899750    0.89999998    2.66000009
   16.15749931  120.59400177    0.89999998    2.66000009
   16.16055489  127.66300201    0.92000002    2.66000009
   16.16388893  117.14499664    0.89999998    2.66000009
   16.16694450  127.80899811    0.92000002    2.67000008
   16.17305565  127.80899811    0.92000002    2.67000008
   16.17722130  124.38700104    0.92000002    2.66000009
   16.18027687  126.90000153    0.92000002    2.67000008
   16.18166542  126.17800140    0.92000002    2.66000009
   16.18388748  130.55000305    0.92000002    2.66000009
   16.18722153  124.01599884    0.92000002    2.66000009
   16.19027710  121.75800323    0.92000002    2.67000008
   16.19361115  134.20199585    0.89999998    2.66000009
   16.19694328  127.26799774    0.92000002    2.67000008
   16.20000076  122.42400360    0.89999998    2.67000008
   16.20333481  123.65799713    0.89999998    2.66000009
   16.20666695  126.43199921    0.89999998    2.66000009
   16.20972252  127.88300323    0.89999998    2.66000009
   16.21583366  127.88300323    0.89999998    2.67000008
   16.22000122  128.83500671    0.89999998    2.66000009
   16.22333336  121.70600128    0.92000002    2.67000008
   16.22638893  120.76799774    0.89999998    2.66000009
   16.22972298  127.30000305    0.89999998    2.66000009
   16.23305511  126.17400360    0.89999998    2.66000009
   16.23638916  119.87400055    0.89999998    2.67000008
   16.23944473  125.74800110    0.89999998    2.66000009
   16.24277878  122.13400269    0.89999998    2.66000009
   16.24583435  125.75599670    0.92000002    2.67000008
   16.24833298  118.23300171    0.89999998    2.67000008
   16.24944496  124.87300110    0.89999998    2.66000009
   16.25277710  132.38200378    0.89999998    2.66000009
   16.25861168  132.38200378    0.89999998    2.66000009
   16.26277733  126.03900146    0.89999998    2.66000009
   16.26611137  124.91100311    0.88000000    2.66000009
   16.26916695  127.66699982    0.88000000    2.67000008
   16.27249908  130.72099304    0.88000000    2.67000008
   16.27583313  132.42799377    0.88000000    2.67000008
   16.27916718  133.83900452    0.88000000    2.67000008
   16.28166580  124.91300201    0.88000000    2.67000008
   16.28249931  125.83000183    0.88000000    2.67000008
   16.28583336  128.05400085    0.88000000    2.67000008
   16.28916550  127.25000000    0.88000000    2.67000008
   16.29222107  125.70200348    0.88000000    2.66000009
   16.29555511  122.30500031    0.88000000    2.67000008
   16.30166626  122.30500031    0.89999998    2.67000008
   16.30555534  129.17100525    0.89999998    2.67000008
   16.30888748  130.29400635    0.88000000    2.66000009
   16.31222153  137.03399658    0.88000000    2.67000008
   16.31499863  130.42399597    0.88000000    2.66000009
   16.31583214  122.42700195    0.88000000    2.66000009
   16.31916809  123.10700226    0.89999998    2.66000009
   16.32250023  127.61100006    0.89999998    2.67000008
   16.32555580  129.73300171    0.89999998    2.66000009
   16.32888985  128.24499512    0.89999998    2.67000008
   16.33194542  126.21900177    0.88000000    2.67000008
   16.33527756  125.21399689    0.88000000    2.67000008
   16.33861160  117.81700134    0.88000000    2.66000009
   16.34444427  117.81700134    0.88000000    2.67000008
   16.34861183  134.50500488    0.88000000    2.67000008
   16.35166740  132.05099487    0.88000000    2.67000008
   16.35499954  130.54499817    0.88000000    2.67000008
   16.35833359  122.12899780    0.88000000    2.67000008
   16.36138916  128.08500671    0.88000000    2.66000009
   16.36472321  126.42199707    0.88000000    2.66000009
   16.36777878  126.02300262    0.88000000    2.66000009
   16.37111092  132.19099426    0.88000000    2.67000008
   16.37444496  134.33599854    0.86000001    2.67000008
   16.37750053  131.01100159    0.88000000    2.66000009
   16.38083267  135.89300537    0.88000000    2.67000008
   16.38166618  133.62699890    0.88000000    2.67000008
   16.38722229  133.62699890    0.88000000    2.67000008
   16.39138794  132.76800537    0.88000000    2.69000006
   16.39472198  125.93499756    0.88000000    2.67000008
   16.39777756  128.62100220    0.88000000    2.67000008
   16.40111160  134.69099426    0.88000000    2.67000008
   16.40416718  124.46900177    0.88000000    2.66000009
   16.40749931  128.88699341    0.88000000    2.66000009
   16.41083336  120.39099884    0.88000000    2.67000008
   16.41388893  123.90000153    0.88000000    2.67000008
   16.41499901  125.68800354    0.88000000    2.67000008
   16.41749954  133.64500427    0.88000000    2.67000008
   16.42083359  135.78300476    0.86000001    2.67000008
   16.42416573  129.38200378    0.88000000    2.67000008
   16.43000031  129.38200378    0.86000001    2.67000008
   16.43416595  124.31700134    0.88000000    2.67000008
   16.43750000  125.80999756    0.88000000    2.67000008
   16.44055557  131.95899963    0.88000000    2.67000008
   16.44388771  130.74200439    0.86000001    2.67000008
   16.44722176  124.91699982    0.86000001    2.67000008
   16.44833183  120.79599762    0.86000001    2.67000008
   16.45055580  113.55799866    0.86000001    2.67000008
   16.45388985  123.50900269    0.86000001    2.67000008
   16.45722389  125.40899658    0.86000001    2.66000009
   16.46027946  125.98999786    0.86000001    2.66000009
   16.46361160  125.91100311    0.86000001    2.66000009
   16.46666718  126.64800262    0.86000001    2.67000008
   16.47305679  126.64800262    0.86000001    2.67000008
   16.47722244  128.16799927    0.86000001    2.67000008
   16.48027802  132.87199402    0.86000001    2.67000008
   16.48166656  135.12199402    0.86000001    2.67000008
   16.48388863  120.97200012    0.86000001    2.67000008
   16.48722267  131.30400085    0.86000001    2.67000008
   16.49055672  130.49600220    0.86000001    2.66000009
   16.49361229  122.19999695    0.86000001    2.67000008
   16.49694443  131.69400024    0.88000000    2.66000009
   16.50000000  126.36299896    0.86000001    2.67000008
   16.50333405  130.89900208    0.86000001    2.67000008
   16.50666618  124.63500214    0.86000001    2.67000008
   16.50972176  131.73800659    0.86000001    2.67000008
   16.51583290  131.73800659    0.88000000    2.67000008
   16.52000046  132.68200684    0.88000000    2.67000008
   16.52305603  121.01599884    0.88000000    2.66000009
   16.52638817  126.43499756    0.88000000    2.67000008
   16.52972221  122.23699951    0.88000000    2.67000008
   16.53277779  128.29100037    0.86000001    2.67000008
   16.53610992  124.94499969    0.86000001    2.67000008
   16.53944397  120.59899902    0.88000000    2.67000008
   16.54249954  125.09600067    0.88000000    2.67000008
   16.54583359  125.42700195    0.86000001    2.67000008
   16.54833221  126.88700104    0.86000001    2.69000006
   16.54944420  131.28399658    0.86000001    2.69000006
   16.55277634  134.07299805    0.86000001    2.66000009
   16.55861092  134.07299805    0.86000001    2.67000008
   16.56277657  127.20700073    0.86000001    2.67000008
   16.56611061  136.16000366    0.83999997    2.67000008
   16.56916809  132.23100281    0.81999999    2.67000008
   16.57250023  127.30200195    0.81999999    2.66000009
   16.57555580  120.83300018    0.83999997    2.67000008
   16.57888985  128.36199951    0.81999999    2.67000008
   16.58166695  125.38800049    0.81999999    2.67000008
   16.58250046  121.62400055    0.83999997    2.67000008
   16.58583450  128.67799377    0.83999997    2.67000008
   16.58916664  130.06599426    0.83999997    2.67000008
   16.59222221  132.36799622    0.83999997    2.67000008
   16.59555626  128.04100037    0.83999997    2.67000008
   16.60138893  128.04100037    0.83999997    2.67000008
   16.60555649  126.59100342    0.88000000    2.67000008
   16.60888863  125.28099823    0.88000000    2.67000008
   16.61222267  122.17700195    0.88000000    2.67000008
   16.61499977  131.61900330    0.88000000    2.67000008
   16.61555672  130.13299561    0.88000000    2.67000008
   16.61888885  123.98000336    0.88000000    2.67000008
   16.62222290  128.55900574    0.88000000    2.67000008
   16.62527847  121.04199982    0.89999998    2.67000008
   16.62861061  125.79499817    0.89999998    2.67000008
   16.63194466  128.16299438    0.88000000    2.67000008
   16.63500023  127.17600250    0.88000000    2.67000008
   16.63833237  124.51699829    0.88000000    2.67000008
   16.64444351  124.51699829    0.88000000    2.67000008
   16.64833260  119.02600098    0.86000001    2.67000008
   16.65166664  122.16300201    0.86000001    2.67000008
   16.65499878  128.78799438    0.83999997    2.67000008
   16.65805435  134.81900024    0.83999997    2.67000008
   16.66138840  124.67700195    0.83999997    2.69000006
   16.66472244  132.11599731    0.83999997    2.67000008
   16.66777802  130.25399780    0.83999997    2.67000008
   16.67111015  126.18800354    0.83999997    2.66000009
   16.67416573  131.33299255    0.83999997    2.67000008
   16.67749977  130.01300049    0.83999997    2.66000009
   16.68083191  127.06400299    0.86000001    2.67000008
   16.68166542  116.90899658    0.83999997    2.67000008
   16.70222282  116.90899658    0.86000001    2.67000008
   16.70639038  122.88600159    0.83999997    2.67000008
   16.70972252  122.67400360    0.83999997    2.67000008
   16.71277809  119.66500092    0.83999997    2.67000008
   16.71500015  118.62899780    0.83999997    2.66000009
   16.71638870  120.77600098    0.83999997    2.66000009
   16.71972275  121.88200378    0.83999997    2.67000008
   16.72305679  120.51100159    0.83999997    2.67000008
   16.72611237  118.21499634    0.86000001    2.66000009
   16.72944450  122.03600311    0.86000001    2.67000008
   16.73277855  122.87799835    0.86000001    2.67000008
   16.73583412  119.97000122    0.83999997    2.67000008
   16.73916626  122.96700287    0.86000001    2.67000008
   16.74500084  122.96700287    0.83999997    2.67000008
   16.74916649  123.45200348    0.86000001    2.67000008
   16.75250053  126.33300018    0.83999997    2.66000009
   16.75555611  126.61100006    0.83999997    2.67000008
   16.75888824  124.48300171    0.83999997    2.67000008
   16.76222229  122.37599945    0.81999999    2.67000008
   16.76527786  117.74099731    0.83999997    2.67000008
   16.76861000  120.83100128    0.83999997    2.67000008
   16.77194405  123.75900269    0.81999999    2.67000008
   16.77499962  122.95200348    0.81999999    2.67000008
   16.77833366  120.29599762    0.83999997    2.67000008
   16.78138924  125.51799774    0.83999997    2.67000008
   16.78194427  121.53099823    0.83999997    2.67000008
   16.78777695  121.53099823    0.83999997    2.67000008
   16.79194450  129.00199890    0.81999999    2.67000008
   16.79527664  127.51999664    0.81999999    2.67000008
   16.79861069  118.90899658    0.81999999    2.67000008
   16.80166626  123.45600128    0.81999999    2.67000008
   16.80499840  121.45300293    0.86000001    2.67000008
   16.80805397  119.09899902    0.83999997    2.67000008
   16.81138802  124.55200195    0.86000001    2.66000009
   16.81472206  120.05899811    0.86000001    2.67000008
   16.81527710  120.25599670    0.86000001    2.67000008
   16.81833458  118.12400055    0.86000001    2.66000009
   16.82166672  123.97000122    0.86000001    2.67000008
   16.82472229  116.19799805    0.88000000    2.66000009
   16.83083344  116.19799805    0.89999998    2.67000008
   16.83500099  119.09500122    0.92000002    2.67000008
   16.83805656  111.81600189    0.92000002    2.67000008
   16.84138870  119.76399994    0.92000002    2.67000008
   16.84444427  117.49500275    0.92000002    2.67000008
   16.84777832  121.21900177    0.92000002    2.66000009
   16.84861183  123.88200378    0.92000002    2.66000009
   16.85138893  120.85099792    0.89999998    2.67000008
   16.85472298  125.94200134    0.89999998    2.67000008
   16.85777855  121.61000061    0.88000000    2.67000008
   16.86111069  123.87500000    0.88000000    2.67000008
   16.86444473  124.68199921    0.89999998    2.66000009
   16.86777878  118.60800171    0.94000000    2.67000008
   16.87361145  118.60800171    0.92000002    2.67000008
   16.87777710  125.08699799    0.89999998    2.66000009
   16.88083267  121.47499847    0.89999998    2.67000008
   16.88194466  121.26799774    0.89999998    2.66000009
   16.88444519  120.52400208    0.89999998    2.66000009
   16.88777733  120.71900177    0.89999998    2.67000008
   16.89083290  122.07299805    0.88000000    2.67000008
   16.89416695  120.46700287    0.88000000    2.67000008
   16.89749908  123.55699921    0.89999998    2.67000008
   16.90055466  117.09200287    0.89999998    2.67000008
   16.90388870  122.10500336    0.89999998    2.67000008
   16.90694427  125.42900085    0.88000000    2.67000008
   16.91027832  122.79799652    0.88000000    2.66000009
   16.91638756  122.79799652    0.89999998    2.67000008
   16.92055511  116.61799622    0.89999998    2.67000008
   16.92388916  120.57599640    0.89999998    2.66000009
   16.92694473  125.76000214    0.89999998    2.67000008
   16.93027687  126.87500000    0.89999998    2.67000008
   16.93361092  122.18499756    0.89999998    2.66000009
   16.93666649  120.08300018    0.92000002    2.67000008
   16.93999863  122.74900055    0.92000002    2.67000008
   16.94305420  124.11399841    0.92000002    2.67000008
   16.94638824  125.34200287    0.92000002    2.67000008
   16.94861031  120.54000092    0.92000002    2.67000008
   16.95000076  124.14199829    0.92000002    2.67000008
   16.95333481  119.85299683    0.92000002    2.66000009
   16.95916748  119.85299683    0.92000002    2.67000008
   16.96333504  124.84500122    0.95999998    2.67000008
   16.96666718  125.36299896    1.07000005    2.67000008
   16.97000122  129.85499573    1.03999996    2.67000008
   16.97305679  127.59400177    1.03999996    2.67000008
   16.97638893  133.11500549    1.01999998    2.66000009
   16.97944450  130.46000671    1.00000000    2.67000008
   16.98194504  124.20800018    1.00000000    2.67000008
   16.98305511  124.50399780    0.95999998    2.67000008
   16.98638916  129.38200378    0.92000002    2.67000008
   16.98944473  122.20300293    0.92000002    2.67000008
   16.99277878  125.82800293    0.92000002    2.67000008
   16.99611092  123.12799835    0.92000002    2.67000008
   17.00222206  123.12799835    0.89999998    2.67000008
   17.00638962  122.76100159    0.89999998    2.67000008
   17.00944519  126.53399658    0.89999998    2.67000008
   17.01277733  126.97899628    0.89999998    2.67000008
   17.01527786  127.92199707    0.89999998    2.67000008
   17.01638794  130.57600403    0.89999998    2.67000008
   17.01972198  119.68299866    0.89999998    2.67000008
   17.02277756  131.33099365    0.89999998    2.67000008
   17.02611160  126.23300171    0.88000000    2.67000008
   17.02944374  125.95500183    0.88000000    2.67000008
   17.03249931  131.63200378    0.86000001    2.67000008
   17.03583336  128.79200745    0.88000000    2.67000008
   17.03916550  124.06199646    0.88000000    2.67000008
   17.04500008  124.06199646    0.88000000    2.67000008
   17.04916573  126.78299713    0.88000000    2.67000008
   17.05222130  130.02699280    0.88000000    2.67000008
   17.05555534  125.82399750    0.88000000    2.67000008
   17.05888748  127.15599823    0.88000000    2.66000009
   17.06194305  135.02799988    0.88000000    2.67000008
   17.06527710  134.94000244    0.88000000    2.67000008
   17.06861115  126.15000153    0.88000000    2.66000009
   17.07194519  121.07299805    0.88000000    2.66000009
   17.07500076  130.63499451    0.88000000    2.67000008
   17.07833481  129.48399353    0.88000000    2.66000009
   17.08166695  121.12799835    0.88000000    2.67000008
   17.08194542  127.04699707    0.88000000    2.67000008
   17.08777809  127.04699707    0.88000000    2.67000008
   17.09194565  118.12599945    0.88000000    2.67000008
   17.09527779  123.85600281    0.88000000    2.67000008
   17.09833336  132.00300598    0.88000000    2.67000008
   17.10166740  124.88999939    0.88000000    2.66000009
   17.10499954  126.23200226    0.88000000    2.67000008
   17.10805511  120.48899841    0.88000000    2.67000008
   17.11138916  126.86499786    0.88000000    2.67000008
   17.11472321  118.77600098    0.88000000    2.66000009
   17.11555672  123.76499939    0.89999998    2.67000008
   17.11805534  125.71800232    0.89999998    2.67000008
   17.12138939  128.57299805    0.89999998    2.66000009
   17.12472153  127.19699860    0.92000002    2.66000009
   17.13055611  127.19699860    0.94000000    2.66000009
   17.13472176  121.75800323    0.92000002    2.66000009
   17.13805580  124.05599976    0.92000002    2.66000009
   17.14111137  126.17099762    0.94000000    2.66000009
   17.14444351  121.46900177    0.94000000    2.67000008
   17.14777756  120.08599854    0.94000000    2.66000009
   17.14861107  132.37600708    0.94000000    2.66000009
   17.15138817  132.88499451    0.92000002    2.67000008
   17.15472221  123.26899719    0.94000000    2.67000008
   17.15777779  125.49800110    0.92000002    2.66000009
   17.16110992  123.92400360    0.92000002    2.66000009
   17.16444397  126.51999664    0.94000000    2.67000008
   17.16749954  126.99500275    0.94000000    2.66000009
   17.17361069  126.99500275    0.94000000    2.67000008
   17.17749977  117.89399719    0.94000000    2.67000008
   17.18083191  125.54900360    0.94000000    2.67000008
   17.18222237  126.78399658    0.92000002    2.67000008
   17.18444443  119.02999878    0.92000002    2.66000009
   17.18777657  122.91400146    0.92000002    2.67000008
   17.19083214  116.66000366    0.92000002    2.66000009
   17.19416618  122.27700043    0.92000002    2.67000008
   17.19749832  124.09700012    0.92000002    2.67000008
   17.20083427  126.78500366    0.89999998    2.67000008
   17.20388985  126.66699982    0.89999998    2.66000009
   17.20722389  126.87699890    0.89999998    2.67000008
   17.21055603  126.84799957    0.89999998    2.67000008
   17.21638870  126.84799957    0.89999998    2.67000008
   17.22055626  129.14799500    0.89999998    2.67000008
   17.22361183  143.84700012    0.89999998    2.66000009
   17.22694588  140.16700745    0.89999998    2.66000009
   17.23027802  126.03099823    0.89999998    2.67000008
   17.23333359  119.93299866    0.89999998    2.67000008
   17.23666763  120.44000244    0.89999998    2.66000009
   17.23999977  126.79499817    0.92000002    2.67000008
   17.24305534  129.81399536    0.92000002    2.66000009
   17.24638939  130.46299744    0.94000000    2.66000009
   17.24888992  137.09700012    0.94000000    2.66000009
   17.25000000  122.41200256    0.94000000    2.66000009
   17.25333405  136.21099854    0.94000000    2.66000009
   17.25916672  136.21099854    0.94000000    2.67000008
   17.26333427  130.34599304    0.94000000    2.67000008
   17.26666641  128.20799255    0.94000000    2.66000009
   17.26972198  137.59399414    0.94000000    2.67000008
   17.27305603  132.89399719    0.94000000    2.66000009
   17.27638817  127.11199951    0.94000000    2.66000009
   17.27944374  131.54600525    0.94000000    2.67000008
   17.28222275  141.21000671    0.94000000    2.66000009
   17.28305435  130.74400330    0.94000000    2.66000009
   17.28638840  134.34599304    0.94000000    2.67000008
   17.28972244  125.95800018    0.94000000    2.67000008
   17.29277802  122.30699921    0.94000000    2.67000008
   17.29611015  122.05200195    0.94000000    2.66000009
   17.30194283  122.05200195    0.94000000    2.66000009
   17.30611038  128.95500183    0.94000000    2.66000009
   17.30944443  135.81500244    0.95999998    2.66000009
   17.31277657  119.51399994    0.95999998    2.66000009
   17.31555557  119.08999634    0.94000000    2.66000009
   17.31611061  119.82399750    0.94000000    2.66000009
   17.31944466  123.56500244    0.95999998    2.66000009
   17.32250023  124.07299805    0.95999998    2.67000008
   17.32583427  119.20899963    0.94000000    2.67000008
   17.32916832  123.72599792    0.94000000    2.67000008
   17.33222389  119.23999786    0.95999998    2.67000008
   17.33555603  128.82899475    0.94000000    2.66000009
   17.33889008  126.98999786    0.94000000    2.66000009
   17.34500122  126.98999786    0.95999998    2.66000009
   17.34916687  120.69899750    0.95999998    2.67000008
   17.35222244  124.21600342    0.95999998    2.66000009
   17.35555649  122.28199768    0.95999998    2.66000009
   17.35888863  116.60900116    0.98000002    2.67000008
   17.36194420  118.39900208    0.98000002    2.67000008
   17.36527824  126.67800140    0.98000002    2.66000009
   17.36833382  115.37799835    0.98000002    2.67000008
   17.37166595  115.80200195    0.98000002    2.66000009
   17.37500000  122.56300354    1.00000000    2.66000009
   17.37805557  122.34799957    1.00000000    2.66000009
   17.38138962  125.11000061    1.00000000    2.66000009
   17.38222313  116.51399994    1.00000000    2.66000009
   17.38777733  116.51399994    1.00000000    2.66000009
   17.39194489  120.95200348    1.00000000    2.66000009
   17.39500046  116.87799835    0.98000002    2.66000009
   17.39833260  123.10900116    1.00000000    2.66000009
   17.40166664  120.93199921    1.00000000    2.66000009
   17.40472221  121.26100159    1.00000000    2.66000009
   17.40805435  120.83399963    1.00000000    2.66000009
   17.41138840  119.11499786    1.01999998    2.66000009
   17.41444397  129.13099670    1.05999994    2.66000009
   17.41555595  121.35700226    1.05999994    2.66000009
   17.41805458  122.59200287    1.11000001    2.66000009
   17.42138863  117.83899689    1.13000000    2.64000010
   17.42444420  123.31600189    1.09000003    2.66000009
   17.43055534  123.31600189    1.07000005    2.66000009
   17.43472099  121.25199890    1.07000005    2.64000010
   17.43805504  121.80000305    1.05999994    2.66000009
   17.44111061  124.74199677    1.03999996    2.66000009
   17.44444275  112.80000305    1.03999996    2.66000009
   17.44749832  117.35099792    1.03999996    2.64000010
   17.44888878  116.32800293    1.03999996    2.66000009
   17.45111275  121.77600098    1.01999998    2.66000009
   17.45444489  111.90200043    1.01999998    2.66000009
   17.45750046  122.63099670    1.01999998    2.66000009
   17.46083450  124.50099945    1.01999998    2.66000009
   17.46416664  120.07299805    1.01999998    2.67000008
   17.46722221  118.92099762    1.01999998    2.67000008
   17.47333336  118.92099762    1.01999998    2.66000009
   17.47750092  119.31999969    1.01999998    2.66000009
   17.48083305  119.60399628    1.00000000    2.66000009
   17.48222351  121.83599854    1.00000000    2.66000009
   17.48444557  123.79499817    1.00000000    2.66000009
   17.48777771  126.88999939    0.98000002    2.66000009
   17.49111176  131.07899475    1.00000000    2.66000009
   17.49416733  123.80300140    1.00000000    2.66000009
   17.49749947  120.86799622    0.98000002    2.66000009
   17.50055504  124.86499786    0.98000002    2.66000009
   17.50388908  119.26200104    0.98000002    2.66000009
   17.50722313  127.21099854    0.98000002    2.66000009
   17.51027870  124.89600372    0.98000002    2.66000009
   17.51638794  124.89600372    1.00000000    2.66000009
   17.52027702  121.56600189    1.00000000    2.66000009
   17.52361107  116.94499969    0.98000002    2.66000009
   17.52694511  124.98300171    0.95999998    2.66000009
   17.53000069  122.52600098    0.95999998    2.67000008
   17.53333282  119.97899628    0.95999998    2.66000009
   17.53666687  122.80500031    0.95999998    2.66000009
   17.53999901  117.00199890    0.95999998    2.66000009
   17.54333305  130.60200500    0.94000000    2.67000008
   17.54638863  120.74500275    0.94000000    2.67000008
   17.54888916  120.08799744    0.94000000    2.67000008
   17.54999924  118.86100006    0.92000002    2.66000009
   17.55333328  115.92800140    0.92000002    2.66000009
   17.55916595  115.92800140    0.92000002    2.66000009
   17.56333351  117.51100159    0.92000002    2.66000009
   17.56638718  124.36000061    0.92000002    2.66000009
   17.56972313  122.56199646    0.94000000    2.66000009
   17.57305717  125.09700012    0.94000000    2.66000009
   17.57611275  127.65299988    0.94000000    2.66000009
   17.57944489  119.80000305    0.92000002    2.66000009
   17.58222389  123.25099945    0.92000002    2.64000010
   17.58305550  128.28500366    0.92000002    2.66000009
   17.58638954  124.76899719    0.92000002    2.66000009
   17.58972359  120.27400208    0.92000002    2.66000009
   17.59277916  117.99800110    0.89999998    2.66000009
   17.59611130  119.61699677    0.92000002    2.66000009
   17.60194397  119.61699677    0.88000000    2.66000009
   17.60611153  123.00000000    0.88000000    2.67000008
   17.60944557  119.89499664    0.88000000    2.66000009
   17.61250114  121.26100159    0.86000001    2.66000009
   17.61555672  120.80200195    0.86000001    2.66000009
   17.61611176  123.38200378    0.86000001    2.67000008
   17.61944389  114.12899780    0.86000001    2.67000008
   17.62277794  118.49800110    0.86000001    2.66000009
   17.62583351  118.00299835    0.86000001    2.66000009
   17.62916756  121.45999908    0.86000001    2.66000009
   17.63249969  122.47599792    0.86000001    2.66000009
   17.63555527  120.13600159    0.86000001    2.67000008
   17.63888931  114.76200104    0.86000001    2.67000008
   17.64472198  114.76200104    0.83999997    2.66000009
   17.64888954  121.73400116    0.86000001    2.66000009
   17.65222168  113.57599640    0.86000001    2.66000009
   17.65527725  118.40799713    0.88000000    2.66000009
   17.65861130  119.02799988    0.86000001    2.66000009
   17.66194344  120.18199921    0.86000001    2.67000008
   17.66499901  120.43299866    0.89999998    2.66000009
   17.66833305  118.37799835    0.89999998    2.66000009
   17.67166519  122.79799652    0.89999998    2.66000009
   17.67472076  119.85500336    0.92000002    2.66000009
   17.67805481  118.84799957    0.88000000    2.66000009
   17.68138885  127.12000275    0.88000000    2.66000009
   17.68222237  118.46700287    0.89999998    2.66000009
   17.68777657  118.46700287    0.89999998    2.66000009
   17.69194412  116.22599792    0.89999998    2.66000009
   17.69527626  124.28399658    0.89999998    2.66000009
   17.69833183  122.03399658    0.89999998    2.66000009
   17.71583366  121.65399933    0.89999998    2.66000009
   17.71833420  117.42800140    0.89999998    2.66000009
   17.72138977  127.81400299    0.89999998    2.66000009
   17.72472191  122.51599884    0.89999998    2.66000009
   17.73083305  122.51599884    0.89999998    2.66000009
   17.73472214  123.50599670    0.89999998    2.66000009
   17.73805618  116.51100159    0.89999998    2.66000009
   17.74138832  126.38500214    0.89999998    2.66000009
   17.74444389  120.90599823    0.88000000    2.66000009
   17.74777794  124.25599670    0.88000000    2.66000009
   17.74916649  124.98699951    0.88000000    2.66000009
   17.75166702  117.19300079    0.88000000    2.66000009
   17.75472260  125.43599701    0.88000000    2.66000009
   17.75805473  122.90499878    0.88000000    2.66000009
   17.76111031  125.34300232    0.88000000    2.66000009
   17.76444435  124.30599976    0.88000000    2.66000009
   17.76777840  124.10600281    0.88000000    2.66000009
   17.77361107  124.10600281    0.88000000    2.64000010
   17.77777672  122.28399658    0.88000000    2.66000009
   17.78111076  118.13300323    0.88000000    2.66000009
   17.78249931  122.66400146    0.88000000    2.66000009
   17.78499985  124.11299896    0.88000000    2.66000009
   17.78805542  121.59999847    0.88000000    2.64000010
   17.79138756  124.19000244    0.86000001    2.66000009
   17.79444313  118.43499756    0.86000001    2.66000009
   17.79777718  123.34300232    0.86000001    2.66000009
   17.80111122  126.67099762    0.83999997    2.66000009
   17.80416679  128.52200317    0.83999997    2.66000009
   17.80749893  117.30100250    0.81999999    2.66000009
   17.81083298  121.29699707    0.81999999    2.66000009
   17.81638718  121.29699707    0.81999999    2.64000010
   17.82055664  123.64199829    0.81999999    2.66000009
   17.82389069  127.91999817    0.81999999    2.66000009
   17.82694626  125.44200134    0.81999999    2.66000009
   17.83027840  122.01100159    0.81999999    2.66000009
   17.83333397  132.33099365    0.81999999    2.64000010
   17.83666801  119.88099670    0.81999999    2.66000009
   17.84000015  120.60800171    0.81999999    2.66000009
   17.84305573  117.05100250    0.83999997    2.66000009
   17.84638977  123.26100159    0.81999999    2.64000010
   17.84916687  118.49199677    0.81999999    2.66000009
   17.85000038  123.73000336    0.81999999    2.66000009
   17.85305595  114.56999969    0.81999999    2.66000009
   17.85916710  114.56999969    0.81999999    2.66000009
   17.86333466  119.02100372    0.81999999    2.66000009
   17.86666679  127.20099640    0.81999999    2.66000009
   17.87000084  119.84899902    0.81999999    2.66000009
   17.87305641  116.00399780    0.81999999    2.66000009
   17.87638855  117.36499786    0.80000001    2.66000009
   17.87972260  120.13099670    0.81999999    2.66000009
   17.88249969  116.60500336    0.80000001    2.64000010
   17.88333321  117.59999847    0.81999999    2.66000009
   17.88638878  124.28900146    0.81999999    2.66000009
   17.88972282  122.80899811    0.80000001    2.66000009
   17.89305496  120.26100159    0.81999999    2.66000009
   17.89611053  125.05799866    0.80000001    2.66000009
   17.90222168  125.05799866    0.80000001    2.66000009
   17.90611076  117.62699890    0.80000001    2.66000009
   17.90944481  121.46600342    0.80000001    2.66000009
   17.91277695  121.17700195    0.81999999    2.66000009
   17.91583252  120.54399872    0.80000001    2.64000010
   17.91638756  122.39299774    0.80000001    2.64000010
   17.91944313  122.68699646    0.80000001    2.66000009
   17.92277718  118.00099945    0.80000001    2.66000009
   17.92583275  118.57099915    0.80000001    2.66000009
   17.92916679  128.09100342    0.81999999    2.66000009
   17.93249893  128.38900757    0.81999999    2.66000009
   17.93555450  115.11499786    0.81999999    2.64000010
   17.93888855  120.93599701    0.81999999    2.66000009
   17.94499969  120.93599701    0.81999999    2.66000009
   17.94916534  117.51100159    0.81999999    2.64000010
   17.94972038  120.87599945    0.83999997    2.64000010
   17.95277786  116.01000214    0.83999997    2.64000010
   17.95611191  121.68399811    0.83999997    2.66000009
   17.95916748  122.25599670    0.83999997    2.66000009
   17.96250153  118.68900299    0.83999997    2.66000009
   17.96583366  119.02600098    0.83999997    2.64000010
   17.96888924  124.15699768    0.81999999    2.64000010
   17.97222328  118.21199799    0.81999999    2.64000010
   17.97555542  123.30899811    0.81999999    2.64000010
   17.97861099  116.71900177    0.81999999    2.66000009
   17.98194504  121.52899933    0.81999999    2.66000009
   17.98250008  120.48799896    0.81999999    2.66000009
   17.98777771  120.48799896    0.81999999    2.66000009
   17.99194527  118.40000153    0.81999999    2.66000009
   17.99500084  122.37500000    0.80000001    2.64000010
   17.99833298  116.41100311    0.81999999    2.64000010
   18.00166702  118.74299622    0.81999999    2.66000009
   18.00472260  112.61799622    0.80000001    2.64000010
   18.00805473  114.94400024    0.80000001    2.64000010
   18.01138878  120.42400360    0.80000001    2.66000009
   18.01444435  121.93000031    0.80000001    2.64000010
   18.01583290  116.81199646    0.80000001    2.64000010
   18.01833344  119.49900055    0.80000001    2.66000009
   18.02138901  115.40499878    0.80000001    2.64000010
   18.02472115  120.79599762    0.81999999    2.64000010
   18.03055573  120.79599762    0.81999999    2.66000009
   18.03472137  123.06600189    0.80000001    2.66000009
   18.03805542  117.05200195    0.81999999    2.66000009
   18.04111099  119.08200073    0.81999999    2.64000010
   18.04444313  115.19999695    0.81999999    2.66000009
   18.04777718  119.16300201    0.81999999    2.64000010
   18.04916573  116.95200348    0.81999999    2.64000010
   18.05138779  125.80500031    0.81999999    2.64000010
   18.05444336  126.95899963    0.83999997    2.64000010
   18.05777740  125.61799622    0.81999999    2.64000010
   18.06110954  117.89700317    0.83999997    2.64000010
   18.06416512  119.31700134    0.81999999    2.64000010
   18.06750107  119.51699829    0.81999999    2.64000010
   18.07361221  119.51699829    0.81999999    2.66000009
   18.07750130  122.23100281    0.81999999    2.66000009
   18.08083344  119.34700012    0.81999999    2.66000009
   18.08250046  121.07399750    0.81999999    2.64000010
   18.08444595  119.66300201    0.81999999    2.64000010
   18.08750153  121.40200043    0.83999997    2.64000010
   18.09083366  117.25000000    0.80000001    2.64000010
   18.09416771  118.87599945    0.79000002    2.66000009
   18.09749985  116.75700378    0.76999998    2.66000009
   18.10055542  117.50199890    0.76999998    2.64000010
   18.10388947  117.10600281    0.76999998    2.66000009
   18.10722351  116.82299805    0.75000000    2.64000010
   18.11027908  116.01799774    0.76999998    2.64000010
   18.11638832  116.01799774    0.76999998    2.66000009
   18.12055588  117.25900269    0.76999998    2.64000010
   18.12388992  119.62899780    0.76999998    2.64000010
   18.12694550  119.58499908    0.79000002    2.64000010
   18.13027763  118.48400116    0.79000002    2.64000010
   18.13361168  121.02999878    0.80000001    2.66000009
   18.13666725  121.89099884    0.79000002    2.64000010
   18.13999939  119.87400055    0.80000001    2.64000010
   18.14333344  118.71900177    0.80000001    2.64000010
   18.14638901  120.00199890    0.79000002    2.64000010
   18.14916611  120.68399811    0.79000002    2.66000009
   18.15027809  119.13800049    0.79000002    2.66000009
   18.15333366  119.57099915    0.79000002    2.66000009
   18.15916634  119.57099915    0.80000001    2.64000010
   18.16333389  122.67500305    0.80000001    2.64000010
   18.16638756  120.99600220    0.80000001    2.64000010
   18.16972160  123.86199951    0.80000001    2.64000010
   18.17305565  120.63999939    0.79000002    2.64000010
   18.17611122  124.79399872    0.79000002    2.64000010
   18.17944336  121.81999969    0.80000001    2.64000010
   18.18249893  122.61599731    0.80000001    2.64000010
   18.18305397  113.35099792    0.80000001    2.66000009
   18.18610954  117.62500000    0.81999999    2.64000010
   18.18944359  119.67800140    0.81999999    2.64000010
   18.19277763  122.14399719    0.80000001    2.64000010
   18.19583321  119.08499908    0.81999999    2.64000010
   18.20194435  119.08499908    0.81999999    2.64000010
   18.20611191  120.80899811    0.81999999    2.64000010
   18.20944595  117.15799713    0.83999997    2.64000010
   18.21250153  120.77400208    0.83999997    2.64000010
   18.21583366  114.01399994    0.83999997    2.64000010
   18.21638870  122.98100281    0.83999997    2.64000010
   18.21944427  115.40000153    0.83999997    2.64000010
   18.22277832  124.57599640    0.83999997    2.64000010
   18.22611237  121.58499908    0.81999999    2.64000010
   18.22916794  117.98899841    0.81999999    2.64000010
   18.23250008  118.12699890    0.81999999    2.64000010
   18.23555565  119.05400085    0.81999999    2.64000010
   18.23888969  119.68699646    0.81999999    2.64000010
   18.24472237  119.68699646    0.83999997    2.64000010
   18.24888992  125.77100372    0.81999999    2.64000010
   18.24944496  123.52300262    0.81999999    2.64000010
   18.25277710  120.96499634    0.81999999    2.64000010
   18.25611115  119.90000153    0.81999999    2.64000010
   18.25916672  118.61799622    0.81999999    2.64000010
   18.26250076  121.47699738    0.81999999    2.64000010
   18.26555634  120.19999695    0.81999999    2.64000010
   18.26888847  118.29199982    0.81999999    2.64000010
   18.27222252  121.14399719    0.81999999    2.64000010
   18.27527809  118.77200317    0.81999999    2.64000010
   18.27861023  122.85099792    0.81999999    2.64000010
   18.28194427  120.02799988    0.81999999    2.64000010
   18.28277779  122.89800262    0.80000001    2.64000010
   18.28777695  122.89800262    0.80000001    2.64000010
   18.29194450  120.81500244    0.80000001    2.64000010
   18.29500008  126.63800049    0.80000001    2.64000010
   18.29833221  119.35299683    0.81999999    2.64000010
   18.30138779  119.73000336    0.80000001    2.66000009
   18.30472183  118.27899933    0.80000001    2.66000009
   18.30805397  122.15499878    0.80000001    2.64000010
   18.31138802  121.56099701    0.80000001    2.64000010
   18.31444359  115.49299622    0.80000001    2.64000010
   18.31611061  112.40899658    0.80000001    2.64000010
   18.31805611  117.27600098    0.80000001    2.64000010
   18.32139015  115.37100220    0.83999997    2.64000010
   18.32444572  123.17400360    0.83999997    2.64000010
   18.33055687  123.17400360    0.88000000    2.64000010
   18.33472252  117.03700256    0.88000000    2.64000010
   18.33777809  115.58100128    0.89999998    2.61999989
   18.34111214  120.51300049    0.88000000    2.64000010
   18.34444427  125.00199890    0.88000000    2.61999989
   18.34749985  116.59300232    0.88000000    2.61999989
   18.34944534  119.35399628    0.88000000    2.64000010
   18.35111237  116.55000305    0.89999998    2.64000010
   18.35444450  118.38500214    0.89999998    2.64000010
   18.35750008  119.93299866    0.88000000    2.64000010
   18.36083412  121.09500122    0.88000000    2.64000010
   18.36388969  123.98200226    0.89999998    2.64000010
   18.36722183  117.32599640    0.88000000    2.61999989
   18.37333298  117.32599640    0.89999998    2.61999989
   18.37750053  122.65899658    0.88000000    2.64000010
   18.38083267  122.20899963    0.86000001    2.64000010
   18.38277817  122.70700073    0.86000001    2.64000010
   18.38444519  123.14299774    0.86000001    2.64000010
   18.38777733  127.99500275    0.83999997    2.61999989
   18.39083290  116.27100372    0.83999997    2.61999989
   18.39416695  120.71499634    0.86000001    2.61999989
   18.39749908  121.18800354    0.83999997    2.61999989
   18.40055466  114.22299957    0.83999997    2.64000010
   18.40388870  121.00099945    0.83999997    2.64000010
   18.40694427  120.38700104    0.86000001    2.61999989
   18.41027832  110.16100311    0.86000001    2.64000010
   18.41638756  110.16100311    0.88000000    2.61999989
   18.42027664  114.85299683    0.88000000    2.61999989
   18.42361069  120.73400116    0.88000000    2.61999989
   18.42694473  117.80599976    0.89999998    2.61999989
   18.43000031  114.14700317    0.89999998    2.61999989
   18.43333244  122.22000122    0.92000002    2.61999989
   18.43666649  112.78700256    0.92000002    2.61999989
   18.43972206  113.82900238    0.92000002    2.61999989
   18.44305420  114.60399628    0.92000002    2.61999989
   18.44610977  116.55899811    0.92000002    2.61999989
   18.44944382  118.01699829    0.92000002    2.61999989
   18.45138931  113.75399780    0.92000002    2.61999989
   18.45305634  116.39800262    0.92000002    2.61999989
   18.45916748  116.39800262    0.92000002    2.61999989
   18.46333504  118.97599792    0.92000002    2.61999989
   18.46638870  117.23200226    0.92000002    2.61999989
   18.46972275  120.70400238    0.92000002    2.64000010
   18.47277832  118.55100250    0.92000002    2.64000010
   18.47611237  116.74400330    0.92000002    2.61999989
   18.47944450  117.43900299    0.94000000    2.61999989
   18.48250008  121.92500305    0.92000002    2.61999989
   18.48472214  114.86399841    0.92000002    2.61999989
   18.48611069  116.71199799    0.92000002    2.61999989
   18.48944473  112.09400177    0.92000002    2.61999989
   18.49277878  113.73600006    0.92000002    2.61999989
   18.49583435  121.33000183    0.92000002    2.64000010
   18.50194359  121.33000183    0.92000002    2.61999989
   18.50611115  119.54399872    0.89999998    2.61999989
   18.50916672  116.41600037    0.89999998    2.61999989
   18.51250076  119.50499725    0.89999998    2.61999989
   18.51583290  116.89600372    0.89999998    2.61999989
   18.51805496  119.46499634    0.89999998    2.61999989
   18.51944351  116.78900146    0.88000000    2.61999989
   18.52277756  119.88300323    0.89999998    2.61999989
   18.52583313  116.01899719    0.89999998    2.61999989
   18.52916718  121.04599762    0.88000000    2.61999989
   18.53249931  118.47299957    0.86000001    2.61999989
   18.53555489  114.93099976    0.86000001    2.61999989
   18.53888893  113.32700348    0.83999997    2.61999989
   18.54472160  113.32700348    0.83999997    2.61999989
   18.54888916  120.59999847    0.81999999    2.61999989
   18.55138779  117.69599915    0.81999999    2.61999989
   18.55249977  117.77400208    0.83999997    2.61999989
   18.55583191  118.46800232    0.83999997    2.61999989
   18.55888748  125.56500244    0.83999997    2.61999989
   18.56222153  121.65000153    0.86000001    2.61999989
   18.56555557  119.70800018    0.86000001    2.61999989
   18.56861115  117.83599854    0.88000000    2.61999989
   18.57194519  118.32399750    0.88000000    2.61999989
   18.57527924  125.89299774    0.88000000    2.61999989
   18.57833481  122.05300140    0.92000002    2.59999990
   18.58166695  116.30599976    0.92000002    2.61999989
   18.58750153  116.30599976    0.95999998    2.61999989
   18.59166718  119.66899872    0.95999998    2.61999989
   18.59500122  119.60099792    0.95999998    2.61999989
   18.59833336  122.29900360    0.98000002    2.59999990
   18.60138893  112.17099762    0.98000002    2.59999990
   18.60472298  119.23500061    0.98000002    2.59999990
   18.60805511  118.50099945    0.98000002    2.61999989
   18.61111069  116.30200195    0.98000002    2.61999989
   18.61444473  110.22399902    0.98000002    2.59999990
   18.61750031  114.52999878    0.98000002    2.57999992
   18.61861038  117.39399719    0.98000002    2.57999992
   18.62111092  118.09899902    0.95999998    2.59999990
   18.62444496  116.03500366    0.95999998    2.59999990
   18.63055611  116.03500366    0.94000000    2.61999989
   18.63472176  113.26699829    0.92000002    2.59999990
   18.63777733  121.33699799    0.89999998    2.59999990
   18.64111137  114.07599640    0.89999998    2.61999989
   18.64444351  116.53199768    0.88000000    2.61999989
   18.64749908  113.84600067    0.88000000    2.61999989
   18.65083313  115.83100128    0.89999998    2.61999989
   18.65194321  117.68000031    0.89999998    2.59999990
   18.65444374  113.64399719    0.89999998    2.61999989
   18.65777779  122.58599854    0.89999998    2.61999989
   18.66110992  116.27200317    0.89999998    2.59999990
   18.66416550  115.09999847    0.89999998    2.59999990
   18.66749954  113.70700073    0.88000000    2.59999990
   18.67333221  113.70700073    0.88000000    2.59999990
   18.67749977  120.46299744    0.88000000    2.59999990
   18.68055534  112.91000366    0.88000000    2.59999990
   18.68388748  116.00299835    0.88000000    2.61999989
   18.68527603  113.13700104    0.88000000    2.61999989
   18.68750000  111.78099823    0.89999998    2.61999989
   18.69083214  116.76000214    0.89999998    2.59999990
   18.69388771  113.82900238    0.89999998    2.59999990
   18.69722176  121.53199768    0.89999998    2.59999990
   18.70055580  118.96800232    0.89999998    2.59999990
   18.70361137  116.41799927    0.92000002    2.59999990
   18.70694542  116.83499908    0.89999998    2.59999990
   18.71000099  121.40100098    0.89999998    2.59999990
   18.71611214  121.40100098    0.89999998    2.61999989
   18.73444557  118.73799896    0.92000002    2.61999989
   18.73777771  116.53900146    0.94000000    2.59999990
   18.74111176  114.16999817    0.94000000    2.59999990
   18.74416733  121.91899872    0.94000000    2.57999992
   18.74749947  117.53199768    0.94000000    2.57999992
   18.75083351  114.99099731    0.95999998    2.57999992
   18.75388908  115.12200165    0.94000000    2.59999990
   18.75916672  115.12200165    0.95999998    2.57999992
   18.76333427  116.64800262    0.95999998    2.59999990
   18.76666641  118.29699707    0.98000002    2.59999990
   18.76749992  112.77500153    0.98000002    2.59999990
   18.77027702  114.48100281    0.95999998    2.57999992
   18.77361107  117.06500244    0.95999998    2.59999990
   18.77666664  113.04599762    0.95999998    2.59999990
   18.78000069  114.01599884    0.95999998    2.59999990
   18.78333282  109.98600006    0.94000000    2.59999990
   18.78638840  111.94499969    0.92000002    2.57999992
   18.78972244  113.23000336    0.92000002    2.57999992
   18.79277802  114.41200256    0.92000002    2.59999990
   18.79611015  118.26300049    0.92000002    2.59999990
   18.80222130  118.26300049    0.89999998    2.59999990
   18.80638885  120.36199951    0.92000002    2.59999990
   18.80944443  119.89499664    0.92000002    2.59999990
   18.81277657  117.96199799    0.92000002    2.57999992
   18.81583214  115.58799744    0.89999998    2.59999990
   18.81916809  116.52400208    0.88000000    2.59999990
   18.82250023  115.17299652    0.88000000    2.59999990
   18.82583427  113.52300262    0.88000000    2.59999990
   18.82888985  112.87000275    0.88000000    2.59999990
   18.83222389  114.29399872    0.88000000    2.59999990
   18.83416748  112.57800293    0.88000000    2.59999990
   18.83583450  118.73699951    0.86000001    2.59999990
   18.83916664  114.53399658    0.86000001    2.57999992
   18.84500122  114.53399658    0.83999997    2.57999992
   18.84916687  122.82499695    0.83999997    2.59999990
   18.85222244  114.92700195    0.86000001    2.59999990
   18.85555649  118.31800079    0.86000001    2.59999990
   18.85888863  119.52500153    0.86000001    2.59999990
   18.86194420  119.50800323    0.88000000    2.57999992
   18.86527824  117.56500244    0.88000000    2.57999992
   18.86750031  118.88300323    0.88000000    2.57999992
   18.86888885  118.35199738    0.88000000    2.57999992
   18.87222290  118.95600128    0.88000000    2.57999992
   18.87527847  121.08899689    0.88000000    2.59999990
   18.87861061  117.89099884    0.89999998    2.59999990
   18.88194466  111.16999817    0.89999998    2.59999990
   18.88777733  111.16999817    0.92000002    2.59999990
   18.89194489  112.69999695    0.94000000    2.57999992
   18.89527702  112.37100220    0.94000000    2.57999992
   18.89833260  115.05400085    0.94000000    2.57999992
   18.90111160  111.52700043    0.94000000    2.57999992
   18.90194321  110.75099945    0.94000000    2.57999992
   18.90527725  116.36799622    0.94000000    2.59999990
   18.90833282  111.24199677    0.95999998    2.57999992
   18.91166687  121.73100281    0.98000002    2.57999992
   18.91499901  110.38099670    0.98000002    2.57999992
   18.91805458  116.52700043    0.98000002    2.57999992
   18.92138863  118.89900208    1.00000000    2.57999992
   18.92472076  111.65399933    1.00000000    2.57999992
   18.93055534  111.65399933    1.01999998    2.57999992
   18.93472099  114.82800293    1.00000000    2.57999992
   18.93805504  116.22899628    1.00000000    2.57999992
   18.94111061  113.19499969    1.00000000    2.55999994
   18.94444275  114.03399658    1.00000000    2.55999994
   18.94777679  117.94000244    1.00000000    2.55999994
   18.95083427  113.51499939    1.00000000    2.57999992
   18.95416832  107.89900208    1.00000000    2.57999992
   18.95750046  118.05699921    0.98000002    2.55999994
   18.96055603  118.77300262    1.00000000    2.57999992
   18.96389008  123.55100250    0.98000002    2.57999992
   18.96722221  113.45099640    0.95999998    2.57999992
   18.96777916  119.65299988    0.95999998    2.57999992
   18.97361183  119.65299988    0.94000000    2.57999992
   18.97750092  115.91699982    0.94000000    2.57999992
   18.98083305  110.93599701    0.94000000    2.57999992
   18.98416710  120.41000366    0.94000000    2.57999992
   18.98722267  118.25700378    0.92000002    2.57999992
   18.99055672  116.93599701    0.92000002    2.57999992
   18.99388885  120.15599823    0.92000002    2.57999992
   18.99694443  123.41999817    0.92000002    2.57999992
   19.00027847  113.33899689    0.92000002    2.57999992
   19.00111198  111.43599701    0.92000002    2.57999992
   19.00388908  115.27500153    0.92000002    2.57999992
   19.00722313  123.37799835    0.89999998    2.57999992
   19.01027870  113.90499878    0.89999998    2.55999994
   19.01638794  113.90499878    0.89999998    2.55999994
   19.02055550  120.29499817    0.92000002    2.55999994
   19.02361107  117.09500122    0.94000000    2.55999994
   19.02694511  123.93099976    0.98000002    2.55999994
   19.03027725  129.23300171    1.00000000    2.55999994
   19.03333282  121.14099884    1.00000000    2.55999994
   19.03444481  124.26999664    1.00000000    2.55999994
   19.03694344  122.01499939    1.01999998    2.55999994
   19.04027748  118.24500275    1.01999998    2.55999994
   19.04333305  123.50800323    1.01999998    2.55999994
   19.04666710  119.01699829    1.01999998    2.53999996
   19.04999924  118.69799805    1.01999998    2.53999996
   19.05305481  121.30899811    1.03999996    2.57999992
   19.05916595  121.30899811    1.03999996    2.55999994
   19.06333351  121.50099945    1.03999996    2.55999994
   19.06666756  125.24099731    1.03999996    2.55999994
   19.06777954  117.12100220    1.03999996    2.55999994
   19.07000160  123.66300201    1.03999996    2.53999996
   19.07333374  119.75700378    1.03999996    2.53999996
   19.07638931  120.44699860    1.03999996    2.55999994
   19.07972336  120.27100372    1.03999996    2.53999996
   19.08305550  121.19599915    1.03999996    2.55999994
   19.08611107  122.12899780    1.03999996    2.55999994
   19.08944511  122.49099731    1.03999996    2.55999994
   19.09277916  126.73500061    1.03999996    2.55999994
   19.09583473  122.87000275    1.03999996    2.55999994
   19.10194397  122.87000275    1.01999998    2.55999994
   19.10611153  119.57499695    1.00000000    2.55999994
   19.10944557  121.35600281    1.00000000    2.55999994
   19.11277771  118.64499664    1.00000000    2.55999994
   19.11583328  121.56800079    0.98000002    2.55999994
   19.11916733  123.10299683    0.98000002    2.53999996
   19.12222290  119.73200226    0.98000002    2.55999994
   19.12555504  120.87899780    0.98000002    2.55999994
   19.12888908  118.11399841    0.98000002    2.55999994
   19.13194466  120.25700378    0.98000002    2.55999994
   19.13444519  125.26000214    1.00000000    2.55999994
   19.13555527  124.64299774    0.98000002    2.55999994
   19.13888931  121.99900055    1.00000000    2.53999996
   19.14500046  121.99900055    1.00000000    2.55999994
   19.14916611  118.05699921    0.98000002    2.55999994
   19.15250015  121.87899780    0.98000002    2.55999994
   19.15555573  121.11100006    0.98000002    2.55999994
   19.15888786  121.35500336    1.00000000    2.53999996
   19.16222191  119.51899719    1.00000000    2.55999994
   19.16527748  116.11799622    1.00000000    2.55999994
   19.16777802  117.58200073    1.00000000    2.55999994
   19.16888809  119.10600281    1.00000000    2.55999994
   19.17222214  120.68499756    1.00000000    2.55999994
   19.17555428  120.01499939    1.01999998    2.53999996
   19.17860985  127.14399719    1.01999998    2.53999996
   19.18194389  117.61599731    1.01999998    2.53999996
   19.18777657  117.61599731    1.03999996    2.53999996
   19.19194412  116.92600250    1.03999996    2.55999994
   19.19499969  119.12200165    1.01999998    2.53999996
   19.19833183  119.87100220    1.03999996    2.53999996
   19.20111275  120.98600006    1.03999996    2.53999996
   19.20194435  120.55999756    1.03999996    2.53999996
   19.20527840  117.14800262    1.03999996    2.53999996
   19.20861244  123.24199677    1.03999996    2.53999996
   19.21166801  120.93000031    1.03999996    2.53999996
   19.21500015  117.24600220    1.03999996    2.53999996
   19.21805573  114.40299988    1.01999998    2.53999996
   19.22138977  117.71299744    1.01999998    2.53999996
   19.22472191  120.43499756    1.01999998    2.53999996
   19.23055649  120.43499756    1.01999998    2.53999996
   19.23472214  115.93399811    1.01999998    2.53999996
   19.23805618  123.96499634    1.01999998    2.53999996
   19.24111176  113.27400208    1.01999998    2.53999996
   19.24444389  124.50099945    1.01999998    2.53999996
   19.24777794  119.40899658    1.01999998    2.53999996
   19.25083351  126.06400299    1.01999998    2.53999996
   19.25416756  117.65899658    1.01999998    2.53999996
   19.25749969  121.33200073    1.01999998    2.53999996
   19.26055527  125.08899689    1.01999998    2.53999996
   19.26388931  121.16400146    1.01999998    2.53999996
   19.26694489  121.00499725    1.01999998    2.53999996
   19.26777840  124.51799774    1.01999998    2.53999996
   19.27333260  124.51799774    1.01999998    2.53999996
   19.27750015  116.18399811    1.01999998    2.53999996
   19.28083229  120.88700104    1.01999998    2.53999996
   19.28388786  124.94799805    1.01999998    2.53999996
   19.28722191  122.75599670    1.01999998    2.51999998
   19.29055595  121.68900299    1.01999998    2.53999996
   19.29361153  117.69699860    1.01999998    2.51999998
   19.29694366  114.56099701    1.01999998    2.51999998
   19.30027771  119.21800232    1.01999998    2.53999996
   19.30111122  122.78900146    1.01999998    2.53999996
   19.30360985  119.67800140    1.03999996    2.53999996
   19.30694389  125.39700317    1.03999996    2.51999998
   19.31027794  123.88999939    1.03999996    2.53999996
   19.31638718  123.88999939    1.03999996    2.51999998
   19.32027817  120.66300201    1.03999996    2.51999998
   19.32361221  121.39800262    1.03999996    2.51999998
   19.32694626  118.20099640    1.03999996    2.51999998
   19.33000183  125.11000061    1.03999996    2.53999996
   19.33333397  115.81999969    1.03999996    2.51999998
   19.33444595  125.53500366    1.03999996    2.51999998
   19.33694458  127.08699799    1.05999994    2.51999998
   19.34027863  117.36599731    1.05999994    2.51999998
   19.34361267  118.57900238    1.05999994    2.51999998
   19.34666824  116.98699951    1.05999994    2.51999998
   19.35000038  123.52500153    1.03999996    2.51999998
   19.35305595  120.84500122    1.05999994    2.51999998
   19.35916710  120.84500122    1.03999996    2.51999998
   19.36333466  119.55400085    1.01999998    2.51999998
   19.36638832  119.35900116    1.01999998    2.51999998
   19.36777878  121.44400024    1.01999998    2.51999998
   19.37000084  120.03500366    1.01999998    2.51999998
   19.37333298  126.17600250    1.01999998    2.53999996
   19.37666702  124.03500366    1.01999998    2.51999998
   19.37972260  116.92700195    1.01999998    2.51999998
   19.38305473  126.95300293    1.03999996    2.50000000
   19.38611031  124.37999725    1.03999996    2.51999998
   19.38944435  122.20400238    1.03999996    2.50000000
   19.39277840  118.31600189    1.05999994    2.50000000
   19.39583397  122.91000366    1.05999994    2.50000000
   19.40194321  122.91000366    1.05999994    2.51999998
   19.40611076  123.90899658    1.05999994    2.51999998
   19.40944481  118.91200256    1.05999994    2.51999998
   19.41250038  115.81700134    1.07000005    2.51999998
   19.41583252  115.62999725    1.05999994    2.50000000
   19.41888809  122.01100159    1.05999994    2.51999998
   19.42222214  117.06199646    1.05999994    2.50000000
   19.42555428  120.06500244    1.05999994    2.50000000
   19.42860985  120.60800171    1.05999994    2.50000000
   19.43194389  119.08399963    1.05999994    2.50000000
   19.43444443  120.19599915    1.05999994    2.50000000
   19.43555450  118.51699829    1.05999994    2.50000000
   19.43888855  119.00000000    1.05999994    2.50000000
   19.44472122  119.00000000    1.05999994    2.50000000
   19.44888878  127.65399933    1.05999994    2.50000000
   19.45222282  128.65699768    1.05999994    2.50000000
   19.45555687  123.98200226    1.05999994    2.50000000
   19.45861244  125.70500183    1.03999996    2.50000000
   19.46194458  121.40499878    1.03999996    2.50000000
   19.46500015  127.94000244    1.03999996    2.51999998
   19.46777916  121.58200073    1.01999998    2.50000000
   19.46861076  121.71499634    1.01999998    2.50000000
   19.47194481  121.04499817    1.01999998    2.50000000
   19.47527885  124.99800110    1.01999998    2.50000000
   19.47833443  127.58899689    1.01999998    2.50000000
   19.48166656  125.72599792    1.01999998    2.50000000
   19.48777771  125.72599792    1.01999998    2.50000000
   19.49166679  121.55699921    1.01999998    2.50000000
   19.49500084  121.80599976    1.01999998    2.50000000
   19.49833298  122.61399841    1.01999998    2.50000000
   19.50111198  125.99199677    1.00000000    2.50000000
   19.50166702  121.84799957    1.00000000    2.50000000
   19.50499916  121.81099701    1.01999998    2.50000000
   19.50833321  117.95200348    1.01999998    2.50000000
   19.51138878  122.73799896    1.01999998    2.50000000
   19.51472282  120.48200226    1.01999998    2.50000000
   19.51805496  123.96900177    1.03999996    2.50000000
   19.52111053  122.19100189    1.03999996    2.50000000
   19.52444458  123.72899628    1.03999996    2.50000000
   19.53055573  123.72899628    1.05999994    2.50000000
   19.53472137  132.82400513    1.05999994    2.48000002
   19.53777695  125.54000092    1.05999994    2.48000002
   19.54111099  127.36499786    1.05999994    2.50000000
   19.54444313  128.21099854    1.05999994    2.48000002
   19.54749870  122.91400146    1.05999994    2.48000002
   19.55083275  125.98500061    1.05999994    2.51999998
   19.55416679  125.12200165    1.05999994    2.48000002
   19.55722237  123.10099792    1.05999994    2.48000002
   19.56055450  122.18399811    1.05999994    2.48000002
   19.56361008  125.99500275    1.05999994    2.48000002
   19.56694603  123.57800293    1.05999994    2.48000002
   19.56777954  121.19300079    1.05999994    2.48000002
   19.57333374  121.19300079    1.05999994    2.48000002
   19.57750130  127.03900146    1.05999994    2.48000002
   19.58083344  131.50700378    1.05999994    2.48000002
   19.58388901  118.47799683    1.05999994    2.48000002
   19.58722305  123.23500061    1.05999994    2.48000002
   19.59055710  122.55599976    1.05999994    2.48000002
   19.59361267  127.67299652    1.05999994    2.48000002
   19.59694481  124.49900055    1.03999996    2.48000002
   19.60027885  119.52400208    1.03999996    2.48000002
   19.60111237  126.62300110    1.03999996    2.48000002
   19.60361099  120.68299866    1.03999996    2.48000002
   19.60694504  124.88899994    1.03999996    2.48000002
   19.61027908  130.07000732    1.03999996    2.48000002
   19.61611176  130.07000732    1.03999996    2.48000002
   19.62027740  128.22599792    1.05999994    2.48000002
   19.62361145  125.35900116    1.05999994    2.46000004
   19.62666702  125.99299622    1.05999994    2.46000004
   19.63000107  139.73800659    1.05999994    2.48000002
   19.63333321  137.36900330    1.07000005    2.46000004
   19.63444519  132.18299866    1.07000005    2.46000004
   19.63694382  116.89600372    1.07000005    2.46000004
   19.63999939  124.65599823    1.09000003    2.46000004
   19.64333344  128.13000488    1.09000003    2.46000004
   19.64638901  188.92700195    1.09000003    2.46000004
   19.64972115   65.13379669    1.11000001    2.46000004
   19.65305519   -1.00000000    1.13000000    2.46000004
   19.66305542   -1.00000000    1.13000000    2.46000004
   19.66638756   -1.00000000    1.14999998    2.46000004
