    HOUR (UT)   FLARE FACTOR    SKY TESTER    SUN TESTER
   10.82194424   -1.00000000   -1.00000000   -1.00000000
   10.84499931   99.91320038    1.89999998    1.86000001
   10.84833336   93.57350159    1.89999998    1.86000001
   10.85166740  349.10800171    1.88000000    1.86000001
   10.85472298  358.31900024    1.88000000    1.86000001
   10.85805607  315.41299438    1.88000000    1.88000000
   10.86138916  340.13500977    1.88000000    1.88000000
   10.86555576  340.13500977    1.88000000    1.88000000
   10.86972237  313.07400513    1.88000000    1.89999998
   10.87305546  370.77398682    1.88000000    1.88000000
   10.87638855  382.03100586    1.88000000    1.89999998
   10.87805557  333.86099243    1.88000000    1.89999998
   10.88000011  331.75100708    1.86000001    1.88000000
   10.88333321  360.79299927    1.86000001    1.89999998
   10.88638878  356.07101440    1.86000001    1.89999998
   10.88972187  358.18099976    1.86000001    1.89999998
   10.89305496  311.59298706    1.85000002    1.91999996
   10.89611053  320.20700073    1.85000002    1.91999996
   10.89944458  323.05899048    1.85000002    1.91999996
   10.90277767  324.70999146    1.85000002    1.91999996
   10.90833282  324.70999146    1.85000002    1.94000006
   10.91249943  349.59600830    1.85000002    1.94000006
   10.91555500  304.95401001    1.85000002    1.94000006
   10.91888905  319.88101196    1.85000002    1.94000006
   10.92222214  300.97399902    1.85000002    1.94000006
   10.92527771  311.15499878    1.85000002    1.94000006
   10.92861176  305.54501343    1.85000002    1.94000006
   10.93194485  311.27398682    1.86000001    1.94000006
   10.93500042  302.96499634    1.85000002    1.96000004
   10.93833351  287.26199341    1.85000002    1.98000002
   10.94138908  332.72601318    1.85000002    1.96000004
   10.94472218  305.91400146    1.85000002    1.96000004
   10.94527817  316.15100098    1.85000002    1.96000004
   10.95111084  316.15100098    1.83000004    1.98000002
   10.95527744  303.56799316    1.83000004    1.98000002
   10.95861053  297.40798950    1.83000004    1.98000002
   10.96166611  319.34100342    1.83000004    1.98000002
   10.96500015  319.61499023    1.83000004    1.98000002
   10.96833324  295.39498901    1.83000004    1.98000002
   10.97138882  294.39599609    1.83000004    2.00000000
   10.97472191  297.09399414    1.83000004    2.00000000
   10.97777748  270.07501221    1.80999994    2.00000000
   10.97861099  288.57800293    1.80999994    2.00000000
   10.98166656  282.36801147    1.80999994    2.00000000
   10.98472214  254.96200562    1.78999996    2.01999998
   10.98805618  277.91299438    1.78999996    2.01999998
   10.99388885  277.91299438    1.76999998    2.01999998
   10.99805546  267.48498535    1.73000002    2.03999996
   11.00138855  268.06100464    1.73000002    2.01999998
   11.00444412  276.77600098    1.73000002    2.03999996
   11.00777817  277.98999023    1.71000004    2.03999996
   11.01111126  278.77301025    1.71000004    2.03999996
   11.01194477  261.76800537    1.71000004    2.03999996
   11.01472187  272.96701050    1.69000006    2.05999994
   11.01777744  291.73699951    1.69000006    2.03999996
   11.02111053  260.44900513    1.66999996    2.03999996
   11.02444458  295.44799805    1.64999998    2.05999994
   11.02750015  269.91198730    1.64999998    2.05999994
   11.03083324  291.25100708    1.64999998    2.05999994
   11.03694534  291.25100708    1.61000001    2.07999992
   11.04111195  264.79501343    1.61000001    2.05999994
   11.04416752  278.21200562    1.61000001    2.05999994
   11.04527855  277.35699463    1.61000001    2.05999994
   11.04805565  263.13699341    1.60000002    2.07999992
   11.05111122  270.36999512    1.60000002    2.07999992
   11.05444431  262.03201294    1.60000002    2.07999992
   11.05777836  251.64999390    1.58000004    2.07999992
   11.06083393  270.63198853    1.58000004    2.09999990
   11.06416702  289.65899658    1.58000004    2.09999990
   11.06750011  278.92001343    1.55999994    2.07999992
   11.07055569  314.84100342    1.53999996    2.09999990
   11.07388878  275.01400757    1.53999996    2.09999990
   11.07972240  275.01400757    1.48000002    2.11999989
   11.08388901  288.86401367    1.48000002    2.11999989
   11.08694458  277.95001221    1.48000002    2.11999989
   11.09027767  265.56600952    1.46000004    2.11999989
   11.09361076  229.37600708    1.44000006    2.11999989
   11.09666634  257.31900024    1.46000004    2.11999989
   11.10000038  267.73699951    1.46000004    2.11999989
   11.10305595  225.28599548    1.44000006    2.11999989
   11.10638905  252.24099731    1.44000006    2.11999989
   11.10972214  261.70300293    1.41999996    2.13000011
   11.11194515  278.63400269    1.41999996    2.13000011
   11.11333370  259.53500366    1.39999998    2.11999989
   11.11638927  292.77899170    1.38000000    2.13000011
   11.12250042  292.77899170    1.38000000    2.13000011
   11.12666702  231.66499329    1.36000001    2.13000011
   11.13000011  268.54598999    1.34000003    2.15000010
   11.13305569  246.15499878    1.36000001    2.15000010
   11.13638878  242.93200684    1.33000004    2.17000008
   11.13944435  251.00700378    1.33000004    2.15000010
   11.14277744  237.28900146    1.33000004    2.17000008
   11.14527798  229.89199829    1.33000004    2.17000008
   11.14638901  273.23001099    1.33000004    2.17000008
   11.14944458  245.47900391    1.33000004    2.15000010
   11.15277767  263.90899658    1.30999994    2.17000008
   11.15611076  234.08099365    1.30999994    2.17000008
   11.15916634  242.03599548    1.33000004    2.19000006
   11.16527748  242.03599548    1.30999994    2.17000008
   11.16944504  248.82499695    1.30999994    2.17000008
   11.17277813  233.30400085    1.30999994    2.17000008
   11.17583370  270.26199341    1.30999994    2.17000008
   11.17861176  230.97999573    1.28999996    2.19000006
   11.17972279  227.61900330    1.28999996    2.19000006
   11.18277836  217.11999512    1.28999996    2.19000006
   11.18611145  235.44000244    1.28999996    2.19000006
   11.18944454  258.31399536    1.30999994    2.19000006
   11.19250011  227.43499756    1.30999994    2.21000004
   11.19583321  256.58499146    1.30999994    2.21000004
   11.19916630  230.03799438    1.30999994    2.21000004
   11.20222187  221.67999268    1.28999996    2.21000004
   11.20833302  221.67999268    1.26999998    2.21000004
   11.21222210  242.83599854    1.26999998    2.21000004
   11.21555519  238.54299927    1.26999998    2.21000004
   11.21888828  230.55700684    1.26999998    2.23000002
   11.22194386  209.44799805    1.28999996    2.21000004
   11.22527695  238.56300354    1.26999998    2.21000004
   11.22861099  223.10299683    1.25000000    2.23000002
   11.23166656  222.99000549    1.25000000    2.23000002
   11.23500061  231.67100525    1.25000000    2.25000000
   11.23805618  232.99400330    1.25000000    2.23000002
   11.24138927  254.06799316    1.23000002    2.23000002
   11.24472237  240.20899963    1.23000002    2.23000002
   11.24527836  218.63600159    1.23000002    2.23000002
   11.25111103  218.63600159    1.21000004    2.23000002
   11.25527763  234.95399475    1.19000006    2.25000000
   11.25833321  219.26300049    1.21000004    2.25000000
   11.26166630  227.23800659    1.21000004    2.25000000
   11.26500034  203.95100403    1.19000006    2.25000000
   11.26805496  208.58099365    1.19000006    2.25000000
   11.27138901  228.36099243    1.14999998    2.25000000
   11.27472210  230.80900574    1.14999998    2.26999998
   11.27777767  239.40299988    1.14999998    2.26999998
   11.27861118  259.80801392    1.14999998    2.26999998
   11.28138828  217.66900635    1.14999998    2.25000000
   11.28444481  204.46200562    1.14999998    2.26999998
   11.28777790  251.84500122    1.13000000    2.26999998
   11.29388905  251.84500122    1.13000000    2.26999998
   11.29805565  239.08000183    1.13000000    2.26999998
   11.30138874  226.40600586    1.13000000    2.26999998
   11.30444431  242.13099670    1.13000000    2.28999996
   11.30777836  210.62199402    1.13000000    2.26999998
   11.31083393  222.36199951    1.13000000    2.26999998
   11.31194496  229.69099426    1.13000000    2.26999998
   11.31472206  210.87600708    1.13000000    2.26999998
   11.31777763  207.63800049    1.13000000    2.28999996
   11.32111073  212.66200256    1.11000001    2.26999998
   11.32444477  220.58200073    1.09000003    2.28999996
   11.32750034  199.11000061    1.09000003    2.28999996
   11.33083344  221.52200317    1.11000001    2.28999996
   11.33666611  221.52200317    1.11000001    2.30999994
   11.34083271  210.42100525    1.09000003    2.30999994
   11.34416676  199.75199890    1.09000003    2.30999994
   11.34527779  213.51499939    1.09000003    2.30999994
   11.34777737  217.03799438    1.07000005    2.30999994
   11.35083389  208.90600586    1.07000005    2.30999994
   11.35416698  216.50100708    1.07000005    2.30999994
   11.35750008  201.05799866    1.07000005    2.30999994
   11.36055565  201.72999573    1.07000005    2.30999994
   11.36388969  245.07299805    1.07000005    2.30999994
   11.36722279  213.80299377    1.07000005    2.30999994
   11.37027836  225.90400696    1.07000005    2.30999994
   11.37361145  212.36000061    1.05999994    2.32999992
   11.37972260  212.36000061    1.05999994    2.32999992
   11.38361073  195.25599670    1.05999994    2.32999992
   11.38694477  179.60699463    1.05999994    2.32999992
   11.39027786  200.94799805    1.03999996    2.32999992
   11.39333344  212.48199463    1.05999994    2.32999992
   11.39666653  203.52299500    1.03999996    2.32999992
   11.39999962  201.31599426    1.01999998    2.34999990
   11.40305519  200.34199524    1.01999998    2.32999992
   11.40638828  189.40800476    1.03999996    2.34999990
   11.40944386  189.34800720    1.01999998    2.34999990
   11.41194439  202.98899841    1.01999998    2.34999990
   11.41333294  188.44900513    1.00000000    2.34999990
   11.41666698  198.66200256    1.00000000    2.34999990
   11.42250061  198.66200256    1.00000000    2.34999990
   11.42666721  203.13699341    1.00000000    2.36999989
   11.42972279  200.81100464    1.00000000    2.34999990
   11.43305588  204.79499817    1.00000000    2.34999990
   11.43638897  227.69999695    1.00000000    2.36999989
   11.43944454  185.36199951    1.00000000    2.36999989
   11.44277763  202.43200684    1.00000000    2.36999989
   11.44527817  197.76400757    1.00000000    2.36999989
   11.44638920  195.39799500    1.00000000    2.36999989
   11.44972229  203.51499939    1.00000000    2.36999989
   11.45277786  189.86799622    1.00000000    2.36999989
   11.45611095  179.08399963    1.00000000    2.36999989
   11.45916653  182.15899658    1.00000000    2.36999989
   11.46527767  182.15899658    1.00000000    2.36999989
   11.46944427  192.79800415    0.98000002    2.36999989
   11.47277737  204.15699768    1.00000000    2.39000010
   11.47583294  207.25000000    1.00000000    2.39000010
   11.47861099  200.34899902    0.95999998    2.39000010
   11.47944355  197.40100098    0.98000002    2.39000010
   11.48277760  200.09800720    0.95999998    2.39000010
   11.48583317  178.16000366    0.95999998    2.39000010
   11.48916721  195.57499695    0.95999998    2.39000010
   11.49250031  185.88699341    0.95999998    2.39000010
   11.49555588  209.98300171    0.98000002    2.39000010
   11.49888897  199.30499268    0.98000002    2.39000010
   11.50194454  199.88099670    0.95999998    2.39000010
   11.50805569  199.88099670    0.95999998    2.39000010
   11.51222229  206.60499573    0.95999998    2.39000010
   11.51555538  214.96800232    0.98000002    2.40000010
   11.51861095  210.52699280    0.95999998    2.39000010
   11.52194405  199.60200500    0.95999998    2.40000010
   11.52527714  198.76499939    0.95999998    2.39000010
   11.52833271  204.63800049    0.95999998    2.39000010
   11.53166676  186.28900146    0.95999998    2.40000010
   11.53500080  196.50999451    0.95999998    2.40000010
   11.53805637  206.84800720    0.94000000    2.40000010
   11.54138947  209.45300293    0.94000000    2.40000010
   11.54444504  199.42300415    0.94000000    2.40000010
   11.54527855  193.14399719    0.92000002    2.40000010
   11.55083370  193.14399719    0.92000002    2.42000008
   11.55500031  194.70500183    0.92000002    2.42000008
   11.55833340  195.86500549    0.92000002    2.42000008
   11.56166649  207.53300476    0.92000002    2.42000008
   11.56472206  195.46800232    0.92000002    2.42000008
   11.56805515  191.51600647    0.89999998    2.42000008
   11.57138920  180.64300537    0.89999998    2.42000008
   11.57444477  184.04800415    0.89999998    2.42000008
   11.57777786  186.56199646    0.89999998    2.42000008
   11.57861137  192.65800476    0.89999998    2.42000008
   11.58138847  180.84599304    0.89999998    2.42000008
   11.58472157  186.22099304    0.89999998    2.42000008
   11.58777714  184.21800232    0.89999998    2.42000008
   11.59388828  184.21800232    0.86000001    2.42000008
   11.59805489  186.13200378    0.86000001    2.42000008
   11.60111141  180.04299927    0.86000001    2.42000008
   11.60444450  191.05099487    0.86000001    2.42000008
   11.60777855  186.76400757    0.86000001    2.42000008
   11.61083412  182.62300110    0.83999997    2.42000008
   11.61194515  208.43699646    0.83999997    2.42000008
   11.61472225  186.39900208    0.83999997    2.44000006
   11.61805534  185.46200562    0.80000001    2.44000006
   11.62111092  199.79200745    0.80000001    2.44000006
   11.62444496  187.47799683    0.80000001    2.44000006
   11.62750053  179.88299561    0.80000001    2.44000006
   11.63083363  175.52000427    0.80000001    2.44000006
   11.63666630  175.52000427    0.80000001    2.44000006
   11.64083290  172.76300049    0.80000001    2.46000004
   11.64416695  178.50799561    0.80000001    2.46000004
   11.64527798  191.19299316    0.80000001    2.46000004
   11.64777756  180.11500549    0.80000001    2.46000004
   11.65111065  195.48300171    0.80000001    2.46000004
   11.65416622  183.52099609    0.80000001    2.46000004
   11.65749931  187.67399597    0.81999999    2.46000004
   11.66083336  165.16700745    0.80000001    2.46000004
   11.66388893  187.80799866    0.80000001    2.46000004
   11.66722298  188.77499390    0.80000001    2.46000004
   11.67027855  178.93800354    0.80000001    2.46000004
   11.67361164  178.28300476    0.80000001    2.46000004
   11.67944431  178.28300476    0.80000001    2.46000004
   11.68361092  175.92100525    0.83999997    2.46000004
   11.68694496  187.36999512    0.83999997    2.46000004
   11.69000053  182.47099304    0.86000001    2.46000004
   11.69333363  194.92900085    0.86000001    2.48000002
   11.69666672  183.95199585    0.86000001    2.46000004
   11.69972229  195.21899414    0.86000001    2.46000004
   11.70305538  198.83799744    0.88000000    2.46000004
   11.70638847  207.46800232    0.89999998    2.48000002
   11.70944405  220.69700623    0.89999998    2.48000002
   11.71194458  208.44999695    0.92000002    2.46000004
   11.71305561  204.41600037    0.89999998    2.48000002
   11.71638870  210.41900635    0.92000002    2.48000002
   11.72222137  210.41900635    0.89999998    2.48000002
   11.72638798  223.44999695    0.89999998    2.48000002
   11.72972202  213.40400696    0.92000002    2.48000002
   11.73305511  205.60000610    0.92000002    2.48000002
   11.73611164  228.88499451    0.92000002    2.48000002
   11.73944473  191.15100098    0.92000002    2.48000002
   11.74250031  205.86099243    0.94000000    2.48000002
   11.74527836  209.62699890    0.94000000    2.48000002
   11.74638939  194.07800293    0.94000000    2.48000002
   11.74972248  208.03999329    0.94000000    2.48000002
   11.75277805  193.13000488    0.92000002    2.50000000
   11.75611115  211.00100708    0.92000002    2.50000000
   11.75944424  214.61399841    0.92000002    2.48000002
   11.76527786  214.61399841    0.92000002    2.50000000
   11.76944447  204.10400391    0.89999998    2.50000000
   11.77250004  222.53799438    0.89999998    2.50000000
   11.77583313  202.70300293    0.89999998    2.50000000
   11.77861118  235.19900513    0.89999998    2.50000000
   11.77944374  214.55999756    0.89999998    2.50000000
   11.78277779  232.97399902    0.89999998    2.50000000
   11.78583336  211.36199951    0.89999998    2.50000000
   11.78916740  190.70599365    0.89999998    2.50000000
   11.79250050  214.32800293    0.89999998    2.50000000
   11.79555607  211.54100037    0.89999998    2.50000000
   11.79888916  235.28100586    0.89999998    2.50000000
   11.80194473  221.69799805    0.89999998    2.50000000
   11.80805588  221.69799805    0.88000000    2.50000000
   11.81222248  209.71299744    0.86000001    2.51999998
   11.81527805  212.15499878    0.83999997    2.50000000
   11.81861115  213.81799316    0.83999997    2.50000000
   11.82194424  194.75300598    0.83999997    2.50000000
   11.82499981  202.43099976    0.81999999    2.51999998
   11.82833290  187.26800537    0.81999999    2.51999998
   11.83166695  206.53599548    0.81999999    2.50000000
   11.83472157  190.08999634    0.81999999    2.51999998
   11.83805561  187.88499451    0.83999997    2.51999998
   11.84138870  199.15899658    0.83999997    2.51999998
   11.84444427  207.27699280    0.83999997    2.51999998
   11.84527779  195.89500427    0.81999999    2.51999998
   11.86611176  195.89500427    0.83999997    2.51999998
   11.87027836  180.01699829    0.83999997    2.51999998
   11.87361145  182.04400635    0.81999999    2.51999998
   11.87666702  187.85400391    0.80000001    2.51999998
   11.87861156  209.50500488    0.80000001    2.51999998
   11.88027763  190.34300232    0.81999999    2.53999996
   11.88361073  199.76699829    0.81999999    2.53999996
   11.88666630  195.28100586    0.80000001    2.53999996
   11.89000034  204.28399658    0.79000002    2.53999996
   11.89333344  210.97500610    0.79000002    2.53999996
   11.89638901  182.41000366    0.79000002    2.53999996
   11.89972210  171.69500732    0.80000001    2.53999996
   11.90277767  179.21600342    0.79000002    2.53999996
   11.90888882  179.21600342    0.79000002    2.53999996
   11.91305542  170.70399475    0.79000002    2.53999996
   11.91611099  173.17999268    0.79000002    2.53999996
   11.91944504  168.39399719    0.79000002    2.53999996
   11.92277813  157.03599548    0.79000002    2.53999996
   11.92583370  182.93899536    0.79000002    2.53999996
   11.92916679  179.69999695    0.79000002    2.53999996
   11.93222237  178.98399353    0.79000002    2.55999994
   11.93555546  180.12899780    0.79000002    2.55999994
   11.93888855  172.17700195    0.80000001    2.55999994
   11.94194412  175.49200439    0.80000001    2.55999994
   11.94527817  176.03900146    0.83999997    2.55999994
   11.94583321  178.48800659    0.83999997    2.55999994
   11.95166683  178.48800659    0.81999999    2.55999994
   11.95583344  162.92799377    0.83999997    2.55999994
   11.95916653  163.84300232    0.81999999    2.55999994
   11.96222210  146.94999695    0.80000001    2.55999994
   11.96555519  170.21699524    0.80000001    2.55999994
   11.96888828  174.99099731    0.80000001    2.53999996
   11.97222137  162.88600159    0.80000001    2.55999994
   11.97527695  161.89799500    0.80000001    2.55999994
   11.97861099  166.71200562    0.80000001    2.55999994
   11.97916603  171.02099609    0.80000001    2.55999994
   11.98222160  170.90899658    0.80000001    2.55999994
   11.98527813  170.17799377    0.80000001    2.55999994
   11.98861122  162.11099243    0.80000001    2.55999994
   11.99444485  162.11099243    0.76999998    2.55999994
   11.99861145  172.95300293    0.76999998    2.57999992
   12.00194454  171.57299805    0.76999998    2.57999992
   12.00527763  152.48300171    0.79000002    2.55999994
   12.00833321  176.46200562    0.79000002    2.55999994
   12.01166630  174.80900574    0.79000002    2.55999994
   12.01249981  189.25500488    0.79000002    2.55999994
   12.01527786  162.59199524    0.79000002    2.57999992
   12.01833344  177.69599915    0.80000001    2.57999992
   12.02166653  158.75599670    0.80000001    2.57999992
   12.02472210  175.72200012    0.81999999    2.57999992
   12.02805519  170.44500732    0.81999999    2.57999992
   12.03138828  166.14900208    0.81999999    2.57999992
   12.03750038  166.14900208    0.81999999    2.57999992
   12.04166698  183.25399780    0.81999999    2.57999992
   12.04500008  165.55200195    0.81999999    2.57999992
   12.04583359  168.04600525    0.81999999    2.57999992
   12.04861164  161.46200562    0.80000001    2.59999990
   12.05166721  175.33399963    0.80000001    2.59999990
   12.05500031  165.17500305    0.80000001    2.57999992
   12.05805588  176.97799683    0.81999999    2.57999992
   12.06138897  182.98899841    0.81999999    2.57999992
   12.06472206  200.44200134    0.81999999    2.57999992
   12.06777763  180.63699341    0.81999999    2.57999992
   12.07111073  199.21299744    0.81999999    2.57999992
   12.07444477  184.54800415    0.81999999    2.57999992
   12.08027744  184.54800415    0.83999997    2.59999990
   12.08444405  185.57499695    0.83999997    2.59999990
   12.08749962  185.95199585    0.83999997    2.59999990
   12.09083271  172.11700439    0.83999997    2.57999992
   12.09416676  148.24299622    0.81999999    2.57999992
   12.09722233  178.33200073    0.81999999    2.57999992
   12.10055637  173.95199585    0.81999999    2.59999990
   12.10361195  176.94999695    0.81999999    2.59999990
   12.10694504  171.75100708    0.81999999    2.59999990
   12.11027813  154.39700317    0.81999999    2.59999990
   12.11250019  176.97000122    0.81999999    2.59999990
   12.11388969  183.67799377    0.81999999    2.59999990
   12.11694431  173.02099609    0.81999999    2.59999990
   12.12305546  173.02099609    0.81999999    2.59999990
   12.12722206  164.83399963    0.81999999    2.59999990
   12.13055611  191.08299255    0.81999999    2.59999990
   12.13361073  178.73399353    0.81999999    2.59999990
   12.13694477  202.96800232    0.80000001    2.59999990
   12.14000034  208.52299500    0.80000001    2.59999990
   12.14333344  193.79200745    0.80000001    2.61999989
   12.14583302  228.66200256    0.80000001    2.61999989
   12.14722252  201.38200378    0.80000001    2.61999989
   12.15027714  197.18600464    0.80000001    2.61999989
   12.15361118  193.59199524    0.80000001    2.61999989
   12.15666676  185.44500732    0.81999999    2.59999990
   12.15999985  193.58299255    0.81999999    2.61999989
   12.16583252  193.58299255    0.81999999    2.61999989
   12.17000008  184.24899292    0.81999999    2.61999989
   12.17333412  203.02999878    0.81999999    2.59999990
   12.17638874  161.48300171    0.83999997    2.61999989
   12.17916679  187.02099609    0.83999997    2.61999989
   12.18027782  178.57099915    0.83999997    2.61999989
   12.18333340  162.50999451    0.83999997    2.61999989
   12.18666649  188.75700378    0.81999999    2.61999989
   12.18972206  188.91099548    0.83999997    2.61999989
   12.19305515  180.14199829    0.83999997    2.61999989
   12.19638920  188.87300110    0.86000001    2.61999989
   12.19972229  152.05799866    0.86000001    2.61999989
   12.20277786  164.67799377    0.83999997    2.61999989
   12.20888901  164.67799377    0.81999999    2.61999989
   12.21277714  152.84700012    0.83999997    2.64000010
   12.21611118  154.72700500    0.79000002    2.61999989
   12.21944427  156.36000061    0.79000002    2.64000010
   12.22249985  141.01800537    0.79000002    2.61999989
   12.22583294  152.08900452    0.79000002    2.61999989
   12.22916603  142.19900513    0.75000000    2.64000010
   12.23222160  176.03399658    0.73000002    2.61999989
   12.23555565  170.61799622    0.73000002    2.64000010
   12.23861122  163.78199768    0.73000002    2.64000010
   12.24194431  152.98699951    0.73000002    2.61999989
   12.24527836  154.57000732    0.73000002    2.64000010
   12.24583340  140.96299744    0.75000000    2.61999989
   12.25166702  140.96299744    0.75000000    2.64000010
   12.25583363  158.25500488    0.75000000    2.64000010
   12.25888920  146.50799561    0.75000000    2.64000010
   12.26222229  163.47900391    0.73000002    2.64000010
   12.26555538  159.40600586    0.73000002    2.64000010
   12.26861095  170.71200562    0.70999998    2.61999989
   12.27194405  157.50799561    0.70999998    2.64000010
   12.27499962  152.52699280    0.70999998    2.64000010
   12.27833271  156.63800049    0.70999998    2.64000010
   12.27916622  172.22399902    0.70999998    2.64000010
   12.28194427  155.63699341    0.70999998    2.64000010
   12.28500080  159.04800415    0.70999998    2.64000010
   12.28833389  154.99099731    0.70999998    2.64000010
   12.29444504  154.99099731    0.70999998    2.64000010
   12.29861164  159.00300598    0.70999998    2.64000010
   12.30194473  158.94599915    0.70999998    2.64000010
   12.30500031  145.31199646    0.69000000    2.66000009
   12.30833340  149.24499512    0.69000000    2.66000009
   12.31138897  175.21299744    0.69000000    2.64000010
   12.31250000  149.07099915    0.69000000    2.64000010
   12.31527805  162.05599976    0.70999998    2.64000010
   12.31833363  166.11099243    0.70999998    2.66000009
   12.32166672  156.79200745    0.70999998    2.66000009
   12.32499981  164.34300232    0.70999998    2.66000009
   12.32805538  142.40199280    0.70999998    2.66000009
   12.33138847  163.14199829    0.70999998    2.66000009
   12.33722210  163.14199829    0.70999998    2.64000010
   12.34138870  154.04299927    0.70999998    2.66000009
   12.34472179  144.35899353    0.70999998    2.66000009
   12.34583282  138.77600098    0.70999998    2.66000009
   12.34833336  132.73699951    0.73000002    2.66000009
   12.35138893  133.75199890    0.70999998    2.67000008
   12.35472298  141.33900452    0.70999998    2.66000009
   12.35805607  147.79899597    0.70999998    2.66000009
   12.36111164  147.65800476    0.70999998    2.66000009
   12.36444473  151.86300659    0.70999998    2.67000008
   12.36777782  149.92399597    0.70999998    2.67000008
   12.37083340  140.79899597    0.70999998    2.66000009
   12.37416649  146.73699951    0.70999998    2.66000009
   12.38000011  146.73699951    0.70999998    2.66000009
   12.38416672  155.63000488    0.70999998    2.66000009
   12.38749981  168.80200195    0.70999998    2.66000009
   12.39083290  154.46499634    0.73000002    2.66000009
   12.39388847  165.92799377    0.75000000    2.67000008
   12.39722252  161.45500183    0.75000000    2.67000008
   12.40055561  164.18600464    0.75000000    2.67000008
   12.40361118  159.49800110    0.73000002    2.66000009
   12.40694427  155.08999634    0.76999998    2.66000009
   12.40999985  155.74000549    0.76999998    2.66000009
   12.41249943  169.20799255    0.76999998    2.66000009
   12.41388893  166.83599854    0.76999998    2.67000008
   12.41694450  150.98199463    0.79000002    2.66000009
   12.42305565  150.98199463    0.79000002    2.67000008
   12.42722225  141.80499268    0.79000002    2.66000009
   12.43027782  149.89100647    0.79000002    2.67000008
   12.43361092  153.22799683    0.79000002    2.67000008
   12.43694496  160.42599487    0.79000002    2.66000009
   12.44000053  151.09300232    0.79000002    2.67000008
   12.44333363  160.45599365    0.79000002    2.66000009
   12.44583321  139.35099792    0.76999998    2.66000009
   12.44694424  147.81300354    0.76999998    2.67000008
   12.44999981  142.02499390    0.76999998    2.67000008
   12.45333290  141.82800293    0.75000000    2.67000008
   12.45666695  139.86300659    0.75000000    2.67000008
   12.45972157  149.63800049    0.75000000    2.67000008
   12.46583271  149.63800049    0.75000000    2.66000009
   12.46999931  144.89199829    0.76999998    2.67000008
   12.47305489  150.74800110    0.75000000    2.67000008
   12.47638798  145.92399597    0.75000000    2.67000008
   12.47916603  141.98699951    0.75000000    2.67000008
   12.48027706  150.06199646    0.75000000    2.67000008
   12.48333359  137.77900696    0.75000000    2.67000008
   12.48666668  148.72200012    0.75000000    2.67000008
   12.48972225  149.12800598    0.76999998    2.67000008
   12.49305534  143.88400269    0.76999998    2.67000008
   12.49638939  144.99800110    0.79000002    2.67000008
   12.49944496  133.97599792    0.76999998    2.69000006
   12.50277805  148.52200317    0.76999998    2.67000008
   12.50861073  148.52200317    0.79000002    2.69000006
   12.51277733  143.95500183    0.79000002    2.67000008
   12.51611137  149.14900208    0.79000002    2.67000008
   12.51944447  143.71600342    0.81999999    2.69000006
   12.52250004  148.41700745    0.83999997    2.67000008
   12.52583313  143.68800354    0.81999999    2.69000006
   12.52888870  134.66299438    0.81999999    2.69000006
   12.53222179  122.37699890    0.83999997    2.69000006
   12.53555584  137.13200378    0.83999997    2.69000006
   12.53861141  136.88400269    0.86000001    2.71000004
   12.54194450  133.83399963    0.86000001    2.71000004
   12.54500008  135.55799866    0.83999997    2.67000008
   12.54583359  134.43899536    0.83999997    2.67000008
   12.55138874  134.43899536    0.88000000    2.69000006
   12.55555534  137.52600098    0.89999998    2.67000008
   12.55888939  137.05900574    0.89999998    2.67000008
   12.56222248  122.63500214    0.88000000    2.67000008
   12.56527805  123.32599640    0.83999997    2.69000006
   12.56861115  130.23800659    0.83999997    2.69000006
   12.57166672  123.57800293    0.83999997    2.69000006
   12.57499981  134.94900513    0.83999997    2.69000006
   12.57833290  138.53900146    0.83999997    2.69000006
   12.57916641  142.69799805    0.83999997    2.69000006
   12.58194447  134.72399902    0.81999999    2.69000006
   12.58500004  137.17599487    0.81999999    2.67000008
   12.58833313  142.15899658    0.83999997    2.69000006
   12.59444427  142.15899658    0.83999997    2.69000006
   12.59861088  127.76599884    0.86000001    2.69000006
   12.60166740  137.04299927    0.86000001    2.69000006
   12.60500050  138.71099854    0.83999997    2.69000006
   12.60833359  135.93299866    0.86000001    2.69000006
   12.61138916  133.42300415    0.86000001    2.69000006
   12.61250019  139.47399902    0.86000001    2.69000006
   12.61500072  127.87300110    0.86000001    2.69000006
   12.61805534  136.48599243    0.88000000    2.69000006
   12.62138939  128.57899475    0.83999997    2.69000006
   12.62472248  131.58900452    0.83999997    2.69000006
   12.62777805  130.25399780    0.81999999    2.69000006
   12.63111115  130.28100586    0.81999999    2.69000006
   12.63722229  130.28100586    0.81999999    2.69000006
   12.64138889  131.59100342    0.79000002    2.69000006
   12.64444447  133.40299988    0.80000001    2.69000006
   12.64583302  133.14100647    0.80000001    2.69000006
   12.64833355  127.05400085    0.80000001    2.71000004
   12.65138817  128.61900330    0.80000001    2.69000006
   12.65472221  129.58999634    0.81999999    2.69000006
   12.65805531  131.52000427    0.79000002    2.71000004
   12.66111088  138.47599792    0.79000002    2.71000004
   12.66444397  138.67799377    0.79000002    2.71000004
   12.66750050  137.39700317    0.79000002    2.71000004
   12.67083359  135.97700500    0.76999998    2.69000006
   12.67416668  136.12500000    0.76999998    2.69000006
   12.68000031  136.12500000    0.75000000    2.71000004
   12.68416691  137.25000000    0.76999998    2.71000004
   12.68750000  121.08000183    0.79000002    2.71000004
   12.69055557  130.77099609    0.80000001    2.71000004
   12.69388866  129.79600525    0.80000001    2.71000004
   12.69694424  131.54400635    0.80000001    2.71000004
   12.70027733  130.68099976    0.76999998    2.71000004
   12.70361137  126.66300201    0.79000002    2.71000004
   12.70694447  135.87100220    0.79000002    2.71000004
   12.71000004  133.39700317    0.79000002    2.71000004
   12.71249962  129.07299805    0.79000002    2.71000004
   12.71388912  132.42599487    0.81999999    2.71000004
   12.71722221  130.06300354    0.79000002    2.71000004
   12.72277737  130.06300354    0.79000002    2.71000004
   12.72694397  132.74400330    0.81999999    2.71000004
   12.73027706  137.87399292    0.81999999    2.71000004
   12.73333359  130.60699463    0.81999999    2.71000004
   12.73666668  139.07099915    0.83999997    2.71000004
   12.74000072  137.23899841    0.83999997    2.71000004
   12.74305534  135.98399353    0.86000001    2.71000004
   12.74583340  141.07400513    0.86000001    2.71000004
   12.74694443  139.72399902    0.79000002    2.71000004
   12.75027752  149.74000549    0.79000002    2.71000004
   12.75333309  140.17599487    0.80000001    2.71000004
   12.75666714  138.27799988    0.83999997    2.71000004
   12.75972176  140.11000061    0.81999999    2.73000002
   12.76583290  140.11000061    0.76999998    2.71000004
   12.76999950  144.94799805    0.79000002    2.71000004
   12.77305508  139.13999939    0.79000002    2.71000004
   12.77638817  141.19799805    0.79000002    2.71000004
   12.77916622  142.29299927    0.80000001    2.71000004
   12.77999973  142.72500610    0.80000001    2.73000002
   12.78333378  135.35499573    0.88000000    2.71000004
   12.78638935  137.16999817    0.88000000    2.71000004
   12.78972244  147.68200684    0.88000000    2.71000004
   12.79277802  140.73699951    0.89999998    2.71000004
   12.79611111  146.75799561    0.88000000    2.71000004
   12.79944515  144.11700439    0.88000000    2.71000004
   12.80249977  148.77999878    0.86000001    2.73000002
   12.80861092  148.77999878    0.86000001    2.73000002
   12.81277752  136.48699951    0.86000001    2.71000004
   12.81611156  140.99099731    0.88000000    2.73000002
   12.81944466  135.19099426    0.89999998    2.73000002
   12.82250023  140.08599854    0.89999998    2.73000002
   12.82583332  138.09399414    0.89999998    2.73000002
   12.82888889  143.78700256    0.89999998    2.73000002
   12.83222198  146.10699463    0.88000000    2.73000002
   12.83555508  136.55099487    0.75000000    2.73000002
   12.83861065  145.07899475    0.75000000    2.73000002
   12.84194374  145.04499817    0.75000000    2.73000002
   12.84527779  144.52699280    0.75000000    2.73000002
   12.84583282  139.27499390    0.75000000    2.73000002
   12.85138893  139.27499390    0.92000002    2.73000002
   12.85555553  155.27900696    0.92000002    2.73000002
   12.85888958  156.34199524    0.88000000    2.73000002
   12.86194515  138.19200134    0.86000001    2.73000002
   12.87972260  155.24099731    0.81999999    2.73000002
   12.88194466  149.90499878    0.81999999    2.73000002
   12.88527775  147.68400574    0.79000002    2.73000002
   12.88861084  145.35299683    0.86000001    2.75000000
   12.89444447  145.35299683    0.88000000    2.73000002
   12.89861107  137.66799927    0.98000002    2.73000002
   12.90194416  143.28999329    1.03999996    2.75000000
   12.90499973  150.60699463    1.03999996    2.73000002
   12.90833282  152.32099915    1.01999998    2.73000002
   12.91166592  141.93400574    1.01999998    2.73000002
   12.91277695  150.39900208    1.01999998    2.73000002
   12.91527748  139.25700378    0.94000000    2.73000002
   12.91861153  142.55400085    0.94000000    2.75000000
   12.92166710  131.21099854    0.95999998    2.75000000
   12.92500019  144.19099426    1.00000000    2.75000000
   12.92833328  142.38400269    1.00000000    2.75000000
   12.93138885  147.00500488    1.00000000    2.75000000
   12.93722248  147.00500488    1.03999996    2.73000002
   12.94138908  143.17399597    0.98000002    2.73000002
   12.94472218  143.58399963    0.98000002    2.73000002
   12.94611073  150.38099670    0.95999998    2.73000002
   12.94833374  148.01800537    0.95999998    2.73000002
   12.95166683  154.86300659    1.01999998    2.73000002
   12.95472240  141.78799438    1.03999996    2.75000000
   12.95805550  148.16600037    1.01999998    2.75000000
   12.96138859  159.78100586    1.01999998    2.75000000
   12.96444416  147.88699341    1.05999994    2.75000000
   12.96777725  160.54499817    1.13000000    2.73000002
   12.97111034  144.31500244    1.14999998    2.75000000
   12.97416592  140.46499634    1.14999998    2.75000000
   12.98027706  140.46499634    1.05999994    2.73000002
   12.98416710  143.22999573    1.07000005    2.75000000
   12.98750019  150.31399536    1.07000005    2.75000000
   12.99083328  146.99800110    1.07000005    2.75000000
   12.99388885  150.21299744    1.03999996    2.73000002
   12.99722290  142.33900452    1.07000005    2.75000000
   13.00055599  165.14599609    1.07000005    2.75000000
   13.00361156  167.67700195    1.03999996    2.75000000
   13.00694466  149.56100464    0.95999998    2.75000000
   13.01000023  130.94200134    0.98000002    2.75000000
   13.01277733  147.66799927    0.98000002    2.73000002
   13.01388931  159.14199829    0.98000002    2.73000002
   13.01722240  150.10200500    0.98000002    2.75000000
   13.02305508  150.10200500    0.94000000    2.75000000
   13.02722168  149.82400513    0.86000001    2.75000000
   13.03027725  161.95500183    0.86000001    2.75000000
   13.03361130  149.83599854    0.94000000    2.75000000
   13.03694534  149.51499939    1.07000005    2.75000000
   13.04000092  151.49299622    1.03999996    2.75000000
   13.04333401  154.50300598    1.03999996    2.75000000
   13.04611111  155.45599365    1.01999998    2.75000000
   13.04694462  155.22900391    1.00000000    2.75000000
   13.05027771  154.85699463    0.98000002    2.75000000
   13.05333328  152.83099365    0.98000002    2.75000000
   13.05666733  149.03100586    0.98000002    2.75000000
   13.06000042  154.96899414    1.07000005    2.75000000
   13.06611156  154.96899414    1.03999996    2.75000000
   13.06999969  156.91400146    1.03999996    2.75000000
   13.07333374  157.00799561    1.03999996    2.75000000
   13.07666683  154.08999634    0.95999998    2.75000000
   13.07944393  158.83099365    0.95999998    2.75000000
   13.08027744  160.83099365    1.05999994    2.75000000
   13.08361053  140.80900574    1.05999994    2.75000000
   13.08666611  156.80599976    1.09000003    2.75000000
   13.09000015  148.07499695    1.05999994    2.75000000
   13.09333324  146.34399414    1.03999996    2.75000000
   13.09638882  148.38699341    1.03999996    2.76999998
   13.09972191  160.05700684    1.03999996    2.76999998
   13.10277843  151.95399475    1.00000000    2.75000000
   13.10861111  151.95399475    0.94000000    2.75000000
   13.11305618  151.28100586    0.92000002    2.75000000
   13.11333370  186.85299683    0.92000002    2.75000000
   13.11666679  225.93899536    0.92000002    2.75000000
   13.11972237  214.65600586    0.92000002    2.75000000
   13.12305546  210.40899658    0.98000002    2.75000000
   13.12638855  238.25399780    1.05999994    2.76999998
   13.12944412  240.29600525    1.05999994    2.76999998
   13.13277817  208.56700134    1.14999998    2.75000000
   13.13611126  203.45899963    1.14999998    2.75000000
   13.13916683  219.13200378    1.16999996    2.75000000
   13.14249992  218.85899353    1.14999998    2.76999998
   13.14583302  189.40600586    1.16999996    2.75000000
   13.14638901  234.42900085    1.16999996    2.75000000
   13.15166664  234.42900085    1.14999998    2.75000000
   13.15555477  198.30200195    1.14999998    2.76999998
   13.15888882  174.24800110    1.14999998    2.76999998
   13.16222191  194.57200623    1.13000000    2.76999998
   13.16527748  190.88499451    1.13000000    2.76999998
   13.16861153  197.17900085    1.05999994    2.76999998
   13.17194462  186.42399597    1.03999996    2.78999996
   13.17500019  170.70500183    1.05999994    2.76999998
   13.17833328  182.23300171    1.05999994    2.76999998
   13.17972279  164.22999573    1.05999994    2.76999998
   13.18194485  175.13000488    1.05999994    2.76999998
   13.18527794  181.63600159    1.05999994    2.76999998
   13.18833351  165.78900146    1.03999996    2.76999998
   13.19444466  165.78900146    1.00000000    2.76999998
   13.19861126  163.77699280    1.03999996    2.78999996
   13.20166683  165.94500732    1.05999994    2.76999998
   13.20499992  146.64300537    1.09000003    2.76999998
   13.20833302  154.37699890    1.05999994    2.78999996
   13.21138859  146.55900574    1.05999994    2.76999998
   13.21305561  156.18099976    1.05999994    2.76999998
   13.21500015  149.25300598    1.05999994    2.76999998
   13.21833324  145.88900757    1.03999996    2.78999996
   13.22166634  158.22700500    1.11000001    2.76999998
   13.22472191  140.96499634    1.14999998    2.76999998
   13.22805500  153.00599670    1.14999998    2.76999998
   13.23111057  140.97000122    1.19000006    2.76999998
   13.23722267  140.97000122    1.14999998    2.76999998
   13.24138927  145.68299866    1.07000005    2.76999998
   13.24444485  151.71200562    1.05999994    2.78999996
   13.24638939  126.76699829    1.05999994    2.78999996
   13.24805546  140.66099548    1.09000003    2.78999996
   13.25138855  143.11099243    1.05999994    2.76999998
   13.25444412  145.52900696    1.05999994    2.76999998
   13.25777817  136.24299622    1.05999994    2.76999998
   13.26111126  143.41700745    1.05999994    2.76999998
   13.26416683  136.10800171    1.07000005    2.76999998
   13.26749992  139.16400146    1.09000003    2.76999998
   13.27083302  149.58599854    1.09000003    2.78999996
   13.27388859  137.76800537    1.11000001    2.76999998
   13.27999973  137.76800537    1.09000003    2.76999998
   13.28416729  142.63499451    1.07000005    2.76999998
   13.28750038  153.96000671    1.07000005    2.76999998
   13.29055595  139.46000671    1.07000005    2.76999998
   13.29388905  143.81300354    1.05999994    2.76999998
   13.29722309  138.37300110    1.03999996    2.76999998
   13.30027771  145.53399658    1.00000000    2.76999998
   13.30361176  147.20799255    0.95999998    2.78999996
   13.30694485  144.30799866    0.95999998    2.78999996
   13.31000042  143.71000671    0.94000000    2.76999998
   13.31305599  140.36700439    0.98000002    2.76999998
   13.31361103  149.89599609    0.98000002    2.76999998
   13.31694412  141.45799255    0.98000002    2.76999998
   13.32305527  141.45799255    1.07000005    2.76999998
   13.32694435  149.26400757    1.05999994    2.76999998
   13.33027744  129.00300598    1.05999994    2.76999998
   13.33361053  144.79699707    0.98000002    2.76999998
   13.33666611  143.22500610    1.01999998    2.78999996
   13.34000015  133.13800049    1.01999998    2.76999998
   13.34333324  142.38000488    1.00000000    2.76999998
   13.34638882  129.25700378    1.00000000    2.76999998
   13.34666634  138.91700745    1.00000000    2.76999998
   13.35000038  134.40499878    0.98000002    2.76999998
   13.35305595  147.07600403    0.92000002    2.78999996
   13.35638905  135.62800598    0.92000002    2.78999996
   13.35972214  138.77000427    0.89999998    2.78999996
   13.36583328  138.77000427    0.89999998    2.78999996
   13.36999989  142.66099548    0.88000000    2.78999996
   13.37305546  140.17799377    0.81999999    2.78999996
   13.37638855  144.46499634    0.80000001    2.78999996
   13.37972260  135.00700378    0.80000001    2.78999996
   13.38000011  140.53599548    0.80000001    2.78999996
   13.38333321  137.99499512    0.79000002    2.78999996
   13.38638878  146.19599915    0.79000002    2.78999996
   13.38972187  146.76800537    0.79000002    2.78999996
   13.39305496  137.12600708    0.79000002    2.78999996
   13.39611053  138.83999634    0.79000002    2.78999996
   13.39944458  143.94299316    0.79000002    2.78999996
   13.40277767  144.77999878    0.79000002    2.80999994
   13.40861034  144.77999878    0.80000001    2.78999996
   13.41277695  147.94799805    0.79000002    2.78999996
   13.41333294  151.94299316    0.79000002    2.78999996
   13.41638851  139.51499939    0.80000001    2.78999996
   13.41972256  159.27900696    0.80000001    2.78999996
   13.42305565  157.66200256    0.80000001    2.78999996
   13.42611122  163.14199829    0.80000001    2.78999996
   13.42944431  161.58399963    0.80000001    2.78999996
   13.43277836  165.88000488    0.80000001    2.80999994
   13.43583298  167.40499878    0.80000001    2.80999994
   13.43916702  165.21600342    0.80000001    2.78999996
   13.44222260  176.00599670    0.80000001    2.78999996
   13.44555569  177.16200256    0.81999999    2.78999996
   13.44666672  179.30599976    0.81999999    2.78999996
   13.45166683  179.30599976    0.83999997    2.78999996
   13.45583344  191.07800293    0.83999997    2.80999994
   13.45888901  184.52099609    0.83999997    2.80999994
   13.46222210  165.56599426    0.81999999    2.78999996
   13.46527767  177.54800415    0.80000001    2.78999996
   13.46861076  188.31599426    0.86000001    2.78999996
   13.47194386  184.17199707    0.86000001    2.78999996
   13.47527695  180.71200562    0.86000001    2.78999996
   13.47833252  183.09399414    0.86000001    2.78999996
   13.47999954  192.14900208    0.83999997    2.80999994
   13.48194408  181.52600098    0.80000001    2.78999996
   13.48527813  172.44999695    0.80000001    2.80999994
   13.48861122  183.06399536    0.80000001    2.78999996
   13.49416733  183.06399536    0.80000001    2.78999996
   13.49833393  182.83500671    0.80000001    2.80999994
   13.50166702  166.28999329    0.80000001    2.80999994
   13.50500011  183.77099609    0.80000001    2.80999994
   13.50805569  160.98100281    0.80000001    2.80999994
   13.51138878  173.51800537    0.80000001    2.80999994
   13.51333332  172.74899292    0.80000001    2.80999994
   13.51500034  180.43600464    0.80000001    2.80999994
   13.51805496  161.90899658    0.80000001    2.80999994
   13.52138901  172.88900757    0.88000000    2.78999996
   13.52472210  156.78199768    0.86000001    2.78999996
   13.52777767  155.66700745    0.86000001    2.78999996
   13.53111076  163.98800659    0.81999999    2.80999994
   13.53722286  163.98800659    0.79000002    2.80999994
   13.54138947  169.00199890    0.76999998    2.80999994
   13.54444504  168.65899658    0.76999998    2.80999994
   13.54666710  172.79400635    0.76999998    2.80999994
   13.54833412  148.93899536    0.76999998    2.80999994
   13.55138874  169.20899963    0.75000000    2.80999994
   13.55472279  170.31500244    0.70999998    2.78999996
   13.55777836  162.69200134    0.69000000    2.80999994
   13.56111145  175.62399292    0.69000000    2.80999994
   13.56444454  159.53799438    0.70999998    2.80999994
   13.56750011  164.21299744    0.70999998    2.80999994
   13.57083321  157.14399719    0.69000000    2.80999994
   13.57388878  155.44700623    0.69000000    2.80999994
   13.57999992  155.44700623    0.69000000    2.80999994
   13.58416653  158.30200195    0.64999998    2.82999992
   13.58722210  152.30200195    0.64999998    2.82999992
   13.59055519  150.34300232    0.64999998    2.82999992
   13.59388828  148.73899841    0.64999998    2.80999994
   13.59694386  169.58299255    0.63000000    2.82999992
   13.60027790  171.74299622    0.64999998    2.80999994
   13.60361195  157.00000000    0.67000002    2.80999994
   13.60666752  159.09300232    0.67000002    2.80999994
   13.61000061  166.58700562    0.64999998    2.80999994
   13.61305618  158.36999512    0.67000002    2.80999994
   13.61361122  160.55099487    0.67000002    2.80999994
   13.61694431  162.53700256    0.69000000    2.82999992
   13.62277794  162.53700256    0.73000002    2.80999994
   13.62694454  166.55799866    0.67000002    2.82999992
   13.63027763  172.71200562    0.69000000    2.80999994
   13.63333321  158.03799438    0.69000000    2.80999994
   13.63666630  168.64700317    0.67000002    2.80999994
   13.64000034  163.88900757    0.64999998    2.80999994
   13.64305496  163.92599487    0.69000000    2.80999994
   13.64638901  161.63600159    0.67000002    2.80999994
   13.64694405  162.73699951    0.67000002    2.80999994
   13.64999962  168.60299683    0.67000002    2.80999994
   13.65333271  158.75199890    0.67000002    2.80999994
   13.65638828  159.77999878    0.70999998    2.80999994
   13.65972137  158.49600220    0.73000002    2.80999994
   13.66555500  158.49600220    0.73000002    2.82999992
   13.66972256  163.92300415    0.70999998    2.80999994
   13.67305565  160.96299744    0.67000002    2.80999994
   13.67638874  149.32800293    0.67000002    2.80999994
   13.67944431  161.12100220    0.64999998    2.80999994
   13.68027782  159.80200195    0.64999998    2.80999994
   13.68305588  153.49400330    0.63000000    2.82999992
   13.68638897  158.51400757    0.63000000    2.80999994
   13.68944454  164.49099731    0.63000000    2.80999994
   13.69277763  159.11999512    0.61000001    2.80999994
   13.69611073  170.58299255    0.61000001    2.80999994
   13.69916630  161.17500305    0.63000000    2.82999992
   13.70249939  157.14599609    0.64999998    2.80999994
   13.70861053  157.14599609    0.64999998    2.80999994
   13.71277714  157.19299316    0.67000002    2.82999992
   13.71361065  153.78700256    0.67000002    2.82999992
   13.71638870  150.18099976    0.69000000    2.80999994
   13.71972179  159.32099915    0.73000002    2.82999992
   13.72277737  150.80099487    0.79000002    2.82999992
   13.72611046  155.05200195    0.76999998    2.82999992
   13.72944355  151.81599426    0.76999998    2.82999992
   13.73249912  156.47599792    0.76999998    2.82999992
   13.73583317  149.75000000    0.76999998    2.82999992
   13.73888874  149.39999390    0.75000000    2.82999992
   13.74222279  157.30700684    0.70999998    2.82999992
   13.74555588  149.27600098    0.75000000    2.82999992
   13.74694443  140.69500732    0.75000000    2.82999992
   13.75138855  140.69500732    0.79000002    2.80999994
   13.75555515  157.97999573    0.76999998    2.80999994
   13.75861073  152.84300232    0.75000000    2.82999992
   13.76194477  146.44599915    0.80000001    2.82999992
   13.76527786  149.55700684    0.80000001    2.82999992
   13.76833344  152.61500549    0.80000001    2.82999992
   13.77166653  153.79600525    0.80000001    2.82999992
   13.77499962  163.37300110    0.83999997    2.82999992
   13.77805519  160.97799683    0.86000001    2.82999992
   13.78027725  156.76300049    0.86000001    2.82999992
   13.78166676  152.35200500    0.86000001    2.82999992
   13.78500080  154.51199341    0.86000001    2.82999992
   13.78805637  152.15499878    0.80000001    2.82999992
   13.79416752  152.15499878    0.76999998    2.82999992
   13.79833412  155.22599792    0.76999998    2.82999992
   13.80166721  140.48199463    0.76999998    2.82999992
   13.80472279  151.50399780    0.76999998    2.82999992
   13.80805588  141.86500549    0.76999998    2.82999992
   13.81138897  144.55499268    0.69000000    2.82999992
   13.81361103  154.10000610    0.64999998    2.82999992
   13.81500053  157.50500488    0.64999998    2.82999992
   13.81833363  150.37300110    0.67000002    2.82999992
   13.82138920  145.44799805    0.69000000    2.82999992
   13.82472229  142.55200195    0.69000000    2.82999992
   13.82805538  140.49699402    0.67000002    2.82999992
   13.83111095  153.71099854    0.63000000    2.84999990
   13.83694458  153.71099854    0.67000002    2.84999990
   13.84111118  137.99600220    0.67000002    2.84999990
   13.84444427  151.50599670    0.70999998    2.84999990
   13.84694386  154.39599609    0.69000000    2.82999992
   13.84805489  153.91099548    0.69000000    2.82999992
   13.85138893  145.06399536    0.67000002    2.84999990
   13.85444450  147.66299438    0.69000000    2.82999992
   13.85777855  156.37600708    0.67000002    2.84999990
   13.86111164  152.20199585    0.63000000    2.82999992
   13.86416721  150.81900024    0.58999997    2.84999990
   13.86750031  146.31300354    0.58999997    2.82999992
   13.87055588  151.83999634    0.58999997    2.84999990
   13.87388897  144.41000366    0.56999999    2.82999992
   13.88000011  144.41000366    0.61000001    2.84999990
   13.89833355  146.79499817    0.76999998    2.82999992
   13.90166664  153.71200562    0.73000002    2.82999992
   13.90472221  146.89399719    0.79000002    2.82999992
   13.90805531  158.48800659    0.79000002    2.82999992
   13.91111088  143.83799744    0.79000002    2.84999990
   13.91444397  155.05999756    0.80000001    2.84999990
   13.91777802  154.03900146    0.75000000    2.82999992
   13.92305565  154.03900146    0.75000000    2.82999992
   13.92722225  138.94999695    0.75000000    2.84999990
   13.93027782  147.89300537    0.55000001    2.84999990
   13.93138885  137.48500061    0.52999997    2.84999990
   13.93388939  140.09700012    0.50000000    2.84999990
   13.93722248  141.17399597    0.47999999    2.84999990
   13.94055557  153.03500366    0.47999999    2.84999990
   13.94361115  148.04299927    0.46000001    2.82999992
   13.94694424  145.42500305    0.50000000    2.84999990
   13.95027733  144.94999695    0.58999997    2.84999990
   13.95333290  140.60800171    0.58999997    2.84999990
   13.95666695  143.28999329    0.63000000    2.82999992
   13.95972157  142.46899414    0.73000002    2.82999992
   13.96583271  142.46899414    0.79000002    2.82999992
   13.96999931  142.63000488    0.80000001    2.84999990
   13.97305489  143.26100159    0.80000001    2.84999990
   13.97638798  148.29699707    0.70999998    2.84999990
   13.97972202  149.58399963    0.64999998    2.84999990
   13.98277760  148.51300049    0.67000002    2.84999990
   13.98611164  151.76800537    0.67000002    2.84999990
   13.98944473  151.14599609    0.67000002    2.84999990
   13.99250031  158.82099915    0.73000002    2.82999992
   13.99583340  154.24899292    0.75000000    2.84999990
   13.99805546  145.27099609    0.75000000    2.84999990
   13.99916649  148.84199524    0.76999998    2.84999990
   14.00249958  151.06199646    0.81999999    2.84999990
   14.00861073  151.06199646    0.76999998    2.84999990
   14.01277733  148.03100586    0.76999998    2.82999992
   14.01611137  155.03399658    0.75000000    2.84999990
   14.01916599  147.81300354    0.69000000    2.84999990
   14.02250004  157.12399292    0.69000000    2.84999990
   14.02583313  158.59500122    0.61000001    2.86999989
   14.02888870  156.41299438    0.61000001    2.82999992
   14.03138828  151.47399902    0.61000001    2.82999992
   14.03277779  151.85699463    0.61000001    2.82999992
   14.03583336  128.58799744    0.58999997    2.84999990
   14.03916740  147.92900085    0.63000000    2.84999990
   14.04250050  146.50700378    0.67000002    2.84999990
   14.04555607  152.17799377    0.67000002    2.84999990
   14.05166721  152.17799377    0.69000000    2.84999990
   14.05555534  147.33599854    0.67000002    2.84999990
   14.05888939  142.05700684    0.69000000    2.84999990
   14.06222248  147.41999817    0.73000002    2.84999990
   14.06472206  141.18299866    0.79000002    2.84999990
   14.06583309  141.65400696    0.79000002    2.84999990
   14.06888866  140.70399475    0.80000001    2.84999990
   14.07222176  148.34199524    0.80000001    2.84999990
   14.07555580  154.27000427    0.80000001    2.84999990
   14.07861137  138.81199646    0.79000002    2.84999990
   14.08194447  151.07400513    0.79000002    2.84999990
   14.08500004  143.34800720    0.75000000    2.82999992
   14.08833313  149.66999817    0.67000002    2.86999989
   14.09444427  149.66999817    0.75000000    2.82999992
   14.09861088  155.46899414    0.76999998    2.84999990
   14.10166740  157.23699951    0.70999998    2.84999990
   14.10500050  157.91900635    0.70999998    2.84999990
   14.10833359  149.79100037    0.61000001    2.84999990
   14.11138916  161.56500244    0.63000000    2.84999990
   14.11472225  152.19599915    0.61000001    2.84999990
   14.11777782  158.04200745    0.61000001    2.84999990
   14.12111092  146.91999817    0.73000002    2.86999989
   14.12444496  142.55499268    0.80000001    2.84999990
   14.12750053  147.80499268    0.76999998    2.84999990
   14.13083363  156.27099609    0.76999998    2.84999990
   14.13138866  157.31100464    0.76999998    2.84999990
   14.13722229  157.31100464    0.75000000    2.86999989
   14.14138889  136.81300354    0.75000000    2.86999989
   14.14472198  146.83200073    0.75000000    2.84999990
   14.14777756  153.28599548    0.70999998    2.84999990
   14.15111065  145.66400146    0.73000002    2.84999990
   14.15444374  148.13200378    0.79000002    2.84999990
   14.15749931  145.66000366    0.75000000    2.84999990
   14.16083336  152.72099304    0.75000000    2.84999990
   14.16388893  167.25100708    0.70999998    2.84999990
   14.16472149  160.12600708    0.70999998    2.84999990
   14.16777802  175.46600342    0.75000000    2.84999990
   14.17083359  174.42599487    0.76999998    2.84999990
   14.17416668  146.96899414    0.81999999    2.84999990
   14.18000031  146.96899414    0.81999999    2.84999990
   14.18416691  158.53799438    0.83999997    2.84999990
   14.18750000  167.05299377    0.83999997    2.84999990
   14.19055557  153.03199768    0.69000000    2.84999990
   14.19388866  148.44999695    0.69000000    2.86999989
   14.19722271  148.70300293    0.61000001    2.84999990
   14.19805527  150.74000549    0.63000000    2.84999990
   14.20083332  153.31199646    0.63000000    2.84999990
   14.20388889  163.48100281    0.64999998    2.84999990
   14.20722198  157.77600098    0.69000000    2.84999990
   14.21027756  168.60200500    0.69000000    2.84999990
   14.21361065  157.72000122    0.69000000    2.84999990
   14.21694374  153.87399292    0.67000002    2.84999990
   14.22277737  153.87399292    0.73000002    2.84999990
   14.22694397  156.14100647    0.80000001    2.84999990
   14.23027706  157.86199951    0.98000002    2.86999989
   14.23138809  147.19500732    1.05999994    2.84999990
   14.23388958  150.79600525    1.05999994    2.84999990
   14.23694515  157.51499939    1.05999994    2.84999990
   14.24027824  154.60000610    1.07000005    2.84999990
   14.24333382  144.54600525    1.07000005    2.84999990
   14.24666691  153.13099670    1.13000000    2.84999990
   14.25000000  146.00500488    1.13000000    2.84999990
   14.25305557  155.95399475    1.11000001    2.84999990
   14.25638866  141.83500671    1.11000001    2.84999990
   14.25972176  166.42599487    1.16999996    2.84999990
   14.26583290  166.42599487    1.09000003    2.84999990
   14.26999950  148.10200500    1.07000005    2.84999990
   14.27305508  162.29499817    1.07000005    2.84999990
   14.27638817  154.61199951    1.05999994    2.84999990
   14.27972221  164.35299683    1.03999996    2.84999990
   14.28305531  153.85499573    1.03999996    2.84999990
   14.28611183  162.00500488    1.05999994    2.84999990
   14.28944492  161.75399780    1.01999998    2.84999990
   14.29277802  152.66600037    1.01999998    2.84999990
   14.29583359  160.85299683    1.01999998    2.84999990
   14.29805565  151.00300598    1.01999998    2.84999990
   14.29972267  144.30200195    1.07000005    2.84999990
   14.30277824  156.89999390    1.07000005    2.84999990
   14.30861092  156.89999390    1.11000001    2.86999989
   14.31277752  149.59500122    1.13000000    2.84999990
   14.31611156  167.86700439    1.14999998    2.84999990
   14.31916618  154.37300110    1.21000004    2.84999990
   14.32250023  161.38999939    1.44000006    2.84999990
   14.32555580  151.69500732    1.53999996    2.82999992
   14.32888889  152.68899536    1.44000006    2.82999992
   14.33138847  141.87800598    1.39999998    2.84999990
   14.33277798  148.65699768    1.38000000    2.84999990
   14.33583260  151.83399963    1.39999998    2.84999990
   14.33916664  153.52999878    1.44000006    2.82999992
   14.34249973  151.74899292    1.50000000    2.84999990
   14.34555531  147.29100037    1.58000004    2.84999990
   14.35138893  147.29100037    1.58000004    2.84999990
   14.35555553  151.50599670    1.64999998    2.84999990
   14.35888958  146.79699707    1.64999998    2.84999990
   14.36194515  147.26800537    1.66999996    2.84999990
   14.36472225  148.15600586    1.53999996    2.84999990
   14.36583328  153.85000610    1.53999996    2.84999990
   14.36888885  151.00199890    1.34000003    2.84999990
   14.37222195  152.69000244    1.33000004    2.84999990
   14.37555599  152.42599487    1.28999996    2.84999990
   14.37861156  153.99299622    1.28999996    2.84999990
   14.38194466  157.12199402    1.23000002    2.84999990
   14.38527775  149.36999512    1.21000004    2.84999990
   14.38833332  157.16000366    0.92000002    2.86999989
   14.39444447  157.16000366    0.94000000    2.84999990
   14.39833355  154.50100708    0.94000000    2.84999990
   14.40166664  151.87800598    0.98000002    2.86999989
   14.40499973  165.32299805    0.98000002    2.86999989
   14.40805531  174.04499817    0.98000002    2.86999989
   14.41138840  158.87100220    0.98000002    2.86999989
   14.41472149  159.44799805    1.00000000    2.86999989
   14.41777802  158.39399719    1.00000000    2.86999989
   14.42111111  147.58399963    0.98000002    2.84999990
   14.42444515  156.85400391    0.94000000    2.84999990
   14.42750072  154.33700562    0.98000002    2.84999990
   14.43083382  144.18400574    1.01999998    2.84999990
   14.43138885  153.28599548    1.01999998    2.84999990
   14.43722248  153.28599548    0.98000002    2.84999990
   14.44138908  166.79200745    1.01999998    2.86999989
   14.44444466  168.97799683    1.03999996    2.86999989
   14.44777775  189.52699280    1.03999996    2.86999989
   14.45083332  179.69500732    1.07000005    2.84999990
   14.45416641  183.79600525    1.00000000    2.84999990
   14.45749950  156.07899475    0.98000002    2.86999989
   14.46055508  162.71899414    0.98000002    2.84999990
   14.46388912  149.71000671    0.94000000    2.84999990
   14.46472168  146.80000305    0.76999998    2.86999989
   14.46749973  151.45899963    0.75000000    2.84999990
   14.47055531  153.08599854    0.76999998    2.86999989
   14.47388840  154.24699402    0.76999998    2.84999990
   14.47999954  154.24699402    0.80000001    2.86999989
   14.48416710  151.59599304    0.80000001    2.86999989
   14.48722267  149.15199280    0.79000002    2.86999989
   14.49055576  143.01800537    0.79000002    2.86999989
   14.49388885  156.83099365    0.79000002    2.86999989
   14.49694443  168.10200500    0.79000002    2.84999990
   14.49805546  157.69900513    0.79000002    2.84999990
   14.50083351  165.51499939    0.79000002    2.86999989
   14.50388908  160.58599854    0.70999998    2.86999989
   14.50722218  161.38299561    0.63000000    2.86999989
   14.51055527  167.74499512    0.63000000    2.86999989
   14.51361084  164.51699829    0.63000000    2.86999989
   14.51694393  156.57699585    0.69000000    2.86999989
   14.52277756  156.57699585    0.67000002    2.86999989
   14.52694416  158.76899719    0.69000000    2.86999989
   14.53027725  156.80299377    0.69000000    2.86999989
   14.53138828  151.48100281    0.69000000    2.86999989
   14.53388977  142.37100220    0.69000000    2.84999990
   14.53694534  146.48300171    0.73000002    2.86999989
   14.54027843  149.11799622    0.70999998    2.86999989
   14.54361153  153.22599792    0.73000002    2.86999989
   14.54666710  160.14399719    0.73000002    2.86999989
   14.55000019  154.84100342    0.76999998    2.86999989
   14.55305576  148.50799561    0.76999998    2.86999989
   14.55638885  152.75199890    0.73000002    2.86999989
   14.55972195  144.14399719    0.69000000    2.86999989
   14.56555557  144.14399719    0.58999997    2.86999989
   14.56972218  144.55499268    0.56999999    2.86999989
   14.57305527  143.17900085    0.56999999    2.86999989
   14.57638836  154.19000244    0.56999999    2.86999989
   14.57944393  151.38600159    0.58999997    2.86999989
   14.58277798  155.93699646    0.61000001    2.86999989
   14.58583260  146.23199463    0.63000000    2.86999989
   14.58916664  155.33999634    0.61000001    2.86999989
   14.59249973  147.55400085    0.61000001    2.86999989
   14.59555531  144.53900146    0.63000000    2.89000010
   14.59805489  156.61099243    0.63000000    2.89000010
   14.59944439  158.52200317    0.63000000    2.89000010
   14.60249996  144.87199402    0.64999998    2.86999989
   14.60861111  144.87199402    0.61000001    2.86999989
   14.61277771  163.12100220    0.64999998    2.86999989
   14.61583328  151.90899658    0.64999998    2.86999989
   14.61916637  154.63999939    0.64999998    2.86999989
   14.62250042  144.15800476    0.64999998    2.86999989
   14.62555599  143.02400208    0.64999998    2.86999989
   14.62888908  140.47200012    0.64999998    2.86999989
   14.63138866  143.57400513    0.64999998    2.86999989
   14.63249969  149.71400452    0.64999998    2.86999989
   14.63555527  150.44099426    0.64999998    2.86999989
   14.63888836  156.87800598    0.58999997    2.89000010
   14.64222240  151.59399414    0.58999997    2.86999989
   14.64527798  144.28300476    0.58999997    2.86999989
   14.65138817  144.28300476    0.56999999    2.86999989
   14.65555477  156.81199646    0.58999997    2.86999989
   14.65861034  152.63900757    0.58999997    2.89000010
   14.66194439  152.17399597    0.58999997    2.86999989
   14.66472149  143.38900757    0.58999997    2.86999989
   14.66555500  146.57899475    0.58999997    2.86999989
   14.66861153  151.30900574    0.55000001    2.86999989
   14.67194462  148.47599792    0.58999997    2.86999989
   14.67527771  152.36399841    0.61000001    2.86999989
   14.67833328  150.23800659    0.61000001    2.86999989
   14.68166733  150.56599426    0.63000000    2.89000010
   14.68500042  153.34100342    0.67000002    2.86999989
   14.68805599  153.30000305    0.75000000    2.86999989
   14.69444466  153.30000305    0.75000000    2.86999989
   14.69861126  150.64700317    0.75000000    2.89000010
   14.70166683  163.05700684    0.76999998    2.86999989
   14.70499992  172.39599609    0.76999998    2.86999989
   14.70833302  167.74499512    0.75000000    2.86999989
   14.71138859  160.23100281    0.75000000    2.86999989
   14.71472168  152.22999573    0.75000000    2.89000010
   14.71777725  151.75100708    0.75000000    2.86999989
   14.72111034  154.23899841    0.76999998    2.86999989
   14.72444439  157.30099487    0.76999998    2.86999989
   14.72749996  156.53399658    0.80000001    2.86999989
   14.73083305  157.19599915    0.80000001    2.86999989
   14.73138809  145.18699646    0.80000001    2.86999989
   14.73694515  145.18699646    0.79000002    2.86999989
   14.74111176  162.10699463    0.76999998    2.86999989
   14.74444485  154.02799988    0.80000001    2.86999989
   14.74777794  153.10099792    0.81999999    2.86999989
   14.75083351  154.92100525    0.81999999    2.86999989
   14.75416660  141.36700439    0.81999999    2.86999989
   14.75749969  155.11599731    0.81999999    2.86999989
   14.76055527  150.16000366    0.86000001    2.89000010
   14.76388931  158.52499390    0.94000000    2.86999989
   14.76472187  157.32200623    0.94000000    2.86999989
   14.76749992  161.15499878    1.01999998    2.86999989
   14.77083302  160.24200439    1.03999996    2.86999989
   14.77388859  168.47200012    1.03999996    2.86999989
   14.77999973  168.47200012    1.01999998    2.86999989
   14.78416729  167.81300354    0.88000000    2.86999989
   14.78722286  183.91999817    0.89999998    2.86999989
   14.79055595  194.86500549    0.89999998    2.86999989
   14.79361153  172.16499329    0.89999998    2.86999989
   14.79694462  185.12399292    0.88000000    2.86999989
   14.79805565  185.16200256    0.88000000    2.86999989
   14.80055618  176.30299377    0.88000000    2.86999989
   14.80361176  160.00100708    0.89999998    2.86999989
   14.80694485  163.91499329    0.89999998    2.86999989
   14.81027794  157.45799255    0.92000002    2.89000010
   14.81333351  156.92799377    1.03999996    2.89000010
   14.81666660  173.19500732    1.14999998    2.86999989
   14.82277775  173.19500732    1.11000001    2.86999989
   14.82694435  154.84199524    1.26999998    2.86999989
   14.82999992  150.63299561    1.13000000    2.86999989
   14.83138847  140.31300354    1.13000000    2.86999989
   14.83388901  149.17199707    1.11000001    2.86999989
   14.83722210  152.67300415    1.11000001    2.89000010
   14.84027767  151.24400330    1.09000003    2.86999989
   14.84361076  136.75300598    1.09000003    2.86999989
   14.84666634  149.33900452    0.95999998    2.86999989
   14.85000038  148.73500061    0.92000002    2.86999989
   14.85333347  136.16600037    0.89999998    2.86999989
   14.85638905  155.79400635    0.89999998    2.86999989
   14.85972214  149.52400208    0.83999997    2.86999989
   14.86555576  149.52400208    0.69000000    2.89000010
   14.86972237  152.04699707    0.67000002    2.86999989
   14.87305546  143.95199585    0.69000000    2.89000010
   14.87611103  149.00000000    0.70999998    2.89000010
   14.87944412  149.45599365    0.75000000    2.89000010
   14.88277817  149.22500610    0.75000000    2.89000010
   14.88583279  146.46499634    0.75000000    2.89000010
   14.88916683  150.84199524    0.73000002    2.89000010
   14.89222240  153.46499634    0.67000002    2.89000010
   14.89555550  148.59700012    0.67000002    2.89000010
   14.89805508  144.25599670    0.64999998    2.89000010
   14.91888905  144.25599670    0.58999997    2.86999989
   14.92277813  151.43699646    0.56999999    2.89000010
   14.92611122  145.92900085    0.56999999    2.89000010
   14.92944431  151.88000488    0.51999998    2.89000010
   14.93138885  149.00100708    0.52999997    2.89000010
   14.93305588  147.01400757    0.52999997    2.89000010
   14.93638897  151.20500183    0.51999998    2.89000010
   14.93944454  149.53300476    0.51999998    2.89000010
   14.94277763  157.72999573    0.50000000    2.89000010
   14.94611073  150.60200500    0.51999998    2.89000010
   14.94916630  160.05599976    0.51999998    2.89000010
   14.95249939  143.64500427    0.69000000    2.89000010
   14.95583344  149.04100037    0.76999998    2.89000010
   14.96138859  149.04100037    0.76999998    2.86999989
   14.96555519  154.38699341    0.86000001    2.86999989
   14.96888828  161.84599304    0.88000000    2.89000010
   14.97222137  154.13699341    0.94000000    2.86999989
   14.97527695  153.50100708    0.98000002    2.86999989
   14.97861099  152.91900635    1.03999996    2.86999989
   14.98166656  145.71099854    1.07000005    2.89000010
   14.98500061  156.09599304    1.09000003    2.86999989
   14.98833370  156.39300537    1.09000003    2.86999989
   14.99138927  148.65400696    1.13000000    2.86999989
   14.99472237  152.98500061    1.09000003    2.86999989
   14.99805546  138.74000549    1.00000000    2.86999989
   14.99833393  140.93800354    0.98000002    2.86999989
   15.00444412  140.93800354    0.89999998    2.89000010
   15.00861073  142.28700256    0.88000000    2.89000010
   15.01166630  137.05499268    0.89999998    2.86999989
   15.01500034  141.35499573    0.88000000    2.89000010
   15.01805496  144.05400085    0.88000000    2.89000010
   15.02138901  147.65699768    0.86000001    2.89000010
   15.02472210  144.90800476    0.81999999    2.89000010
   15.02777767  144.79899597    0.81999999    2.89000010
   15.03111076  145.56300354    0.81999999    2.89000010
   15.03194427  146.64599609    0.81999999    2.89000010
   15.03472233  137.48500061    0.83999997    2.89000010
   15.03805637  150.87500000    0.81999999    2.89000010
   15.04111195  139.58700562    0.73000002    2.89000010
   15.04722309  139.58700562    0.79000002    2.89000010
   15.05138874  149.42500305    0.80000001    2.89000010
   15.05444431  153.86900330    0.80000001    2.89000010
   15.05777836  144.44599915    0.80000001    2.89000010
   15.06111145  146.78399658    0.79000002    2.89000010
   15.06416702  147.10200500    0.80000001    2.89000010
   15.06527805  143.92900085    0.79000002    2.89000010
   15.06777763  149.34899902    0.81999999    2.89000010
   15.07111073  148.91099548    0.80000001    2.89000010
   15.07416630  142.70199585    0.80000001    2.89000010
   15.07750034  149.15800476    0.76999998    2.89000010
   15.08083344  149.56199646    0.79000002    2.89000010
   15.08388901  138.70300293    0.79000002    2.89000010
   15.09000015  138.70300293    0.79000002    2.89000010
   15.09416676  137.88900757    0.81999999    2.89000010
   15.09749985  140.97300720    0.86000001    2.89000010
   15.09861088  140.70500183    0.86000001    2.89000010
   15.10111141  128.94099426    0.86000001    2.89000010
   15.10444450  144.29100037    0.86000001    2.89000010
   15.10750008  142.84700012    0.86000001    2.89000010
   15.11083412  142.68699646    0.86000001    2.89000010
   15.11416721  143.93899536    0.83999997    2.89000010
   15.11722279  149.74400330    0.89999998    2.89000010
   15.12055588  142.09800720    0.92000002    2.86999989
   15.12388897  142.92399597    0.92000002    2.89000010
   15.12694454  156.17300415    0.92000002    2.89000010
   15.13277817  156.17300415    0.89999998    2.89000010
   15.13694477  147.25000000    0.75000000    2.89000010
   15.14027786  142.08500671    0.70999998    2.89000010
   15.14361095  142.31500244    0.70999998    2.89000010
   15.14666653  144.88200378    0.61000001    2.91000009
   15.14999962  140.44599915    0.50000000    2.91000009
   15.15305519  134.30299377    0.55000001    2.91000009
   15.15638828  134.03999329    0.55000001    2.89000010
   15.15972137  143.03399658    0.52999997    2.89000010
   15.16277695  138.27999878    0.55000001    2.89000010
   15.16527748  127.85099792    0.55000001    2.89000010
   15.16638851  145.50799561    0.55000001    2.89000010
   15.16972256  138.26899719    0.56999999    2.89000010
   15.17583370  138.26899719    0.58999997    2.89000010
   15.18000031  167.33500671    0.61000001    2.89000010
   15.18333340  185.78100586    0.67000002    2.89000010
   15.18638897  142.82000732    0.64999998    2.89000010
   15.18972206  154.32699585    0.64999998    2.89000010
   15.19305515  170.33599854    0.70999998    2.91000009
   15.19611073  152.49800110    0.73000002    2.91000009
   15.19861126  161.56700134    0.64999998    2.91000009
   15.19972229  139.32299805    0.64999998    2.91000009
   15.20305538  145.74000549    0.64999998    2.89000010
   15.20611095  129.00000000    0.64999998    2.89000010
   15.20944405  149.03199768    0.64999998    2.89000010
   15.21277714  148.02999878    0.55000001    2.89000010
   15.21861076  148.02999878    0.47999999    2.91000009
   15.22277737  141.12300110    0.47999999    2.91000009
   15.22583294  147.75000000    0.47999999    2.91000009
   15.22916603  145.38999939    0.47999999    2.91000009
   15.23194408  141.00300598    0.50000000    2.91000009
   15.23277760  147.19000244    0.50000000    2.91000009
   15.23611164  143.34199524    0.51999998    2.89000010
   15.23944473  139.11500549    0.56999999    2.91000009
   15.24250031  149.52900696    0.56999999    2.89000010
   15.24583340  154.35400391    0.56999999    2.89000010
   15.24888897  158.49699402    0.58999997    2.89000010
   15.25222206  151.25700378    0.58999997    2.89000010
   15.25555515  128.39900208    0.58999997    2.91000009
   15.26138878  128.39900208    0.58999997    2.91000009
   15.26555538  160.55000305    0.58999997    2.91000009
   15.26888847  131.60800171    0.58999997    2.91000009
   15.27194405  162.89300537    0.58999997    2.91000009
   15.27527714  144.41700745    0.58999997    2.91000009
   15.27861118  141.78100586    0.58999997    2.91000009
   15.28166676  138.90899658    0.61000001    2.89000010
   15.28500080  144.41999817    0.73000002    2.91000009
   15.28805637  150.07800293    0.75000000    2.91000009
   15.29138947  142.42799377    4.90999985    3.00000000
   15.29472256  137.08200073    0.09000000    0.56999999
   15.29777813  133.12199402    0.05000000    0.34000000
   15.29861164  143.21000671    0.05000000    0.34000000
   15.30416679  143.21000671    0.05000000    0.05000000
   15.30833340  152.61799622    0.05000000    0.05000000
   15.31166649  152.05999756    0.05000000    0.05000000
   15.31500053  150.69700623    0.05000000    0.05000000
   15.31805515  139.45700073    0.05000000    0.05000000
   15.32138920  134.70500183    0.05000000    0.05000000
   15.32444477  151.80999756    0.05000000    0.05000000
   15.32777786  168.29800415    0.05000000    0.05000000
   15.33111095  149.36900330    0.05000000    0.05000000
   15.33194447  158.26100159    0.05000000    0.05000000
   15.33444405  151.27000427    0.05000000    0.05000000
   15.33777714  131.35899353    0.05000000    0.05000000
   15.34111118  169.40199280    0.05000000    0.05000000
   15.34722233  169.40199280    0.05000000    0.05000000
   15.35138893  143.08000183    0.05000000    0.05000000
   15.35444450  147.45799255    0.05000000    0.05000000
   15.35777855  154.67100525    0.05000000    0.05000000
   15.36111164  154.25900269    0.05000000    0.05000000
   15.36416721  162.54699707    0.05000000    0.05000000
   15.36527824  141.19400024    0.05000000    0.05000000
   15.36777782  147.89599609    0.05000000    0.05000000
   15.37111092  159.18699646    0.05000000    0.05000000
   15.37444496  165.87600708    0.05000000    0.05000000
   15.37750053  166.22799683    0.05000000    0.05000000
   15.38083363  160.32099915    0.05000000    0.05000000
   15.38388920  141.88699341    0.05000000    0.05000000
   15.39000034  141.88699341    0.05000000    0.05000000
   15.39416695  144.75100708    0.05000000    0.05000000
   15.39722252  154.93400574    0.05000000    0.05000000
   15.39861107  141.52699280    0.05000000    0.05000000
   15.40083313  147.06100464    0.05000000    0.05000000
   15.40416622  148.56799316    0.05000000    0.05000000
   15.40749931  157.54600525    0.05000000    0.05000000
   15.41055489  151.53500366    0.05000000    0.05000000
   15.41388893  149.23100281    0.05000000    0.05000000
   15.41694450  136.76199341    0.05000000    0.05000000
   15.42027855  150.25599670    0.05000000    0.05000000
   15.42361164  137.92900085    0.05000000    0.05000000
   15.42666721  157.28700256    0.05000000    0.05000000
   15.43277836  157.28700256    0.05000000    0.05000000
   15.43694496  140.18400574    0.05000000    0.05000000
   15.44027805  168.14100647    0.05000000    0.05000000
   15.44333363  157.02200317    0.05000000    0.05000000
   15.44666672  134.42700195    0.05000000    0.05000000
   15.44999981  149.47200012    0.05000000    0.05000000
   15.45305538  157.94900513    0.05000000    0.05000000
   15.45638847  136.07099915    0.05000000    0.05000000
   15.45944405  143.47200012    0.05000000    0.05000000
   15.46277714  140.11099243    0.05000000    0.05000000
   15.46527767  154.02699280    0.05000000    0.05000000
   15.46638870  153.13400269    0.05000000    0.05000000
   15.46972179  145.02299500    0.05000000    0.05000000
   15.47555542  145.02299500    0.05000000    0.05000000
   15.47972202  127.42500305    0.05000000    0.05000000
   15.48305511  136.36599731    0.05000000    0.05000000
   15.48638916  139.73699951    0.05000000    0.05000000
   15.48944473  154.98300171    0.05000000    0.05000000
   15.49277782  156.32000732    0.05000000    0.05000000
   15.49583340  130.36599731    0.05000000    0.05000000
   15.49861145  145.41200256    0.05000000    0.05000000
   15.49944496  157.30999756    0.05000000    0.05000000
   15.50277805  144.24899292    0.05000000    0.05000000
   15.50611115  173.48199463    0.05000000    0.05000000
   15.50916672  152.73800659    0.05000000    0.05000000
   15.51249981  150.87500000    0.05000000    0.05000000
   15.51861095  150.87500000    0.05000000    0.05000000
   15.52277756  164.13299561    0.05000000    0.05000000
   15.52583313  158.81900024    0.05000000    0.05000000
   15.52916622  142.71400452    0.05000000    0.05000000
   15.53194427  144.99899292    0.05000000    0.05000000
   15.53277779  161.64199829    0.05000000    0.05000000
   15.53611183  145.53700256    0.05000000    0.05000000
   15.53944492  156.64599609    0.05000000    0.05000000
   15.54250050  148.24600220    0.05000000    0.05000000
   15.54583359  166.47500610    0.05000000    0.05000000
   15.54916668  157.42300415    0.05000000    0.05000000
   15.55222225  160.52900696    0.05000000    0.05000000
   15.55555534  162.27600098    0.05000000    0.05000000
   15.56138897  162.27600098    0.05000000    0.05000000
   15.56555557  140.63800049    0.05000000    0.05000000
   15.56861115  158.67300415    0.05000000    0.05000000
   15.57194424  167.16299438    0.05000000    0.05000000
   15.57527733  146.89100647    0.05000000    0.05000000
   15.57833290  144.14100647    0.05000000    0.05000000
   15.58166695  153.06300354    0.05000000    0.05000000
   15.58500004  136.20399475    0.05000000    0.05000000
   15.58805561  142.35099792    0.05000000    0.05000000
   15.59138870  135.23399353    0.05000000    0.05000000
   15.59444427  136.81300354    0.05000000    0.05000000
   15.59777737  149.70799255    0.05000000    0.05000000
   15.59861088  155.46000671    0.05000000    0.05000000
   15.60416698  155.46000671    0.05000000    0.05000000
   15.60888958  161.63999939    0.00000000    0.00000000
   15.61277771  168.40899658    0.00000000    0.00000000
   15.61666679  163.56599426    0.00000000    0.00000000
   15.62055588  127.23500061    0.00000000    0.00000000
   15.62444496  156.27699280    0.00000000    0.00000000
   15.62833309  165.28599548    0.00000000    0.00000000
   15.63222218  134.66799927    0.00000000    0.00000000
   15.63249969  152.86300659    0.00000000    0.00000000
   15.63611126  149.16400146    0.00000000    0.00000000
   15.64000034  157.39599609    0.00000000    0.00000000
   15.64388847  151.80900574    0.00000000    0.00000000
   15.64888859  151.80900574    0.00000000    0.00000000
   15.65361118  142.60400391    0.00000000    0.00000000
   15.65722179  153.89700317    0.00000000    0.00000000
   15.66111088  137.64100647    0.00000000    0.00000000
   15.66499996  134.68699646    0.00000000    0.00000000
   15.66583252  138.72099304    0.00000000    0.00000000
   15.66916656  143.71099854    0.00000000    0.00000000
   15.67305565  143.68400574    0.00000000    0.00000000
   15.67694473  148.83399963    0.00000000    0.00000000
   15.68083382  147.35000610    0.00000000    0.00000000
   15.68472195  134.07600403    0.00000000    0.00000000
   15.69138908  134.07600403    0.00000000    0.00000000
   15.69638920  147.80499268    0.00000000    0.00000000
   15.69999981  158.43200684    0.00000000    0.00000000
   15.70055580  165.28999329    0.00000000    0.00000000
