    HOUR (UT)   FLARE FACTOR    SKY TESTER    SUN TESTER
   11.82138920   -1.00000000   -1.00000000   -1.00000000
   11.85111141  212.93200684    4.90999985    2.28999996
   11.85444450  188.61000061    4.90999985    2.30999994
   11.85750008  195.50399780    4.90999985    2.34999990
   11.86083412  198.05599976    4.90999985    2.36999989
   11.86388969  190.87100220    4.90999985    2.36999989
   11.86722279  194.85400391    4.90999985    2.32999992
   11.87138939  194.85400391    4.90999985    2.23000002
   11.87555599  228.43499756    4.90999985    2.19000006
   11.87861156  176.15899658    4.90999985    2.13000011
   11.88194466  208.34100342    4.90999985    2.28999996
   11.88444424  266.68600464    4.90999985    2.26999998
   11.88583279  216.41000366    4.90999985    2.17000008
   11.88888836  208.96400452    4.90999985    2.05999994
   11.89222240  211.03900146    4.90999985    2.25000000
   11.89527798  240.56799316    4.90999985    2.15000010
   11.89861107  273.94601440    4.90999985    1.86000001
   11.90194416  241.38900757    4.90999985    2.19000006
   11.90499973  199.33099365    4.90999985    2.13000011
   11.90833282  247.66600037    4.90999985    2.03999996
   11.91416645  247.66600037    4.90999985    1.73000002
   11.91833401   -1.00000000    4.90999985    1.07000005
   11.92166710   -1.00000000    4.90999985    0.81999999
   11.92472267   -1.00000000    4.90999985    0.80000001
   11.92805576   -1.00000000    4.90999985    0.73000002
   11.93111134   -1.00000000    4.90999985    0.61000001
   11.93444443   -1.00000000    4.90999985    0.69000000
   11.93777752   -1.00000000    4.90999985    0.80000001
   11.94083309   -1.00000000    4.90999985    0.81999999
   11.94416714   -1.00000000    4.90999985    1.21000004
   11.94722271   -1.00000000    4.90999985    1.14999998
   11.95055580   -1.00000000    4.90999985    0.94000000
   11.96111107   -1.00000000    4.90999985    1.11000001
   11.96444416  101.58899689    4.90999985    1.23000002
   11.96749973  212.60499573    4.90999985    1.53999996
   11.97083282  202.71000671    4.90999985    1.71000004
   11.97388840  209.12100220    4.90999985    2.01999998
   11.97777748  253.78199768    4.90999985    2.09999990
   11.98111057  190.25500488    4.90999985    2.17000008
   11.98444462  195.32200623    4.90999985    2.28999996
   11.98500061  193.41099548    4.90999985    2.28999996
   11.98805618  189.02699280    4.90999985    2.32999992
   11.99138927  182.91999817    4.90999985    2.39000010
   11.99444485  188.69999695    4.90999985    2.36999989
   12.00000000  188.69999695    4.90999985    2.39000010
   12.00416660  170.98199463    4.90999985    2.30999994
   12.00722218  212.13099670    4.90999985    2.28999996
   12.01055527  226.31700134    4.90999985    2.07999992
   12.01388931  215.05799866    4.90999985    1.88000000
   12.01694393  215.30400085    4.90999985    1.75000000
   12.01777744  251.01300049    4.90999985    1.69000006
   12.02083302  323.22100830    4.90999985    2.00000000
   12.02388859  230.08799744    4.90999985    2.07999992
   12.02722168  249.78399658    4.90999985    2.21000004
   12.03027725  186.15699768    4.90999985    2.11999989
   12.03361130  164.11999512    4.90999985    2.23000002
   12.03694534  222.39500427    4.90999985    2.21000004
   12.04277802  222.39500427    4.90999985    2.11999989
   12.04694462  232.38299561    4.90999985    2.09999990
   12.05000019  163.97799683    4.90999985    2.11999989
   12.05111122  166.12699890    4.90999985    2.17000008
   12.05388927  194.27999878    4.90999985    2.25000000
   12.05694485  163.77400208    4.90999985    2.21000004
   12.06027794  183.20500183    4.90999985    2.36999989
   12.06333351  220.11700439    4.90999985    2.26999998
   12.06666660  179.11999512    4.90999985    2.23000002
   12.06999969  178.30700684    4.90999985    2.36999989
   12.07305527  183.58299255    4.90999985    2.39000010
   12.07638836  177.89199829    4.90999985    2.39000010
   12.07972240  173.96499634    4.90999985    2.36999989
   12.08555508  173.96499634    4.90999985    2.30999994
   12.08972168  188.74600220    4.90999985    2.34999990
   12.09305477  167.59800720    4.90999985    2.30999994
   12.09611034  175.23800659    4.90999985    2.39000010
   12.09944439  171.65800476    4.90999985    2.40000010
   12.10277843  176.55400085    4.90999985    2.39000010
   12.10583401  169.12100220    4.90999985    2.39000010
   12.10916710  163.20100403    4.90999985    2.39000010
   12.11222267  169.12199402    4.90999985    2.39000010
   12.11555576  163.98899841    4.90999985    2.39000010
   12.11777782  164.65600586    4.90999985    2.36999989
   12.11944485  169.94000244    4.90999985    2.39000010
   12.12250042  159.94400024    4.90999985    2.39000010
   12.12833309  159.94400024    4.90999985    2.36999989
   12.13249969  176.21400452    4.90999985    2.36999989
   12.13583279  173.17999268    4.90999985    2.36999989
   12.13888836  176.66499329    4.90999985    2.36999989
   12.14222240  183.77299500    4.90999985    2.36999989
   12.14555550  165.02200317    4.90999985    2.36999989
   12.14861107  173.66499329    4.90999985    2.36999989
   12.15111065  172.43099976    4.90999985    2.34999990
   12.15249920  176.68200684    4.90999985    2.36999989
   12.15555477  176.56799316    4.90999985    2.36999989
   12.15888882  168.06700134    4.90999985    2.34999990
   12.16194439  183.50399780    4.90999985    2.34999990
   12.16527748  169.50599670    4.90999985    2.34999990
   12.17138958  169.50599670    4.90999985    2.36999989
   12.17555618  166.64199829    4.90999985    2.36999989
   12.17861176  172.18600464    4.90999985    2.34999990
   12.18222237  176.58900452    4.90999985    2.36999989
   12.18444443  176.47599792    4.90999985    2.34999990
   12.18583298  171.51300049    4.90999985    2.34999990
   12.18888855  169.97799683    4.90999985    2.34999990
   12.19222260  181.22599792    4.90999985    2.34999990
   12.19527817  168.20399475    4.90999985    2.34999990
   12.19861126  171.00500488    4.90999985    2.34999990
   12.20194435  181.72700500    4.90999985    2.34999990
   12.20499992  178.60899353    4.90999985    2.34999990
   12.20833302  175.16200256    4.90999985    2.34999990
   12.21416664  175.16200256    4.90999985    2.34999990
   12.21833324  171.95399475    4.90999985    2.34999990
   12.22138882  173.98899841    4.90999985    2.34999990
   12.22472191  181.84599304    4.90999985    2.34999990
   12.22805500  176.52499390    4.90999985    2.34999990
   12.23111057  179.43299866    4.90999985    2.34999990
   12.23444462  181.29600525    4.90999985    2.34999990
   12.23777771  180.21099854    4.90999985    2.34999990
   12.24083328  181.62500000    4.90999985    2.34999990
   12.24416733  177.11999512    4.90999985    2.34999990
   12.24722290  171.63200378    4.90999985    2.34999990
   12.25055599  179.74000549    4.90999985    2.34999990
   12.25111103  182.23899841    4.90999985    2.34999990
   12.25694466  182.23899841    4.90999985    2.34999990
   12.26111126  182.65800476    4.90999985    2.34999990
   12.26444435  187.13999939    4.90999985    2.34999990
   12.26749992  179.60800171    4.90999985    2.34999990
   12.27083302  177.61199951    4.90999985    2.34999990
   12.27416611  174.78399658    4.90999985    2.34999990
   12.27722168  213.12100220    4.90999985    2.34999990
   12.28055573  211.06300354    4.90999985    2.34999990
   12.28361130  215.75399780    4.90999985    2.34999990
   12.28444481  202.06100464    4.90999985    2.34999990
   12.28750038  212.13499451    4.90999985    2.34999990
   12.29055595  206.27799988    4.90999985    2.32999992
   12.29388905  209.88900757    4.90999985    2.34999990
   12.29972267  209.88900757    4.90999985    2.34999990
   12.30388927  223.62600708    4.90999985    2.34999990
   12.30722237  242.91200256    4.90999985    2.34999990
   12.31027794  211.69099426    4.90999985    2.34999990
   12.31361103  240.74899292    4.90999985    2.34999990
   12.31694412  220.15699768    4.90999985    2.34999990
   12.31777763  242.73699951    4.90999985    2.34999990
   12.32055569  239.98399353    4.90999985    2.34999990
   12.32361126  232.79600525    4.90999985    2.34999990
   12.32694435  227.25900269    4.90999985    2.34999990
   12.33027744  194.47099304    4.90999985    2.32999992
   12.33333302  213.72500610    4.90999985    2.32999992
   12.33666611  219.61399841    4.90999985    2.30999994
   12.34277725  219.61399841    4.90999985    2.30999994
   12.34694386  240.16900635    4.90999985    2.28999996
   12.35000038  207.08299255    4.90999985    2.30999994
   12.35111141  190.21000671    4.90999985    2.30999994
   12.35361195  223.79499817    4.90999985    2.30999994
   12.35666752  215.17999268    4.90999985    2.30999994
   12.36000061  225.91200256    4.90999985    2.28999996
   12.36333370  213.19999695    4.90999985    2.28999996
   12.36638927  214.25399780    4.90999985    2.28999996
   12.36972237  199.45899963    4.90999985    2.28999996
   12.37277794  200.88999939    4.90999985    2.26999998
   12.37611103  215.29200745    4.90999985    2.26999998
   12.37944412  218.60099792    4.90999985    2.26999998
   12.38555527  218.60099792    4.90999985    2.26999998
   12.38972187  204.76300049    4.90999985    2.28999996
   12.39277744  228.39399719    4.90999985    2.30999994
   12.39611053  229.30299377    4.90999985    2.28999996
   12.39944458  207.80799866    4.90999985    2.28999996
   12.40249920  209.00500488    4.90999985    2.28999996
   12.40583324  209.11599731    4.90999985    2.28999996
   12.40916634  207.29600525    4.90999985    2.28999996
   12.41222191  208.67599487    4.90999985    2.26999998
   12.41555500  192.42799377    4.90999985    2.25000000
   12.41777802  195.13900757    4.90999985    2.26999998
   12.41916656  198.41600037    4.90999985    2.28999996
   12.42222214  198.02099609    4.90999985    2.30999994
   12.42833328  198.02099609    4.90999985    2.30999994
   12.43249989  181.77400208    4.90999985    2.32999992
   12.43583298  173.55299377    4.90999985    2.32999992
   12.43888855  179.31300354    4.90999985    2.34999990
   12.44222260  168.44099426    4.90999985    2.39000010
   12.44555569  168.19999695    4.90999985    2.40000010
   12.44861126  171.20300293    4.90999985    2.44000006
   12.45111084  160.36900330    4.90999985    2.46000004
   12.45249939  166.29499817    4.90999985    2.46000004
   12.45555496  175.23399353    4.90999985    2.46000004
   12.45888901  168.74800110    4.90999985    2.46000004
   12.46222210  165.58599854    4.90999985    2.46000004
   12.46527767  159.01400757    4.90999985    2.46000004
   12.47111034  159.01400757    4.90999985    2.46000004
   12.47527695  186.12500000    4.90999985    2.46000004
   12.47861099  170.74499512    4.90999985    2.46000004
   12.48166656  183.61900330    4.90999985    2.42000008
   12.48444462  168.70500183    4.90999985    2.42000008
   12.48555565  169.70300293    4.90999985    2.42000008
   12.48861122  180.34300232    4.90999985    2.42000008
   12.49194431  179.35299683    4.90999985    2.42000008
   12.49527836  177.56399536    4.90999985    2.42000008
   12.49833393  181.44000244    4.90999985    2.40000010
   12.50166702  184.34599304    4.90999985    2.40000010
   12.50500011  180.11099243    4.90999985    2.40000010
   12.50805569  168.53599548    4.90999985    2.42000008
   12.51416683  168.53599548    4.90999985    2.40000010
   12.51805496  181.01100159    4.90999985    2.40000010
   12.52138901  176.98399353    4.90999985    2.40000010
   12.52472210  190.09800720    4.90999985    2.39000010
   12.52777767  188.43899536    4.90999985    2.34999990
   12.53111076  192.84300232    4.90999985    2.32999992
   12.53444481  196.86900330    4.90999985    2.32999992
   12.53750038  189.95599365    4.90999985    2.30999994
   12.54083347  204.50300598    4.90999985    2.28999996
   12.54388905  208.25100708    4.90999985    2.25000000
   12.54722309  222.47099304    4.90999985    2.25000000
   12.55055618  218.91999817    4.90999985    2.23000002
   12.55111122  227.04200745    4.90999985    2.23000002
   12.55694485  227.04200745    4.90999985    2.21000004
   12.56111145  235.83599854    4.90999985    2.17000008
   12.56416702  213.84100342    4.90999985    2.21000004
   12.56750011  201.57099915    4.90999985    2.26999998
   12.57083321  198.84599304    4.90999985    2.28999996
   12.57388878  207.58900452    4.90999985    2.26999998
   12.57722187  215.07200623    4.90999985    2.25000000
   12.58027744  208.29200745    4.90999985    2.28999996
   12.58361053  200.13200378    4.90999985    2.30999994
   12.58444405  200.04200745    4.90999985    2.30999994
   12.58722210  182.89700317    4.90999985    2.30999994
   12.59027767  187.15299988    4.90999985    2.34999990
   12.59361076  201.52499390    4.90999985    2.36999989
   12.59972191  201.52499390    4.90999985    2.39000010
   12.60388947  188.98199463    4.90999985    2.39000010
   12.60722256  193.08500671    4.90999985    2.39000010
   12.61027813  175.32400513    4.90999985    2.40000010
   12.61361122  179.52999878    4.90999985    2.40000010
   12.61666679  175.83799744    4.90999985    2.40000010
   12.61777782  178.85699463    4.90999985    2.42000008
   12.62055588  179.06399536    4.90999985    2.40000010
   12.62361145  182.44599915    4.90999985    2.42000008
   12.62694454  182.23500061    4.90999985    2.42000008
   12.63027763  183.28999329    4.90999985    2.42000008
   12.63333321  190.42500305    4.90999985    2.42000008
   12.63666630  181.70599365    4.90999985    2.42000008
   12.64249992  181.70599365    4.90999985    2.44000006
   12.64666653  179.17700195    4.90999985    2.46000004
   12.64999962  185.59700012    4.90999985    2.46000004
   12.65111065  174.02699280    4.90999985    2.46000004
   12.65361118  180.79499817    4.90999985    2.46000004
   12.65666676  189.77600098    4.90999985    2.46000004
   12.65999985  173.48199463    4.90999985    2.46000004
   12.66333294  168.44999695    4.90999985    2.46000004
   12.66638851  189.79299927    4.90999985    2.48000002
   12.66972256  182.07499695    4.90999985    2.48000002
   12.67305565  187.07699585    4.90999985    2.46000004
   12.67611122  174.46099854    4.90999985    2.48000002
   12.67944431  184.18800354    4.90999985    2.48000002
   12.68555546  184.18800354    4.90999985    2.48000002
   12.68944454  185.49299622    4.90999985    2.48000002
   12.69277763  183.92599487    4.90999985    2.46000004
   12.69611073  194.53700256    4.90999985    2.46000004
   12.69916630  188.79699707    4.90999985    2.44000006
   12.70249939  193.17100525    4.90999985    2.42000008
   12.70583344  184.64900208    4.90999985    2.40000010
   12.70888901  186.05999756    4.90999985    2.40000010
   12.71222210  186.36999512    4.90999985    2.39000010
   12.71527767  186.44900513    4.90999985    2.39000010
   12.71777725  194.21200562    4.90999985    2.39000010
   12.71916580  188.84300232    4.90999985    2.36999989
   12.72222137  195.14100647    4.90999985    2.36999989
   12.72833252  195.14100647    4.90999985    2.36999989
   12.73249912  205.62199402    4.90999985    2.36999989
   12.73555565  196.14300537    4.90999985    2.34999990
   12.73888874  205.78599548    4.90999985    2.36999989
   12.74222279  187.92100525    4.90999985    2.36999989
   12.74527836  189.54899597    4.90999985    2.39000010
   12.74861145  182.41799927    4.90999985    2.36999989
   12.75111103  175.25799561    4.90999985    2.40000010
   12.75222206  187.61300659    4.90999985    2.39000010
   12.75555515  168.79200745    4.90999985    2.40000010
   12.75861073  172.97999573    4.90999985    2.40000010
   12.76194477  181.61599731    4.90999985    2.42000008
   12.76500034  177.59300232    4.90999985    2.42000008
   12.77111053  177.59300232    4.90999985    2.40000010
   12.77527714  175.68899536    4.90999985    2.44000006
   12.77861118  160.88000488    4.90999985    2.46000004
   12.78166676  164.97099304    4.90999985    2.46000004
   12.78444481  176.52299500    4.90999985    2.46000004
   12.78527832  171.97599792    4.90999985    2.46000004
   12.78861141  166.18499756    4.90999985    2.48000002
   12.79166698  147.85200500    4.90999985    2.48000002
   12.79500008  154.70700073    4.90999985    2.48000002
   12.79805565  149.39599609    4.90999985    2.48000002
   12.80138874  153.66299438    4.90999985    2.48000002
   12.80472279  161.46000671    4.90999985    2.48000002
   12.80777836  155.96699524    4.90999985    2.48000002
   12.81388950  155.96699524    4.90999985    2.48000002
   12.81805515  160.21200562    4.90999985    2.48000002
   12.82138920  151.10499573    4.90999985    2.48000002
   12.82444477  159.28900146    4.90999985    2.50000000
   12.82777786  156.82299805    4.90999985    2.50000000
   12.83111095  156.39700317    4.90999985    2.50000000
   12.83416653  155.82899475    4.90999985    2.51999998
   12.83749962  151.07600403    4.90999985    2.51999998
   12.84083271  158.08599854    4.90999985    2.51999998
   12.84388828  168.97399902    4.90999985    2.51999998
   12.84722233  156.53599548    4.90999985    2.50000000
   12.85027790  158.57400513    4.90999985    2.50000000
   12.85111141  171.09899902    4.90999985    2.50000000
   12.87194443  171.09899902    4.90999985    2.50000000
   12.87611103  187.36099243    4.90999985    2.46000004
   12.87944412  195.05599976    4.90999985    2.46000004
   12.88249969  207.16600037    4.90999985    2.46000004
   12.88444424  201.23399353    4.90999985    2.46000004
   12.88611126  200.99499512    4.90999985    2.44000006
   12.88944435  197.21899414    4.90999985    2.44000006
   12.89249992  199.92300415    4.90999985    2.44000006
   12.89583302  201.82499695    4.90999985    2.46000004
   12.89916611  177.62399292    4.90999985    2.46000004
   12.90222168  184.75199890    4.90999985    2.46000004
   12.90555477  159.21899414    4.90999985    2.46000004
   12.90861034  161.23300171    4.90999985    2.48000002
   12.91472149  161.23300171    4.90999985    2.50000000
   12.91888905  175.44200134    4.90999985    2.50000000
   12.92194462  180.15100098    4.90999985    2.50000000
   12.92527771  197.49899292    4.90999985    2.50000000
   12.92861176  164.92399597    4.90999985    2.51999998
   12.93166733  179.05200195    4.90999985    2.51999998
   12.93500042  166.47000122    4.90999985    2.53999996
   12.93833351  164.44799805    4.90999985    2.53999996
   12.94138908  157.20300293    4.90999985    2.53999996
   12.94472218  168.82699585    4.90999985    2.53999996
   12.94777775  179.48500061    4.90999985    2.53999996
   12.95111084  163.27600098    4.90999985    2.55999994
   12.95166683  172.53599548    4.90999985    2.55999994
   12.95749950  172.53599548    4.90999985    2.55999994
   12.96166611  168.92100525    4.90999985    2.55999994
   12.96500015  167.66700745    4.90999985    2.55999994
   12.96805477  144.54899597    4.90999985    2.55999994
   12.97138882  155.07800293    4.90999985    2.55999994
   12.97472191  147.43299866    4.90999985    2.57999992
   12.97777748  157.56199646    4.90999985    2.57999992
   12.98111057  157.11599731    4.90999985    2.57999992
   12.98416710  166.11599731    4.90999985    2.57999992
   12.98500061  165.49299622    4.90999985    2.57999992
   12.98805618  166.06900024    4.90999985    2.57999992
   12.99111176  169.87800598    4.90999985    2.57999992
   12.99444485  162.77999878    4.90999985    2.57999992
   13.00027752  162.77999878    4.90999985    2.57999992
   13.00444412  158.33599854    4.90999985    2.57999992
   13.00777817  162.08200073    4.90999985    2.57999992
   13.01111126  170.04200745    4.90999985    2.57999992
   13.01416683  171.12199402    4.90999985    2.57999992
   13.01749992  164.53100586    4.90999985    2.57999992
   13.01833344  165.21000671    4.90999985    2.57999992
   13.02111053  156.38099670    4.90999985    2.57999992
   13.02416611  168.50000000    4.90999985    2.57999992
   13.02750015  164.31599426    4.90999985    2.57999992
   13.03083324  156.38999939    4.90999985    2.57999992
   13.03388977  155.95199585    4.90999985    2.57999992
   13.03722286  155.08500671    4.90999985    2.57999992
   13.04333401  155.08500671    4.90999985    2.57999992
   13.04750061  173.15299988    4.90999985    2.57999992
   13.05055618  168.24899292    4.90999985    2.57999992
   13.05166721  165.92599487    4.90999985    2.57999992
   13.05444431  167.27799988    4.90999985    2.57999992
   13.05749989  173.77400208    4.90999985    2.57999992
   13.06083393  172.90400696    4.90999985    2.55999994
   13.06416702  170.50700378    4.90999985    2.57999992
   13.06722260  158.65499878    4.90999985    2.57999992
   13.07055569  154.81599426    4.90999985    2.57999992
   13.07361126  163.41200256    4.90999985    2.55999994
   13.07694435  168.51899719    4.90999985    2.57999992
   13.08027744  168.63800049    4.90999985    2.55999994
   13.08611107  168.63800049    4.90999985    2.57999992
   13.09027767  159.89700317    4.90999985    2.55999994
   13.09333324  168.84500122    4.90999985    2.55999994
   13.09666634  170.93200684    4.90999985    2.55999994
   13.10000038  175.85499573    4.90999985    2.55999994
   13.10305595  162.23300171    4.90999985    2.55999994
   13.10638905  173.86500549    4.90999985    2.55999994
   13.10944462  164.73800659    4.90999985    2.53999996
   13.11277771  187.09599304    4.90999985    2.55999994
   13.11611176  167.22900391    4.90999985    2.55999994
   13.11833382  160.31700134    4.90999985    2.57999992
   13.11972237  152.43800354    4.90999985    2.57999992
   13.12277794  147.89300537    4.90999985    2.59999990
   13.12888908  147.89300537    4.90999985    2.57999992
   13.13305569  171.27099609    4.90999985    2.57999992
   13.13638878  175.80400085    4.90999985    2.57999992
   13.13944435  181.92700195    4.90999985    2.55999994
   13.14277744  175.64799500    4.90999985    2.55999994
   13.14583302  154.60400391    4.90999985    2.57999992
   13.14916611  173.36900330    4.90999985    2.55999994
   13.15166664  157.59199524    4.90999985    2.55999994
   13.15277767  164.33099365    4.90999985    2.55999994
   13.15583324  164.63499451    4.90999985    2.55999994
   13.15916634  166.00500488    4.90999985    2.55999994
   13.16249943  166.09899902    4.90999985    2.55999994
   13.16555500  167.09100342    4.90999985    2.55999994
   13.17166710  167.09100342    4.90999985    2.55999994
   13.17583370  147.14799500    4.90999985    2.57999992
   13.17916679  147.00399780    4.90999985    2.59999990
   13.18249989  148.50100708    4.90999985    2.59999990
   13.18500042  161.61999512    4.90999985    2.59999990
   13.18611145  162.87899780    4.90999985    2.59999990
   13.18916702  157.85800171    4.90999985    2.59999990
   13.19250011  148.79100037    4.90999985    2.59999990
   13.19583321  159.82600403    4.90999985    2.59999990
   13.19888878  162.80000305    4.90999985    2.57999992
   13.20222187  163.36000061    4.90999985    2.57999992
   13.20555496  151.94700623    4.90999985    2.59999990
   13.20861053  177.31900024    4.90999985    2.57999992
   13.21472168  177.31900024    4.90999985    2.53999996
   13.21888828  166.49499512    4.90999985    2.53999996
   13.22194386  159.88299561    4.90999985    2.53999996
   13.22527695  175.64599609    4.90999985    2.53999996
   13.22833252  156.63699341    4.90999985    2.55999994
   13.23166656  169.38200378    4.90999985    2.53999996
   13.23500061  167.82099915    4.90999985    2.53999996
   13.23805618  189.10899353    4.90999985    2.53999996
   13.24138927  166.86999512    4.90999985    2.50000000
   13.24472237  179.38499451    4.90999985    2.50000000
   13.24777794  151.16299438    4.90999985    2.50000000
   13.25111103  175.52999878    4.90999985    2.51999998
   13.25166702  160.99000549    4.90999985    2.53999996
   13.25749969  160.99000549    4.90999985    2.51999998
   13.26166630  180.82200623    4.90999985    2.50000000
   13.26472187  186.22500610    4.90999985    2.50000000
   13.26805496  191.34800720    4.90999985    2.50000000
   13.27138901  204.12300110    4.90999985    2.50000000
   13.27444458  192.38999939    4.90999985    2.46000004
   13.27777767  164.99099731    4.90999985    2.48000002
   13.28083324  169.22900391    4.90999985    2.53999996
   13.28416729  165.30999756    4.90999985    2.53999996
   13.28500080  175.77600098    4.90999985    2.53999996
   13.28777790  154.92799377    4.90999985    2.53999996
   13.29111195  173.27400208    4.90999985    2.51999998
   13.29416752  173.16799927    4.90999985    2.53999996
   13.30027771  173.16799927    4.90999985    2.51999998
   13.30444431  168.89900208    4.90999985    2.51999998
   13.30777836  171.99600220    4.90999985    2.50000000
   13.31083393  178.80099487    4.90999985    2.48000002
   13.31416702  157.66900635    4.90999985    2.48000002
   13.31722260  156.15800476    4.90999985    2.48000002
   13.31833363  171.98399353    4.90999985    2.48000002
   13.32111073  164.22599792    4.90999985    2.48000002
   13.32416630  172.83799744    4.90999985    2.48000002
   13.32750034  198.25000000    4.90999985    2.50000000
   13.33083344  199.11900330    4.90999985    2.48000002
   13.33388901  189.82000732    4.90999985    2.42000008
   13.33722210  185.72200012    4.90999985    2.44000006
   13.34305477  185.72200012    4.90999985    2.34999990
   13.34722233  201.38200378    4.90999985    2.39000010
   13.35055637  182.66700745    4.90999985    2.40000010
   13.35166740  194.06900024    4.90999985    2.40000010
   13.35416698  202.22300720    4.90999985    2.42000008
   13.35722256  183.82099915    4.90999985    2.40000010
   13.36055565  184.18099976    4.90999985    2.44000006
   13.36388969  171.94900513    4.90999985    2.48000002
   13.36694431  176.93299866    4.90999985    2.50000000
   13.37027836  177.82000732    4.90999985    2.51999998
   13.37361145  173.08900452    4.90999985    2.50000000
   13.37666702  157.03999329    4.90999985    2.53999996
   13.38000011  171.24800110    4.90999985    2.55999994
   13.38611126  171.24800110    4.90999985    2.57999992
   13.39000034  188.43499756    4.90999985    2.57999992
   13.39333344  161.33900452    4.90999985    2.57999992
   13.39666653  168.46499634    4.90999985    2.57999992
   13.39972210  171.11799622    4.90999985    2.57999992
   13.40305519  163.78500366    4.90999985    2.59999990
   13.40638828  166.63999939    4.90999985    2.59999990
   13.40944386  169.75799561    4.90999985    2.59999990
   13.41277695  159.46699524    4.90999985    2.59999990
   13.41583252  158.87300110    4.90999985    2.59999990
   13.41833401  171.68200684    4.90999985    2.57999992
   13.41972256  158.46499634    4.90999985    2.57999992
   13.42277813  167.83500671    4.90999985    2.57999992
   13.42888927  167.83500671    4.90999985    2.51999998
   13.43305588  163.63099670    4.90999985    2.53999996
   13.43611145  146.53300476    4.90999985    2.55999994
   13.43944454  165.15199280    4.90999985    2.55999994
   13.44277763  158.79499817    4.90999985    2.53999996
   13.44583321  154.64700317    4.90999985    2.51999998
   13.44916630  170.72000122    4.90999985    2.51999998
   13.45166683  155.07000732    4.90999985    2.53999996
   13.45277786  163.12199402    4.90999985    2.53999996
   13.45583344  150.39199829    4.90999985    2.51999998
   13.45916653  164.65100098    4.90999985    2.51999998
   13.46249962  167.14199829    4.90999985    2.50000000
   13.46555519  183.78100586    4.90999985    2.51999998
   13.47166634  183.78100586    4.90999985    2.51999998
   13.47583294  156.11999512    4.90999985    2.51999998
   13.47916603  169.24099731    4.90999985    2.51999998
   13.48222160  157.26600647    4.90999985    2.51999998
   13.48500061  156.65899658    4.90999985    2.51999998
   13.48583317  155.79800415    4.90999985    2.51999998
   13.48888874  160.40600586    4.90999985    2.53999996
   13.49222279  160.90699768    4.90999985    2.51999998
   13.49555588  158.22900391    4.90999985    2.53999996
   13.49861145  164.85400391    4.90999985    2.53999996
   13.50194454  163.93499756    4.90999985    2.53999996
   13.50527763  168.88800049    4.90999985    2.53999996
   13.50833321  156.67100525    4.90999985    2.55999994
   13.51444435  156.67100525    4.90999985    2.57999992
   13.51861095  165.93699646    4.90999985    2.57999992
   13.52194405  161.86999512    4.90999985    2.59999990
   13.52499962  168.09199524    4.90999985    2.57999992
   13.52833271  157.64999390    4.90999985    2.57999992
   13.53166676  157.10000610    4.90999985    2.59999990
   13.53472233  158.63600159    4.90999985    2.59999990
   13.53805637  153.39199829    4.90999985    2.59999990
   13.54138947  156.65299988    4.90999985    2.61999989
   13.54444504  156.91299438    4.90999985    2.59999990
   13.54777813  153.83500671    4.90999985    2.61999989
   13.55083370  156.99499512    4.90999985    2.59999990
   13.55166721  152.15400696    4.90999985    2.59999990
   13.55749989  152.15400696    4.90999985    2.59999990
   13.56138897  148.23100281    4.90999985    2.59999990
   13.56472206  149.39399719    4.90999985    2.59999990
   13.56805515  145.28500366    4.90999985    2.59999990
   13.57111073  146.49099731    4.90999985    2.61999989
   13.57444477  145.67500305    4.90999985    2.59999990
   13.57777786  145.27200317    4.90999985    2.61999989
   13.58083344  143.06300354    4.90999985    2.61999989
   13.58416653  154.47099304    4.90999985    2.59999990
   13.58500004  152.41900635    4.90999985    2.59999990
   13.58777714  158.30000305    4.90999985    2.59999990
   13.59111118  152.86700439    4.90999985    2.59999990
   13.59416676  151.48199463    4.90999985    2.61999989
   13.60027790  151.48199463    4.90999985    2.59999990
   13.60444450  153.17300415    4.90999985    2.64000010
   13.60750008  152.20500183    4.90999985    2.64000010
   13.61083412  140.62100220    4.90999985    2.61999989
   13.61416721  144.41299438    4.90999985    2.61999989
   13.61722279  149.45799255    4.90999985    2.64000010
   13.61833382  140.38000488    4.90999985    2.61999989
   13.62083340  143.34599304    4.90999985    2.64000010
   13.62416649  144.59800720    4.90999985    2.61999989
   13.62722206  142.57400513    4.90999985    2.61999989
   13.63055611  141.23500061    4.90999985    2.64000010
   13.63361073  147.44099426    4.90999985    2.64000010
   13.63694477  148.94500732    4.90999985    2.64000010
   13.64305496  148.94500732    4.90999985    2.64000010
   13.64722252  161.41600037    4.90999985    2.64000010
   13.65055561  145.53500366    4.90999985    2.59999990
   13.65166664  147.14100647    4.90999985    2.59999990
   13.65416622  152.83999634    4.90999985    2.61999989
   13.65749931  142.51899719    4.90999985    2.59999990
   13.66055489  140.61399841    4.90999985    2.61999989
   13.66388893  133.37800598    4.90999985    2.61999989
   13.66694450  144.88900757    4.90999985    2.59999990
   13.67027855  145.54699707    4.90999985    2.59999990
   13.67361164  151.28700256    4.90999985    2.61999989
   13.67666721  146.81100464    4.90999985    2.61999989
   13.68000031  141.82600403    4.90999985    2.61999989
   13.68583298  141.82600403    4.90999985    2.61999989
   13.69000053  152.05599976    4.90999985    2.61999989
   13.69333363  155.69099426    4.90999985    2.61999989
   13.69638920  150.60000610    4.90999985    2.61999989
   13.69972229  144.00999451    4.90999985    2.61999989
   13.70305538  134.00100708    4.90999985    2.59999990
   13.70611095  140.69099426    4.90999985    2.61999989
   13.70944405  141.21400452    4.90999985    2.59999990
   13.71277714  156.15100098    4.90999985    2.59999990
   13.71583271  150.86000061    4.90999985    2.59999990
   13.71833324  158.44599915    4.90999985    2.59999990
   13.71944427  148.12600708    4.90999985    2.59999990
   13.72277737  153.40400696    4.90999985    2.57999992
   13.72888851  153.40400696    4.90999985    2.59999990
   13.73277760  155.08200073    4.90999985    2.59999990
   13.73611164  143.20700073    4.90999985    2.61999989
   13.73944473  136.71800232    4.90999985    2.61999989
   13.74250031  142.43499756    4.90999985    2.61999989
   13.74583340  154.19400024    4.90999985    2.64000010
   13.74916649  150.89199829    4.90999985    2.64000010
   13.75166702  148.11500549    4.90999985    2.64000010
   13.75277805  141.35200500    4.90999985    2.64000010
   13.75611115  138.79699707    4.90999985    2.64000010
   13.75916672  142.21099854    4.90999985    2.64000010
   13.76249981  146.94099426    4.90999985    2.64000010
   13.76583290  146.67900085    4.90999985    2.64000010
   13.77166653  146.67900085    4.90999985    2.64000010
   13.77583313  150.39100647    4.90999985    2.64000010
   13.77888870  149.66000366    4.90999985    2.64000010
   13.78222179  150.63000488    4.90999985    2.64000010
   13.78500080  151.50300598    4.90999985    2.64000010
   13.78583336  150.69500732    4.90999985    2.64000010
   13.78916740  146.41000366    4.90999985    2.64000010
   13.79222298  144.09500122    4.90999985    2.61999989
   13.79555607  159.95399475    4.90999985    2.61999989
   13.79888916  145.98599243    4.90999985    2.61999989
   13.80194473  135.03700256    4.90999985    2.64000010
   13.80527782  143.98899841    4.90999985    2.61999989
   13.80833340  140.04699707    4.90999985    2.61999989
   13.81444454  140.04699707    4.90999985    2.59999990
   13.81861115  149.28999329    4.90999985    2.59999990
   13.82194424  140.21899414    4.90999985    2.61999989
   13.82499981  141.22700500    4.90999985    2.61999989
   13.82833290  145.78900146    4.90999985    2.61999989
   13.83138847  143.65100098    4.90999985    2.61999989
   13.83472157  147.85600281    4.90999985    2.61999989
   13.83805561  147.06199646    4.90999985    2.64000010
   13.84111118  142.79200745    4.90999985    2.64000010
   13.84444427  143.19900513    4.90999985    2.61999989
   13.84777737  151.69799805    4.90999985    2.61999989
   13.85083389  148.24200439    4.90999985    2.61999989
   13.85166740  150.62199402    4.90999985    2.61999989
   13.85722256  150.62199402    4.90999985    2.61999989
   13.86138916  150.26699829    4.90999985    2.64000010
   13.86472225  168.06599426    4.90999985    2.61999989
   13.86777782  165.80099487    4.90999985    2.64000010
   13.88555527  155.60699463    4.90999985    2.59999990
   13.88777733  163.80700684    4.90999985    2.61999989
   13.89111137  155.43499756    4.90999985    2.61999989
   13.89444447  165.78700256    4.90999985    2.61999989
   13.90027714  165.78700256    4.90999985    2.59999990
   13.90444374  166.98800659    4.90999985    2.59999990
   13.90777779  169.20300293    4.90999985    2.57999992
   13.91083336  172.41200256    4.90999985    2.57999992
   13.91416645  173.48899841    4.90999985    2.57999992
   13.91750050  179.85000610    4.90999985    2.57999992
   13.91861153  166.57899475    4.90999985    2.59999990
   13.92111111  177.77799988    4.90999985    2.59999990
   13.92444515  169.64799500    4.90999985    2.57999992
   13.92750072  173.55999756    4.90999985    2.57999992
   13.93083382  163.55400085    4.90999985    2.57999992
   13.93416691  154.75399780    4.90999985    2.57999992
   13.93722248  154.61099243    4.90999985    2.59999990
   13.94305515  154.61099243    4.90999985    2.59999990
   13.94722271  150.68699646    4.90999985    2.61999989
   13.95055580  162.70700073    4.90999985    2.64000010
   13.95194435  152.31199646    4.90999985    2.61999989
   13.95416641  151.59599304    4.90999985    2.64000010
   13.95749950  156.67399597    4.90999985    2.61999989
   13.96055508  164.03799438    4.90999985    2.61999989
   13.96388912  159.63600159    4.90999985    2.61999989
   13.96722221  159.42199707    4.90999985    2.61999989
   13.97027779  162.35400391    4.90999985    2.61999989
   13.97361088  159.56300354    4.90999985    2.61999989
   13.97694397  160.23100281    4.90999985    2.61999989
   13.97999954  164.48100281    4.90999985    2.61999989
   13.98611164  164.48100281    4.90999985    2.64000010
   13.99027824  149.60800171    4.90999985    2.64000010
   13.99333382  149.08200073    4.90999985    2.64000010
   13.99666691  153.39199829    4.90999985    2.61999989
   13.99972248  147.57499695    4.90999985    2.64000010
   14.00305557  141.28100586    4.90999985    2.64000010
   14.00638866  154.64999390    4.90999985    2.61999989
   14.00944424  148.86799622    4.90999985    2.61999989
   14.01277733  159.03100586    4.90999985    2.61999989
   14.01611137  159.84300232    4.90999985    2.64000010
   14.01861095  148.68899536    4.90999985    2.64000010
   14.01972198  140.28300476    4.90999985    2.64000010
   14.02305508  147.93200684    4.90999985    2.64000010
   14.02888870  147.93200684    4.90999985    2.64000010
   14.03305531  155.88600159    4.90999985    2.61999989
   14.03611183  158.43299866    4.90999985    2.61999989
   14.03944492  156.66700745    4.90999985    2.64000010
   14.04277802  166.08700562    4.90999985    2.61999989
   14.04583359  161.38699341    4.90999985    2.61999989
   14.04916668  167.76499939    4.90999985    2.64000010
   14.05222225  158.14700317    4.90999985    2.61999989
   14.05277824  152.29299927    4.90999985    2.61999989
   14.05611134  158.01800537    4.90999985    2.61999989
   14.05944443  153.06799316    4.90999985    2.64000010
   14.06250000  156.36300659    4.90999985    2.64000010
   14.06583309  155.67599487    4.90999985    2.64000010
   14.07166672  155.67599487    4.90999985    2.64000010
   14.07583332  160.19099426    4.90999985    2.61999989
   14.07916641  160.66799927    4.90999985    2.59999990
   14.08222198  158.56300354    4.90999985    2.59999990
   14.08527756  181.71600342    4.90999985    2.59999990
   14.08583260  165.68299866    4.90999985    2.57999992
   14.08916664  176.78799438    4.90999985    2.59999990
   14.09222221  152.48399353    4.90999985    2.59999990
   14.09555531  158.86700439    4.90999985    2.59999990
   14.09888840  170.63800049    4.90999985    2.59999990
   14.10194492  164.68099976    4.90999985    2.61999989
   14.10527802  165.45700073    4.90999985    2.61999989
   14.10861111  165.27900696    4.90999985    2.61999989
   14.11444473  165.27900696    4.90999985    2.61999989
   14.11861134  169.98199463    4.90999985    2.61999989
   14.11916637  165.66499329    4.90999985    2.61999989
   14.12250042  185.35299683    4.90999985    2.61999989
   14.12555599  161.38600159    4.90999985    2.64000010
   14.12888908  171.35299683    4.90999985    2.64000010
   14.13222218  157.27299500    4.90999985    2.64000010
   14.13527775  161.44599915    4.90999985    2.61999989
   14.13861084  158.84199524    4.90999985    2.61999989
   14.14194393  163.56500244    4.90999985    2.61999989
   14.14499950  161.49299622    4.90999985    2.61999989
   14.14833355  160.06900024    4.90999985    2.61999989
   14.15166664  154.14900208    4.90999985    2.64000010
   14.15249920  148.98699951    4.90999985    2.64000010
   14.15749931  148.98699951    4.90999985    2.61999989
   14.16138840  165.98399353    4.90999985    2.64000010
   14.16472149  164.13299561    4.90999985    2.61999989
   14.16805553  169.87699890    4.90999985    2.61999989
   14.17111111  160.70599365    4.90999985    2.64000010
   14.17444515  151.43899536    4.90999985    2.61999989
   14.17777824  167.04200745    4.90999985    2.61999989
   14.18083382  157.61199951    4.90999985    2.61999989
   14.18416691  166.94500732    4.90999985    2.61999989
   14.18583298  164.64199829    4.90999985    2.61999989
   14.18777752  165.62800598    4.90999985    2.64000010
   14.19083309  142.23599243    4.90999985    2.61999989
   14.19416714  158.48800659    4.90999985    2.64000010
   14.20027733  158.48800659    4.90999985    2.64000010
   14.20444393  150.99099731    4.90999985    2.66000009
   14.20749950  174.20100403    4.90999985    2.64000010
   14.21083355  158.99899292    4.90999985    2.64000010
   14.21416664  162.35200500    4.90999985    2.64000010
   14.21722221  152.05099487    4.90999985    2.64000010
   14.21916580  145.56300354    4.90999985    2.64000010
   14.22083282  161.12600708    4.90999985    2.64000010
   14.22388840  148.77600098    4.90999985    2.64000010
   14.22722149  158.28799438    4.90999985    2.64000010
   14.23055553  166.80900574    4.90999985    2.64000010
   14.23361111  144.38699341    4.90999985    2.64000010
   14.23694515  143.13200378    4.90999985    2.64000010
   14.24305534  143.13200378    4.90999985    2.64000010
   14.24722290  169.82299805    4.90999985    2.64000010
   14.25055599  168.45799255    4.90999985    2.64000010
   14.25249958  147.20700073    4.90999985    2.64000010
   14.25416660  165.95700073    4.90999985    2.64000010
   14.25749969  141.23599243    4.90999985    2.64000010
   14.26055527  149.21099854    4.90999985    2.66000009
   14.26388931  157.68400574    4.90999985    2.66000009
   14.26694393  162.61799622    4.90999985    2.66000009
   14.27027798  159.94099426    4.90999985    2.66000009
   14.27361107  157.59500122    4.90999985    2.67000008
   14.27666664  172.84300232    4.90999985    2.67000008
   14.27999973  174.71200562    4.90999985    2.67000008
   14.28583336  174.71200562    4.90999985    2.66000009
   14.29000092  142.34399414    4.90999985    2.67000008
   14.29333401  164.96499634    4.90999985    2.66000009
   14.29638958  160.25599670    4.90999985    2.66000009
   14.29972267  154.60099792    4.90999985    2.64000010
   14.30305576  150.59100342    4.90999985    2.64000010
   14.30611134  149.53199768    4.90999985    2.64000010
   14.30944443  157.83200073    4.90999985    2.64000010
   14.31277752  174.13000488    4.90999985    2.61999989
   14.31583309  171.21200562    4.90999985    2.64000010
   14.31916618  165.19500732    4.90999985    2.64000010
   14.31972218  165.22599792    4.90999985    2.64000010
   14.32277775  159.70700073    4.90999985    2.61999989
   14.32888889  159.70700073    4.90999985    2.61999989
   14.33277798  162.53900146    4.90999985    2.64000010
   14.33611107  155.39500427    4.90999985    2.64000010
   14.33944416  165.92900085    4.90999985    2.64000010
   14.34249973  167.18699646    4.90999985    2.66000009
   14.34583282  153.63499451    4.90999985    2.66000009
   14.34916592  162.90499878    4.90999985    2.66000009
   14.35222244  158.79800415    4.90999985    2.66000009
   14.35305595  156.50399780    4.90999985    2.66000009
   14.35611153  156.30200195    4.90999985    2.66000009
   14.35916710  149.41499329    4.90999985    2.67000008
   14.36250019  171.66000366    4.90999985    2.66000009
   14.36555576  158.99899292    4.90999985    2.66000009
   14.37166691  158.99899292    4.90999985    2.64000010
   14.37583351  144.28999329    4.90999985    2.64000010
   14.37888908  163.67900085    4.90999985    2.59999990
   14.38222218  167.18099976    4.90999985    2.59999990
   14.38555527  163.89900208    4.90999985    2.59999990
   14.38638878  159.97399902    4.90999985    2.59999990
   14.38916683  150.59899902    4.90999985    2.59999990
   14.39222240  171.82800293    4.90999985    2.59999990
   14.39555550  160.54699707    4.90999985    2.61999989
   14.39888859  161.60800171    4.90999985    2.64000010
   14.40194416  155.13800049    4.90999985    2.64000010
   14.40527725  148.77999878    4.90999985    2.66000009
   14.40833282  155.47999573    4.90999985    2.67000008
   14.41444397  155.47999573    4.90999985    2.67000008
   14.41861153  156.25199890    4.90999985    2.67000008
   14.41972256  143.98300171    4.90999985    2.69000006
   14.42222214  147.44900513    4.90999985    2.67000008
   14.42527771  170.72799683    4.90999985    2.66000009
   14.42861176  163.67599487    4.90999985    2.66000009
   14.43166733  171.96499634    4.90999985    2.64000010
   14.43500042  171.40899658    4.90999985    2.66000009
   14.43833351  154.92500305    4.90999985    2.64000010
   14.44138908  165.21899414    4.90999985    2.64000010
   14.44472218  165.43600464    4.90999985    2.61999989
   14.44805527  172.68600464    4.90999985    2.64000010
   14.45111084  157.02600098    4.90999985    2.64000010
   14.45305538  164.52400208    4.90999985    2.64000010
   14.45722198  164.52400208    4.90999985    2.66000009
   14.46138859  155.79800415    4.90999985    2.67000008
   14.46472168  165.71699524    4.90999985    2.67000008
   14.46777725  157.76199341    4.90999985    2.69000006
   14.47111034  165.16499329    4.90999985    2.67000008
   14.47444439  166.78199768    4.90999985    2.66000009
   14.47777748  170.20700073    4.90999985    2.66000009
   14.48083305  158.78100586    4.90999985    2.66000009
   14.48416710  173.70500183    4.90999985    2.66000009
   14.48638916  160.36199951    4.90999985    2.66000009
   14.48777771  165.01499939    4.90999985    2.66000009
   14.49083328  170.10600281    4.90999985    2.66000009
   14.49416733  151.62699890    4.90999985    2.66000009
   14.50027752  151.62699890    4.90999985    2.67000008
   14.50416660  152.37899780    4.90999985    2.66000009
   14.50749969  163.13000488    4.90999985    2.67000008
   14.51083374  164.88200378    4.90999985    2.66000009
   14.51388931  162.90299988    4.90999985    2.64000010
   14.51722240  182.48599243    4.90999985    2.64000010
   14.51972198  146.72700500    4.90999985    2.61999989
   14.52083302  188.23399353    4.90999985    2.59999990
   14.52388859  158.65699768    4.90999985    2.61999989
   14.52722168  155.67399597    4.90999985    2.64000010
   14.53027725  160.71099854    4.90999985    2.66000009
   14.53361130  165.81100464    4.90999985    2.67000008
   14.53694534  163.21600342    4.90999985    2.69000006
   14.54305553  163.21600342    4.90999985    2.71000004
   14.54722309  174.27200317    4.90999985    2.71000004
   14.55027771  171.35200500    4.90999985    2.67000008
   14.55305576  164.38099670    4.90999985    2.67000008
   14.55416679  157.20799255    4.90999985    2.67000008
   14.55722237  169.95599365    4.90999985    2.67000008
   14.56055546  154.15499878    4.90999985    2.69000006
   14.56361103  168.79899597    4.90999985    2.69000006
   14.56694412  168.19099426    4.90999985    2.69000006
   14.57027817  159.01300049    4.90999985    2.69000006
   14.57333374  165.86500549    4.90999985    2.69000006
   14.57666683  165.89199829    4.90999985    2.71000004
   14.57999992  157.50500488    4.90999985    2.73000002
   14.58583260  157.50500488    4.90999985    2.73000002
   14.59000015  179.64700317    4.90999985    2.73000002
   14.59333324  173.93899536    4.90999985    2.73000002
   14.59638882  163.82600403    4.90999985    2.73000002
   14.59972191  164.36799622    4.90999985    2.73000002
   14.60277843  161.87600708    4.90999985    2.71000004
   14.60611153  149.17599487    4.90999985    2.71000004
   14.60944462  173.41700745    4.90999985    2.71000004
   14.61250019  173.41799927    4.90999985    2.71000004
   14.61583328  167.42900085    4.90999985    2.71000004
   14.61916637  155.98300171    4.90999985    2.71000004
   14.62083340  170.19200134    4.90999985    2.71000004
   14.62277794  171.70899963    4.90999985    2.71000004
   14.62861156  171.70899963    4.90999985    2.69000006
   14.63277817  167.99400330    4.90999985    2.69000006
   14.63611126  157.08299255    4.90999985    2.69000006
   14.63916683  144.33500671    4.90999985    2.69000006
   14.64249992  157.23899841    4.90999985    2.71000004
   14.64583302  159.13600159    4.90999985    2.71000004
   14.64888859  149.46400452    4.90999985    2.71000004
   14.65222168  155.25100708    4.90999985    2.71000004
   14.65416622  160.64700317    4.90999985    2.71000004
   14.65583324  181.89700317    4.90999985    2.69000006
   14.65916634  176.99499512    4.90999985    2.69000006
   14.66222191  158.44599915    4.90999985    2.69000006
   14.66555500  171.06399536    4.90999985    2.71000004
   14.67166710  171.06399536    4.90999985    2.67000008
   14.67555618  166.26400757    4.90999985    2.66000009
   14.67888927  186.25399780    4.90999985    2.66000009
   14.68222237  189.41799927    4.90999985    2.61999989
   14.68527794  181.28700256    4.90999985    2.61999989
   14.68777752  166.14900208    4.90999985    2.59999990
   14.68916702  173.28100586    4.90999985    2.59999990
   14.69222260  164.77900696    4.90999985    2.64000010
   14.69555569  178.00999451    4.90999985    2.64000010
   14.69888878  179.17500305    4.90999985    2.64000010
   14.70194435  172.73500061    4.90999985    2.59999990
   14.70527744  175.74600220    4.90999985    2.64000010
   14.70833302  165.88699341    4.90999985    2.67000008
   14.71444416  165.88699341    4.90999985    2.64000010
   14.71861076  162.13099670    4.90999985    2.66000009
   14.72111034  163.80200195    4.90999985    2.67000008
   14.72222137  175.44700623    4.90999985    2.67000008
   14.72527695  167.67900085    4.90999985    2.66000009
   14.72861099  166.81900024    4.90999985    2.61999989
   14.73166656  160.86799622    4.90999985    2.64000010
   14.73500061  163.14100647    4.90999985    2.64000010
   14.73833370  172.57699585    4.90999985    2.64000010
   14.74138927  162.32299805    4.90999985    2.61999989
   14.74472237  171.93600464    4.90999985    2.64000010
   14.74777794  163.93600464    4.90999985    2.61999989
   14.75111103  159.73300171    4.90999985    2.61999989
   14.75722218  159.73300171    4.90999985    2.64000010
   14.76138878  147.94200134    4.90999985    2.66000009
   14.76472187  172.56300354    4.90999985    2.67000008
   14.76777744  161.28599548    4.90999985    2.67000008
   14.77111053  151.02200317    4.90999985    2.67000008
   14.77416611  163.49800110    4.90999985    2.67000008
   14.77750015  166.88299561    4.90999985    2.67000008
   14.78083324  165.79400635    4.90999985    2.67000008
   14.78388977  157.91799927    4.90999985    2.69000006
   14.78722286  168.17799377    4.90999985    2.73000002
   14.78805637  158.60899353    4.90999985    2.75000000
   14.79083347  169.14599609    4.90999985    2.73000002
   14.79416752  152.19799805    4.90999985    2.73000002
   14.80000019  152.19799805    4.90999985    2.73000002
   14.80416679  152.09399414    4.90999985    2.73000002
   14.80749989  149.21299744    4.90999985    2.73000002
   14.81083393  152.66600037    4.90999985    2.73000002
   14.81388950  148.47700500    4.90999985    2.75000000
   14.81722260  155.39500427    4.90999985    2.73000002
   14.82027817  163.33399963    4.90999985    2.76999998
   14.82138920  155.19500732    4.90999985    2.76999998
   14.82416630  156.23300171    4.90999985    2.75000000
   14.82750034  171.85099792    4.90999985    2.76999998
   14.83055592  174.92999268    4.90999985    2.75000000
   14.83388901  188.69099426    4.90999985    2.75000000
   14.83694458  179.30999756    4.90999985    2.75000000
   14.84305477  179.30999756    4.90999985    2.76999998
   14.84694386  180.74000549    4.90999985    2.76999998
   14.85027790  191.57899475    4.90999985    2.76999998
   14.85361195  168.52999878    4.90999985    2.76999998
   14.85500050  177.05799866    4.90999985    2.76999998
   14.85722256  149.67900085    4.90999985    2.76999998
   14.86027813  162.05799866    4.90999985    2.75000000
   14.86361122  160.53500366    4.90999985    2.76999998
   14.86694431  157.93200684    4.90999985    2.76999998
   14.86999989  149.56300354    4.90999985    2.75000000
   14.87333393  163.18899536    4.90999985    2.75000000
   14.87638855  155.28599548    4.90999985    2.76999998
   14.87972260  152.70899963    4.90999985    2.75000000
   14.88583279  152.70899963    4.90999985    2.75000000
   14.90416622  170.06799316    4.90999985    2.73000002
   14.90749931  161.41200256    4.90999985    2.73000002
   14.91055489  156.80900574    4.90999985    2.73000002
   14.91388893  159.58000183    4.90999985    2.71000004
   14.91722298  172.28700256    4.90999985    2.71000004
   14.92027855  161.49499512    4.90999985    2.71000004
   14.92361164  164.21499634    4.90999985    2.71000004
   14.92888927  164.21499634    4.90999985    2.71000004
   14.93305588  159.43400574    4.90999985    2.69000006
   14.93611145  159.67999268    4.90999985    2.69000006
   14.93722248  165.17999268    4.90999985    2.69000006
   14.94000053  163.88299561    4.90999985    2.69000006
   14.94305515  172.43099976    4.90999985    2.69000006
   14.94638920  166.16600037    4.90999985    2.71000004
   14.94972229  173.19200134    4.90999985    2.69000006
   14.95277786  172.46800232    4.90999985    2.69000006
   14.95611095  166.62600708    4.90999985    2.69000006
   14.95916653  178.41400146    4.90999985    2.71000004
   14.96249962  169.47200012    4.90999985    2.71000004
   14.96583271  163.11599731    4.90999985    2.71000004
   14.97166634  163.11599731    4.90999985    2.73000002
   14.97583294  162.98399353    4.90999985    2.73000002
   14.97916603  166.99699402    4.90999985    2.73000002
   14.98222160  167.97500610    4.90999985    2.75000000
   14.98555565  153.89700317    4.90999985    2.73000002
   14.98888874  152.04800415    4.90999985    2.73000002
   14.99194431  166.34599304    4.90999985    2.73000002
   14.99527836  164.42900085    4.90999985    2.75000000
   14.99833393  162.26100159    4.90999985    2.75000000
   15.00166702  165.12699890    4.90999985    2.75000000
   15.00388908  166.56399536    4.90999985    2.73000002
   15.00527763  160.49099731    4.90999985    2.75000000
   15.00833321  169.12899780    4.90999985    2.75000000
   15.01444435  169.12899780    4.90999985    2.73000002
   15.01861095  163.93299866    4.90999985    2.75000000
   15.02194405  166.00700378    4.90999985    2.73000002
   15.02527714  176.20399475    4.90999985    2.73000002
   15.12277794   -1.00000000   -1.00000000   -1.00000000
   15.32361126   -1.00000000   -1.00000000   -1.00000000
   15.47972202   -1.00000000   -1.00000000   -1.00000000
   15.65777779  102.10099792    4.90999985    2.76999998
   15.66111088  184.38200378    4.90999985    2.78999996
   15.66416645  152.79200745    4.90999985    2.78999996
   15.66750050  184.75999451    4.90999985    2.76999998
   15.67055607  173.78199768    4.90999985    2.76999998
   15.67388916  164.71299744    4.90999985    2.78999996
   15.67805576  164.71299744    4.90999985    2.78999996
   15.68222237  150.49099731    4.90999985    2.78999996
   15.68527794  167.23800659    4.90999985    2.78999996
   15.68861103  166.54100037    4.90999985    2.76999998
   15.69111156  169.19400024    4.90999985    2.75000000
   15.69250011  270.76699829    4.90999985    2.71000004
   15.69555569  156.38800049    4.90999985    2.39000010
   15.69888878  157.18600464    4.90999985    2.61999989
   15.70194435  152.80499268    4.90999985    2.78999996
   15.70527744  164.20199585    4.90999985    2.73000002
   15.70861053  151.72200012    4.90999985    2.71000004
   15.71166611  128.74000549    4.90999985    2.73000002
   15.71500015  160.30000305    4.90999985    2.73000002
   15.72083282  160.30000305    4.90999985    2.73000002
   15.72499943  169.49299622    4.90999985    2.73000002
   15.72833252  151.89100647    4.90999985    2.71000004
   15.73138809  161.67199707    4.90999985    2.71000004
   15.73472214  149.43499756    4.90999985    2.67000008
   15.73805618  149.24400330    4.90999985    2.71000004
   15.74111176  153.95300293    4.90999985    2.71000004
   15.74444485  146.88200378    4.90999985    2.73000002
   15.74750042  155.08799744    4.90999985    2.76999998
   15.75083351  167.98599243    4.90999985    2.76999998
   15.75416660  169.86900330    4.90999985    2.76999998
   15.75722218  174.24499512    4.90999985    2.76999998
   15.75777817  157.23100281    4.90999985    2.78999996
   15.76361084  157.23100281    4.90999985    2.71000004
   15.76777744  182.06700134    4.90999985    2.75000000
   15.77111053  175.17999268    4.90999985    2.75000000
   15.77444458  172.42500305    4.90999985    2.73000002
   15.77750015  168.17599487    4.90999985    2.71000004
   15.78083324  180.94500732    4.90999985    2.71000004
   15.78388977  157.10000610    4.90999985    2.71000004
   15.78722286  162.35000610    4.90999985    2.73000002
   15.79055595  153.47200012    4.90999985    2.75000000
   15.79111195  145.30799866    4.90999985    2.75000000
   15.79416752  138.41099548    4.90999985    2.76999998
   15.79750061  140.10099792    4.90999985    2.76999998
   15.80055618  157.21299744    4.90999985    2.76999998
   15.80666733  157.21299744    4.90999985    2.75000000
   15.81083393  157.86900330    4.90999985    2.76999998
   15.81388950  161.94400024    4.90999985    2.76999998
   15.81722260  151.89599609    4.90999985    2.76999998
   15.82027817  163.23500061    4.90999985    2.76999998
   15.82361126  154.04899597    4.90999985    2.75000000
   15.82444477  154.22900391    4.90999985    2.73000002
   15.82722187  173.00199890    4.90999985    2.73000002
   15.83055592  155.94500732    4.90999985    2.75000000
   15.83361053  154.65699768    4.90999985    2.75000000
   15.83694458  165.93800354    4.90999985    2.75000000
   15.84000015  146.58299255    4.90999985    2.75000000
   15.84333324  171.51600647    4.90999985    2.73000002
   15.84944439  171.51600647    4.90999985    2.76999998
   15.85361195  161.44799805    4.90999985    2.78999996
   15.85666752  133.14700317    4.90999985    2.76999998
   15.85777855  143.84199524    4.90999985    2.76999998
   15.86055565  151.39100647    4.90999985    2.78999996
   15.86388969  165.50000000    4.90999985    2.78999996
   15.86694431  142.22399902    4.90999985    2.78999996
   15.87027836  146.33200073    4.90999985    2.80999994
   15.87333393  149.42100525    4.90999985    2.80999994
   15.87666702  154.07899475    4.90999985    2.80999994
   15.88000011  149.78199768    4.90999985    2.82999992
   15.88305569  171.70500183    4.90999985    2.78999996
   15.88638878  160.63000488    4.90999985    2.80999994
   15.89222240  160.63000488    4.90999985    2.80999994
   15.89638901  154.68499756    4.90999985    2.80999994
   15.89972210  146.75700378    4.90999985    2.80999994
   15.90277767  148.55400085    4.90999985    2.80999994
   15.90611076  167.09899902    4.90999985    2.82999992
   15.90944386  163.36199951    4.90999985    2.80999994
   15.91249943  138.75399780    4.90999985    2.80999994
   15.91583252  172.63800049    4.90999985    2.80999994
   15.91888905  150.97300720    4.90999985    2.82999992
   15.92222214  165.64900208    4.90999985    2.80999994
   15.92444515  164.38000488    4.90999985    2.80999994
   15.92583370  141.67100525    4.90999985    2.80999994
   15.92916679  151.37199402    4.90999985    2.80999994
   15.93500042  151.37199402    4.90999985    2.80999994
   15.93916702  170.47300720    4.90999985    2.80999994
   15.94250011  149.36599731    4.90999985    2.80999994
   15.94583321  146.10000610    4.90999985    2.80999994
   15.94888878  151.98100281    4.90999985    2.80999994
   15.95222187  163.05799866    4.90999985    2.80999994
   15.95527744  161.19200134    4.90999985    2.76999998
   15.95777798  146.21600342    4.90999985    2.80999994
   15.95916653  140.41299438    4.90999985    2.78999996
   15.96249962  155.15400696    4.90999985    2.78999996
   15.96555519  153.97099304    4.90999985    2.80999994
   15.96888828  178.18299866    4.90999985    2.73000002
   15.97194386  158.78399658    4.90999985    2.71000004
   15.97805500  158.78399658    4.90999985    2.67000008
   15.98222160  175.97799683    4.90999985    2.71000004
   15.98527813  163.05599976    4.90999985    2.64000010
   15.98861122  172.59599304    4.90999985    2.71000004
   15.99111176  153.88099670    4.90999985    2.71000004
   15.99222279  157.94700623    4.90999985    2.73000002
   15.99555588  173.12899780    4.90999985    2.75000000
   15.99861145  155.73599243    4.90999985    2.78999996
   16.00194359  159.03500366    4.90999985    2.78999996
   16.00499916  164.97700500    4.90999985    2.78999996
   16.00833321  164.68099976    4.90999985    2.78999996
   16.01166725  151.74899292    4.90999985    2.78999996
   16.01472282  148.18699646    4.90999985    2.78999996
   16.02083397  148.18699646    4.90999985    2.80999994
   16.02499962  139.29499817    4.90999985    2.76999998
   16.02805519  160.44700623    4.90999985    2.78999996
   16.03138924  158.47399902    4.90999985    2.78999996
   16.03472137  140.77799988    4.90999985    2.78999996
   16.03777695  166.96800232    4.90999985    2.80999994
   16.04111099  166.75999451    4.90999985    2.78999996
   16.04416656  149.96499634    4.90999985    2.80999994
   16.04749870  164.89900208    4.90999985    2.78999996
   16.05083275  165.27799988    4.90999985    2.78999996
   16.05388832  157.27400208    4.90999985    2.78999996
   16.05722237  146.79699707    4.90999985    2.78999996
   16.05777740  153.46400452    4.90999985    2.78999996
   16.06361008  153.46400452    4.90999985    2.78999996
   16.06777954  170.55900574    4.90999985    2.78999996
   16.07111168  155.25999451    4.90999985    2.78999996
   16.07416725  140.24899292    4.90999985    2.78999996
   16.07750130  143.40199280    4.90999985    2.78999996
   16.08083344  149.96000671    4.90999985    2.78999996
   16.08388901  144.53199768    4.90999985    2.78999996
   16.08722305  153.50100708    4.90999985    2.78999996
   16.09027863  164.12399292    4.90999985    2.78999996
   16.09111214  141.18099976    4.90999985    2.78999996
   16.09388924  140.79299927    4.90999985    2.78999996
   16.09722328  150.94000244    4.90999985    2.78999996
   16.10027885  143.84700012    4.90999985    2.78999996
   16.10639000  143.84700012    4.90999985    2.78999996
   16.11055565  213.15199280    4.90999985    2.80999994
   16.11388969  132.10800171    4.90999985    2.82999992
   16.11722183  151.75900269    4.90999985    2.78999996
   16.12027740  154.86099243    4.90999985    2.78999996
   16.12361145  160.93400574    4.90999985    2.82999992
   16.12444496  161.72000122    4.90999985    2.80999994
   16.12722206  142.58700562    4.90999985    2.80999994
   16.13055611  157.19700623    4.90999985    2.80999994
   16.13361168  174.07400513    4.90999985    2.78999996
   16.13694382  162.72900391    4.90999985    2.80999994
   16.14027786  148.36500549    4.90999985    2.80999994
   16.14333344  161.41400146    4.90999985    2.80999994
   16.14944458  161.41400146    4.90999985    2.80999994
   16.15361023  171.80700684    4.90999985    2.80999994
   16.15666580  156.23300171    4.90999985    2.80999994
   16.15777779  162.47900391    4.90999985    2.80999994
   16.16027832  161.11199951    4.90999985    2.78999996
   16.16361046  163.90600586    4.90999985    2.80999994
   16.16666603  169.82400513    4.90999985    2.78999996
   16.17000008  150.49600220    4.90999985    2.82999992
   16.17333221  151.66799927    4.90999985    2.80999994
   16.17638779  161.91099548    4.90999985    2.80999994
   16.17972183  161.42500305    4.90999985    2.82999992
   16.18277740  155.07899475    4.90999985    2.82999992
   16.18610954  165.45899963    4.90999985    2.82999992
   16.19222069  165.45899963    4.90999985    2.80999994
   16.19638824  143.08599854    4.90999985    2.82999992
   16.19944382  148.93099976    4.90999985    2.78999996
   16.20277786  145.08900452    4.90999985    2.80999994
   16.20611191  157.42100525    4.90999985    2.80999994
   16.20916748  153.33999634    4.90999985    2.82999992
   16.21250153  162.78999329    4.90999985    2.82999992
   16.21583366  163.27200317    4.90999985    2.80999994
   16.21888924  155.19299316    4.90999985    2.82999992
   16.22222328  151.72900391    4.90999985    2.82999992
   16.22444534  151.83399963    4.90999985    2.82999992
   16.22583389  139.84300232    4.90999985    2.82999992
   16.22916794  141.75599670    4.90999985    2.80999994
   16.23500061  141.75599670    4.90999985    2.80999994
   16.23916626  145.96499634    4.90999985    2.82999992
   16.24250031  146.91999817    4.90999985    2.82999992
   16.24555588  148.52699280    4.90999985    2.82999992
   16.24888992  153.59100342    4.90999985    2.80999994
   16.25222206  153.05099487    4.90999985    2.82999992
   16.25527763  164.54200745    4.90999985    2.82999992
   16.25777817  156.95500183    4.90999985    2.82999992
   16.25888824  157.92100525    4.90999985    2.82999992
   16.26222229  158.95199585    4.90999985    2.80999994
   16.26527786  150.77400208    4.90999985    2.82999992
   16.26861000  159.03999329    4.90999985    2.80999994
   16.27194405  145.85899353    4.90999985    2.80999994
   16.27777672  145.85899353    4.90999985    2.80999994
   16.28194427  148.41099548    4.90999985    2.80999994
   16.28527641  159.12199402    4.90999985    2.80999994
   16.28861046  149.84700012    4.90999985    2.82999992
   16.29111099  167.03199768    4.90999985    2.78999996
   16.29194450  149.13800049    4.90999985    2.80999994
   16.29527664  155.47000122    4.90999985    2.80999994
   16.29833221  157.55599976    4.90999985    2.78999996
   16.30166626  166.60600281    4.90999985    2.80999994
   16.30499840  165.27799988    4.90999985    2.80999994
   16.30805397  167.17599487    4.90999985    2.78999996
   16.31138802  168.84899902    4.90999985    2.80999994
   16.31444359  173.44799805    4.90999985    2.78999996
   16.32083511  173.44799805    4.90999985    2.80999994
   16.32500076  159.73599243    4.90999985    2.80999994
   16.32805634  150.88999939    4.90999985    2.80999994
   16.33139038  162.79200745    4.90999985    2.80999994
   16.33444595  150.45599365    4.90999985    2.80999994
   16.33777809  149.86999512    4.90999985    2.80999994
   16.34111214  142.94999695    4.90999985    2.80999994
   16.34416771  148.73100281    4.90999985    2.80999994
   16.34749985  166.74299622    4.90999985    2.80999994
   16.35083389  165.28100586    4.90999985    2.80999994
   16.35388947  178.32000732    4.90999985    2.82999992
   16.35722351  171.53300476    4.90999985    2.80999994
   16.35805511  162.66799927    4.90999985    2.80999994
   16.36361122  162.66799927    4.90999985    2.80999994
   16.36777878  155.19200134    4.90999985    2.80999994
   16.37083435  165.73800659    4.90999985    2.80999994
   16.37416649  149.08500671    4.90999985    2.82999992
   16.37750053  156.15699768    4.90999985    2.82999992
   16.38055611  163.38099670    4.90999985    2.82999992
   16.38388824  138.18499756    4.90999985    2.82999992
   16.38722229  138.04200745    4.90999985    2.82999992
   16.39027786  149.04800415    4.90999985    2.82999992
   16.39138794  149.29100037    4.90999985    2.82999992
   16.39388847  146.35499573    4.90999985    2.82999992
   16.39722252  148.78599548    4.90999985    2.82999992
   16.40027809  158.08700562    4.90999985    2.82999992
   16.40638924  158.08700562    4.90999985    2.82999992
   16.41055489  159.55099487    4.90999985    2.82999992
   16.41388893  162.43499756    4.90999985    2.82999992
   16.41694450  161.09599304    4.90999985    2.82999992
   16.42027664  149.25700378    4.90999985    2.82999992
   16.42361069  151.99699402    4.90999985    2.82999992
   16.42472076  153.85699463    4.90999985    2.82999992
   16.42694473  154.62699890    4.90999985    2.82999992
   16.43027687  150.82699585    4.90999985    2.82999992
   16.43361092  160.20399475    4.90999985    2.80999994
   16.43666649  142.35699463    4.90999985    2.78999996
   16.43999863  148.81300354    4.90999985    2.80999994
   16.44333267  154.78599548    4.90999985    2.80999994
   16.44916534  154.78599548    4.90999985    2.80999994
   16.45333481  152.13900757    4.90999985    2.80999994
   16.45666695  138.18099976    4.90999985    2.80999994
   16.45805550  154.57800293    4.90999985    2.82999992
   16.46027946  147.60000610    4.90999985    2.80999994
   16.46361160  154.49899292    4.90999985    2.82999992
   16.46666718  144.41400146    4.90999985    2.82999992
   16.47000122  142.83999634    4.90999985    2.82999992
   16.47333336  144.73599243    4.90999985    2.80999994
   16.47638893  144.25300598    4.90999985    2.80999994
   16.47972298  150.46699524    4.90999985    2.80999994
   16.48305511  145.70100403    4.90999985    2.80999994
   16.48611069  137.46400452    4.90999985    2.82999992
   16.49222183  137.46400452    4.90999985    2.82999992
   16.49638939  140.81599426    4.90999985    2.82999992
   16.49944496  131.78100586    4.90999985    2.82999992
   16.50277710  133.41499329    4.90999985    2.82999992
   16.50583267  132.94700623    4.90999985    2.82999992
   16.50916672  139.28900146    4.90999985    2.82999992
   16.51250076  149.56799316    4.90999985    2.82999992
   16.51555634  148.19900513    4.90999985    2.82999992
   16.51888847  140.97200012    4.90999985    2.82999992
   16.52222252  147.77200317    4.90999985    2.82999992
   16.52472115  144.90499878    4.90999985    2.82999992
   16.52555466  142.60499573    4.90999985    2.82999992
   16.52888870  153.25599670    4.90999985    2.80999994
   16.53499985  153.25599670    4.90999985    2.82999992
   16.53916550  143.76499939    4.90999985    2.80999994
   16.54222107  146.14700317    4.90999985    2.80999994
   16.54555511  145.26199341    4.90999985    2.82999992
   16.54888916  165.78199768    4.90999985    2.80999994
   16.55194283  150.88499451    4.90999985    2.82999992
   16.55527687  157.45500183    4.90999985    2.82999992
   16.55805397  148.44799805    4.90999985    2.82999992
   16.55888748  143.76300049    4.90999985    2.80999994
   16.56222153  152.68699646    4.90999985    2.80999994
   16.56527710  140.19500732    4.90999985    2.82999992
   16.56861115  158.33299255    4.90999985    2.82999992
   16.57194519  150.14300537    4.90999985    2.80999994
   16.57777786  150.14300537    4.90999985    2.78999996
   16.58194542  146.50000000    4.90999985    2.76999998
   16.58527756  128.93699646    4.90999985    2.76999998
   16.58833313  146.88800049    4.90999985    2.78999996
   16.59138870  143.73800659    4.90999985    2.78999996
   16.59194565  152.08099365    4.90999985    2.78999996
   16.59527779  146.39500427    4.90999985    2.78999996
   16.59861183  147.49200439    4.90999985    2.78999996
   16.60166740  148.79400635    4.90999985    2.78999996
   16.60499954  134.42300415    4.90999985    2.76999998
   16.60805511  155.00500488    4.90999985    2.76999998
   16.61138916  150.37699890    4.90999985    2.75000000
   16.61472321  156.05799866    4.90999985    2.75000000
   16.62055588  156.05799866    4.90999985    2.76999998
   16.62472153  156.66299438    4.90999985    2.78999996
   16.62805557  159.93400574    4.90999985    2.80999994
   16.63138962  142.80499268    4.90999985    2.78999996
   16.63444519  157.24699402    4.90999985    2.80999994
   16.63777733  154.57699585    4.90999985    2.78999996
   16.64083290  160.19599915    4.90999985    2.76999998
   16.64416695  149.51100159    4.90999985    2.76999998
   16.64749908  142.92399597    4.90999985    2.76999998
   16.65055466  144.32299805    4.90999985    2.75000000
   16.65388870  149.50399780    4.90999985    2.75000000
   16.65722275  160.38600159    4.90999985    2.75000000
   16.65805435  161.05299377    4.90999985    2.75000000
   16.67860985  161.05299377    4.90999985    2.50000000
   16.68277740  154.98300171    4.90999985    2.91000009
   16.68583298  152.79800415    4.90999985    2.84999990
   16.68916512  146.23699951    4.90999985    2.78999996
   16.69138718  145.41600037    4.90999985    2.78999996
   16.69305420  144.62199402    4.90999985    2.78999996
   16.69610977  154.84199524    4.90999985    2.76999998
   16.69944382  149.43099976    4.90999985    2.78999996
   16.70250130  143.64599609    4.90999985    2.78999996
   16.70583344  143.88099670    4.90999985    2.78999996
   16.70916748  138.92599487    4.90999985    2.78999996
   16.71222305  139.08200073    4.90999985    2.76999998
   16.71555710  139.41700745    4.90999985    2.76999998
   16.72138977  139.41700745    4.90999985    2.78999996
   16.72555542  253.05200195    4.90999985    2.55999994
   16.72861099  159.61999512    4.90999985    2.53999996
   16.73194504  171.77799988    4.90999985    2.59999990
   16.73527718  206.65600586    4.90999985    2.19000006
   16.73833275  195.19200134    4.90999985    2.34999990
   16.74166679  171.32899475    4.90999985    2.05999994
   16.74472237  185.23300171    4.90999985    2.25000000
   16.74805641  146.00000000    4.90999985    2.75000000
   16.75138855  145.42100525    4.90999985    2.75000000
   16.75444412  152.50500488    4.90999985    2.76999998
   16.75777817  145.37399292    4.90999985    2.78999996
   16.75833321  149.80999756    4.90999985    2.78999996
   16.76416588  149.80999756    4.90999985    2.73000002
   16.76833344  146.42300415    4.90999985    2.75000000
   16.77166557  143.40899658    4.90999985    2.75000000
   16.77472115  143.91299438    4.90999985    2.73000002
   16.77805519  159.20899963    4.90999985    2.75000000
   16.78111076  142.31100464    4.90999985    2.66000009
   16.78444481  151.46200562    4.90999985    2.69000006
   16.78777695  154.09700012    4.90999985    2.73000002
   16.79083252  145.15400696    4.90999985    2.75000000
   16.79166603  150.86199951    4.90999985    2.73000002
   16.79472160  171.31300354    4.90999985    2.73000002
   16.79777718  161.46000671    4.90999985    2.71000004
   16.80111122  190.97000122    4.90999985    2.71000004
   16.80694389  190.97000122    4.90999985    2.71000004
   16.81110954  198.73599243    4.90999985    2.75000000
   16.81444359  195.72799683    4.90999985    2.73000002
   16.81750107  187.13800049    4.90999985    2.75000000
   16.82083511  214.27900696    4.90999985    2.71000004
   16.82416725  187.93499756    4.90999985    2.73000002
   16.82500076  190.56500244    4.90999985    2.73000002
   16.82777786  180.75000000    4.90999985    2.76999998
   16.83083344  179.57899475    4.90999985    2.76999998
   16.83416748  175.79400635    4.90999985    2.73000002
   16.83722305  162.83599854    4.90999985    2.75000000
   16.84055710  185.51899719    4.90999985    2.75000000
   16.84388924  183.26899719    4.90999985    2.75000000
   16.85000038  183.26899719    4.90999985    2.75000000
   16.85388947  166.65699768    4.90999985    2.78999996
   16.85722351  153.26800537    4.90999985    2.78999996
   16.85833359  172.34399414    4.90999985    2.78999996
   16.86111069  154.25199890    4.90999985    2.78999996
   16.86416626  168.68400574    4.90999985    2.80999994
   16.86750031  155.26400757    4.90999985    2.78999996
   16.87055588  160.91900635    4.90999985    2.78999996
   16.87388992  151.12500000    4.90999985    2.80999994
   16.87722206  143.90699768    4.90999985    2.80999994
   16.88027763  146.50900269    4.90999985    2.80999994
   16.88361168  162.42799377    4.90999985    2.80999994
   16.88694382  164.96400452    4.90999985    2.80999994
   16.89277840  164.96400452    4.90999985    2.82999992
   16.89694405  140.04800415    4.90999985    2.80999994
   16.89999962  136.46899414    4.90999985    2.80999994
   16.90333366  131.74000549    4.90999985    2.80999994
   16.90666580  162.02600098    4.90999985    2.78999996
   16.90972137  165.45700073    4.90999985    2.80999994
   16.91305542  170.94700623    4.90999985    2.80999994
   16.91611099  153.39599609    4.90999985    2.82999992
   16.91944313  133.21699524    4.90999985    2.80999994
   16.92277718  166.18600464    4.90999985    2.78999996
   16.92499924  143.23500061    4.90999985    2.78999996
   16.92638779  173.83799744    4.90999985    2.80999994
   16.92944336  139.08900452    4.90999985    2.80999994
   16.93555450  139.08900452    4.90999985    2.80999994
   16.93972206  154.23500061    4.90999985    2.80999994
   16.94305420  161.79899597    4.90999985    2.80999994
   16.94610977  164.60699463    4.90999985    2.80999994
   16.94944382  164.24699402    4.90999985    2.80999994
   16.95250130  143.27299500    4.90999985    2.80999994
   16.95583344  152.74800110    4.90999985    2.78999996
   16.95833397  146.98100281    4.90999985    2.78999996
   16.95972252  158.58500671    4.90999985    2.78999996
   16.96277809  150.41900635    4.90999985    2.78999996
   16.96611214  144.63200378    4.90999985    2.78999996
   16.96916771  127.70300293    4.90999985    2.78999996
   16.97249985  131.13000488    4.90999985    2.82999992
   16.97833443  131.13000488    4.90999985    2.82999992
   16.98250008  141.99499512    4.90999985    2.82999992
   16.98583412  134.95799255    4.90999985    2.82999992
   16.98888969  144.44099426    4.90999985    2.84999990
   16.99166679  131.33200073    4.90999985    2.84999990
   16.99277878  148.60400391    4.90999985    2.84999990
   16.99583435  136.55700684    4.90999985    2.84999990
   16.99916649  136.95799255    4.90999985    2.84999990
   17.00222206  130.95599365    4.90999985    2.84999990
   17.00555611  141.41099548    4.90999985    2.82999992
   17.00888824  151.67599487    4.90999985    2.84999990
   17.01194382  131.25399780    4.90999985    2.82999992
   17.01527786  128.60499573    4.90999985    2.82999992
   17.02138901  128.60499573    4.90999985    2.82999992
   17.02527809  140.79800415    4.90999985    2.82999992
   17.02861023  140.36700439    4.90999985    2.84999990
   17.03194427  141.39799500    4.90999985    2.82999992
   17.03499985  133.77799988    4.90999985    2.82999992
   17.03833199  141.68899536    4.90999985    2.82999992
   17.04166603  131.09899902    4.90999985    2.82999992
   17.04472160  142.42300415    4.90999985    2.84999990
   17.04805565  142.17799377    4.90999985    2.84999990
   17.05111122  131.94099426    4.90999985    2.84999990
   17.05444336  135.04899597    4.90999985    2.82999992
   17.05777740  128.30599976    4.90999985    2.84999990
   17.05833244  129.05200195    4.90999985    2.84999990
   17.06416512  129.05200195    4.90999985    2.82999992
   17.06833458  134.84800720    4.90999985    2.82999992
   17.07139015  138.25999451    4.90999985    2.82999992
   17.07472229  126.92400360    4.90999985    2.84999990
   17.07805634  132.49299622    4.90999985    2.84999990
   17.08111191  125.96299744    4.90999985    2.84999990
   17.08444595  133.12500000    4.90999985    2.84999990
   17.08750153  127.22899628    4.90999985    2.84999990
   17.09083366  141.16200256    4.90999985    2.84999990
   17.09166718  136.45599365    4.90999985    2.84999990
   17.09444427  134.34700012    4.90999985    2.84999990
   17.09749985  138.06799316    4.90999985    2.84999990
   17.10083389  141.66000366    4.90999985    2.84999990
   17.10694504  141.66000366    4.90999985    2.84999990
   17.11111069  130.84399414    4.90999985    2.84999990
   17.11444473  146.24400330    4.90999985    2.84999990
   17.11750031  151.09599304    4.90999985    2.86999989
   17.12083435  136.85499573    4.90999985    2.84999990
   17.12388992  143.96299744    4.90999985    2.82999992
   17.12500000  148.90899658    4.90999985    2.82999992
   17.12777710  147.44500732    4.90999985    2.82999992
   17.13083267  141.46699524    4.90999985    2.82999992
   17.13416672  145.03399658    4.90999985    2.84999990
   17.13750076  156.36599731    4.90999985    2.82999992
   17.14055634  147.99099731    4.90999985    2.80999994
   17.14388847  155.61799622    4.90999985    2.73000002
   17.14972115  155.61799622    4.90999985    2.59999990
   17.15388870  170.58799744    4.90999985    2.48000002
   17.15722275  262.80700684    4.90999985    2.42000008
   17.15833282  173.14700317    4.90999985    2.25000000
   17.16083336  214.31399536    4.90999985    2.69000006
   17.16388893  176.45100403    4.90999985    2.48000002
   17.16722107  159.30499268    4.90999985    2.76999998
   17.17055511  132.55900574    4.90999985    2.84999990
   17.17361069  160.50900269    4.90999985    2.84999990
   17.17694473  140.79899597    4.90999985    2.84999990
   17.18000031  152.97599792    4.90999985    2.82999992
   17.18333244  150.15600586    4.90999985    2.80999994
   17.18666649  148.47700500    4.90999985    2.82999992
   17.19277763  148.47700500    4.90999985    2.86999989
   17.19666672  115.76899719    4.90999985    1.76999998
   17.20000076  179.58099365    4.90999985    1.76999998
   17.20333481  152.42799377    4.90999985    2.26999998
   17.20639038  167.27699280    4.90999985    2.80999994
   17.20972252  147.02200317    4.90999985    2.84999990
   17.21305656  184.64799500    4.90999985    2.82999992
   17.21611214  184.47200012    4.90999985    2.84999990
   17.21944427  158.86799622    4.90999985    2.84999990
   17.22249985  155.16900635    4.90999985    2.84999990
   17.22500038  182.46600342    4.90999985    2.82999992
   17.22638893  159.14700317    4.90999985    2.84999990
   17.22944450  151.27000427    4.90999985    2.84999990
   17.23555565  151.27000427    4.90999985    2.86999989
   17.23972321  193.46299744    4.90999985    2.84999990
   17.24277878  171.32699585    4.90999985    2.84999990
   17.24611092  161.90299988    4.90999985    2.84999990
   17.24944496  180.37100220    4.90999985    2.84999990
   17.25250053  201.96600342    4.90999985    2.84999990
   17.25583267  160.37699890    4.90999985    2.84999990
   17.25833321  162.49299622    4.90999985    2.84999990
   17.25944519  184.87399292    4.90999985    2.84999990
   17.26250076  143.86999512    4.90999985    2.84999990
   17.26583290  190.16799927    4.90999985    2.84999990
   17.26916695  193.71899414    4.90999985    2.86999989
   17.27222252  164.65499878    4.90999985    2.86999989
   17.27833366  164.65499878    4.90999985    2.84999990
   17.28249931  171.76400757    4.90999985    2.84999990
   17.28583336  162.94799805    4.90999985    2.86999989
   17.28888893  187.47300720    4.90999985    2.84999990
   17.29166603  171.82000732    4.90999985    2.84999990
   17.29277802  190.14799500    4.90999985    2.84999990
   17.29583359  176.39700317    4.90999985    2.84999990
   17.29916573  185.11700439    4.90999985    2.84999990
   17.30249977  174.13200378    4.90999985    2.84999990
   17.30555534  165.96600342    4.90999985    2.84999990
   17.30888748  191.67700195    4.90999985    2.86999989
   17.31194305  171.95100403    4.90999985    2.84999990
   17.31527710  201.50900269    4.90999985    2.84999990
   17.32111168  201.50900269    4.90999985    2.86999989
   17.32527924  274.23098755    4.90999985    2.84999990
   17.32861137  133.72900391    4.90999985    2.71000004
   17.33166695  406.24398804    4.90999985    1.64999998
   17.33388901  156.55700684    4.90999985    2.30999994
   17.33388901  274.23098755    4.90999985    2.84999990
   17.33388901  133.72900391    4.90999985    2.71000004
   17.33416748  406.24398804    4.90999985    1.64999998
   17.33416748  185.11700439    4.90999985    2.84999990
   17.33416748  174.13200378    4.90999985    2.84999990
   17.33444595  165.96600342    4.90999985    2.84999990
   17.33444595  191.67700195    4.90999985    2.86999989
   17.33444595  171.95100403    4.90999985    2.84999990
   17.33472252  201.50900269    4.90999985    2.84999990
   17.33666801  228.60600281    4.90999985    2.80999994
   17.34000015  262.60198975    4.90999985    2.89000010
   17.34305573  279.41198730    4.90999985    2.86999989
   17.34638977  252.12699890    4.90999985    2.40000010
   17.34944534  283.97000122    4.90999985    2.78999996
   17.35472298  283.97000122    4.90999985    1.69000006
   17.35888863  134.69700623    4.90999985    1.23000002
   17.36194420  251.99299622    4.90999985    2.03999996
   17.36527824  255.50999451    4.90999985    2.91000009
   17.36777878  188.35000610    4.90999985    2.86999989
   17.36888885  163.42300415    4.90999985    2.89000010
   17.37222290  218.74200439    4.90999985    2.84999990
   17.37555504  209.72700500    4.90999985    2.86999989
   17.37861061  197.91700745    4.90999985    2.86999989
   17.38194466  187.51199341    4.90999985    2.86999989
   17.38500023  214.36700439    4.90999985    2.89000010
   17.38833237  245.39900208    4.90999985    2.51999998
   17.39166641   -1.00000000    4.90999985    1.71000004
   17.39749908   -1.00000000    4.90999985    1.63000000
   17.40166664  276.11499023    4.90999985    2.32999992
   17.40472221  290.42098999    4.90999985    2.48000002
   17.40805435  193.98599243    4.90999985    2.78999996
   17.41138840  205.91099548    4.90999985    2.84999990
   17.41472244  154.76699829    4.90999985    2.84999990
   17.41777802  195.83000183    4.90999985    2.86999989
   17.42111015  197.77499390    4.90999985    2.80999994
   17.42416573  214.37800598    4.90999985    2.80999994
   17.42749977  149.84300232    4.90999985    2.80999994
   17.43083191  164.50199890    4.90999985    2.80999994
   17.43388748  193.98599243    4.90999985    2.80999994
   17.43444443  170.55799866    4.90999985    2.80999994
   17.44027710  170.55799866    4.90999985    2.82999992
   17.44444275  182.86799622    4.90999985    2.82999992
   17.44777679  176.88600159    4.90999985    2.82999992
   17.45083427  205.34399414    4.90999985    2.84999990
   17.45416832  189.38200378    4.90999985    2.84999990
   17.45750046  168.37899780    4.90999985    2.84999990
   17.46055603  184.08599854    4.90999985    2.84999990
   17.46389008  209.93600464    4.90999985    2.78999996
   17.46694565  245.88099670    4.90999985    2.73000002
   17.46777916  228.59700012    4.90999985    2.73000002
   17.47083473  173.51300049    4.90999985    2.57999992
   17.47416687  152.90600586    4.90999985    2.86999989
   17.47722244  198.88499451    4.90999985    2.84999990
   17.48305511  198.88499451    4.90999985    2.46000004
   17.48722267  271.31500244    4.90999985    2.57999992
   17.49055672  147.88000488    4.90999985    2.11999989
   17.49388885  170.52299500    4.90999985    1.85000002
   17.49694443  356.59500122    4.90999985    2.00000000
   17.50027847  292.21798706    4.90999985    2.09999990
   17.50111198  416.39599609    4.90999985    2.25000000
   17.50388908  192.08299255    4.90999985    2.53999996
   17.50722313  191.57200623    4.90999985    2.89000010
   17.51027870  281.41598511    4.90999985    2.44000006
   17.51361084  193.66799927    4.90999985    2.61999989
   17.51666641  348.88000488    4.90999985    2.57999992
   17.52000046   -1.00000000    4.90999985    2.05999994
   17.52611160   -1.00000000    4.90999985    1.71000004
   17.53027725  188.42500305    4.90999985    2.23000002
   17.53333282  201.62100220    4.90999985    2.69000006
   17.53444481  165.92500305    4.90999985    2.76999998
   17.53694344  168.52499390    4.90999985    2.86999989
   17.54027748  188.52400208    4.90999985    2.84999990
   17.54333305  196.11599731    4.90999985    2.84999990
   17.54666710  162.48199463    4.90999985    2.84999990
   17.54972076  153.07400513    4.90999985    2.82999992
   17.55305481  166.34399414    4.90999985    2.86999989
   17.55638885  181.46299744    4.90999985    2.84999990
   17.55944443  181.43499756    4.90999985    2.84999990
   17.56277657  173.68400574    4.90999985    2.84999990
   17.56888962  173.68400574    4.90999985    2.84999990
   17.57305717  178.23800659    4.90999985    2.84999990
   17.57611275  166.48599243    4.90999985    2.84999990
   17.57944489  156.55400085    4.90999985    2.84999990
   17.58277893  179.80499268    4.90999985    2.84999990
   17.58583450  183.42199707    4.90999985    2.84999990
   17.58916664  161.49499512    4.90999985    2.84999990
   17.59250069  175.63400269    4.90999985    2.84999990
   17.59555626  170.14500427    4.90999985    2.84999990
   17.59889030  148.89500427    4.90999985    2.84999990
   17.60111237  156.42799377    4.90999985    2.84999990
   17.60250092  164.98100281    4.90999985    2.84999990
   17.60583305  150.69299316    4.90999985    2.86999989
   17.61166763  150.69299316    4.90999985    2.84999990
   17.61583328  154.58399963    4.90999985    2.86999989
   17.61916733  176.21800232    4.90999985    2.86999989
   17.62222290  153.92500305    4.90999985    2.84999990
   17.62555504  140.20100403    4.90999985    2.84999990
   17.62888908  150.31100464    4.90999985    2.84999990
   17.63194466  147.09599304    4.90999985    2.84999990
   17.63444519  156.47799683    4.90999985    2.84999990
   17.63555527  167.32499695    4.90999985    2.84999990
   17.63888931  174.86099243    4.90999985    2.84999990
   17.64194489  147.81100464    4.90999985    2.84999990
   17.64527702  147.67999268    4.90999985    2.84999990
   17.64833260  149.24099731    4.90999985    2.84999990
   17.65444374  149.24099731    4.90999985    2.84999990
   17.65861130  147.55299377    4.90999985    2.84999990
   17.66194344  150.05099487    4.90999985    2.84999990
   17.66499901  128.11500549    4.90999985    2.84999990
   17.66777802  140.89700317    4.90999985    2.84999990
   17.66888809  139.78199768    4.90999985    2.84999990
   17.67222214  148.79299927    4.90999985    2.82999992
   17.69166565  149.32899475    4.90999985    2.84999990
   17.69749832  149.32899475    4.90999985    2.84999990
   17.70166779  136.22700500    4.90999985    2.86999989
   17.70499992  140.81599426    4.90999985    2.84999990
   17.70805550  147.83700562    4.90999985    2.84999990
   17.71138954  139.68600464    4.90999985    2.84999990
   17.71472359  133.20799255    4.90999985    2.84999990
   17.71777916  138.38800049    4.90999985    2.84999990
   17.72111130  140.12699890    4.90999985    2.86999989
   17.72444534  142.01600647    4.90999985    2.86999989
   17.72750092  135.54299927    4.90999985    2.86999989
   17.73083305  141.85600281    4.90999985    2.86999989
   17.73388863  133.93800354    4.90999985    2.86999989
   17.73472214  141.78399658    4.90999985    2.80999994
   17.74055672  141.78399658    4.90999985    2.53999996
   17.74444389  145.12399292    4.90999985    2.71000004
   17.74777794  137.13800049    4.90999985    2.80999994
   17.75111198  168.48500061    4.90999985    2.76999998
   17.75416756  160.37899780    4.90999985    2.64000010
   17.75749969  204.27999878    4.90999985    2.57999992
   17.76083374  138.72700500    4.90999985    2.78999996
   17.76388931  176.48800659    4.90999985    2.75000000
   17.76722145  184.87699890    4.90999985    2.64000010
   17.76805496  181.50799561    4.90999985    2.59999990
   17.77083397   -1.00000000    4.90999985    2.61999989
   17.77388954   -1.00000000    4.90999985    0.92000002
   17.77722168   -1.00000000    4.90999985    0.61000001
   17.78722191   -1.00000000    4.90999985    1.05999994
   17.79055595   -1.00000000    4.90999985    0.98000002
   17.79388809   -1.00000000    4.90999985    0.73000002
   17.79694366   -1.00000000    4.90999985    1.03999996
   17.80027771   -1.00000000    4.90999985    0.89999998
   17.80360985   -1.00000000    4.90999985    0.44000000
   17.80694389   -1.00000000    4.90999985    0.47999999
   17.80999947   -1.00000000    4.90999985    0.44000000
   17.81333351   -1.00000000    4.90999985    0.30000001
   17.81666756   -1.00000000    4.90999985    0.38000000
   17.81972313   -1.00000000    4.90999985    0.46000001
   17.83027840   -1.00000000    4.90999985    1.26999998
   17.83333397   -1.00000000    4.90999985    1.26999998
   17.83694458   -1.00000000    4.90999985    0.61000001
   17.84027863   -1.00000000    4.90999985    0.41999999
   17.84333420   -1.00000000    4.90999985    0.89999998
   17.84666824   -1.00000000    4.90999985    0.47999999
   17.85000038   -1.00000000    4.90999985    0.64999998
   17.85305595   -1.00000000    4.90999985    1.25000000
   17.85639000   -1.00000000    4.90999985    0.55000001
   17.85972214   -1.00000000    4.90999985    0.51999998
   17.86277771   -1.00000000    4.90999985    0.38000000
   17.87305641   -1.00000000    4.90999985    0.28000000
   17.87638855   -1.00000000    4.90999985    0.63000000
   17.87944412   -1.00000000    4.90999985    0.94000000
   17.88277817  231.58000183    4.90999985    2.21000004
   17.88583374  170.13000488    4.90999985    2.78999996
   17.88916588  168.50500488    4.90999985    2.64000010
   17.89249992  203.60299683    4.90999985    2.78999996
   17.89555550  316.08200073    4.90999985    2.66000009
   17.89888954   -1.00000000    4.90999985    1.34000003
   17.90222168   -1.00000000    4.90999985    1.01999998
   17.90555573   -1.00000000    4.90999985    1.38000000
   17.91583252   -1.00000000    4.90999985    1.96000004
   17.91916656   -1.00000000    4.90999985    1.38000000
   17.92222214  206.77999878    4.90999985    1.71000004
   17.92555428  249.34500122    4.90999985    2.39000010
   17.92888832  154.34100342    4.90999985    2.76999998
   17.93194389  151.00999451    4.90999985    2.76999998
   17.93472099  159.18699646    4.90999985    2.75000000
   17.93583298  167.84500122    4.90999985    2.71000004
   17.93888855  162.94400024    4.90999985    2.69000006
   17.94222069  216.38699341    4.90999985    2.76999998
   17.94527626  245.27900696    4.90999985    2.40000010
   17.94861031   -1.00000000    4.90999985    1.41999996
   17.95861244   -1.00000000    4.90999985    0.75000000
   17.96194458   -1.00000000    4.90999985    0.36000001
   17.96527863   -1.00000000    4.90999985    0.20999999
   17.96861076   -1.00000000    4.90999985    0.25000000
   17.97194481   -1.00000000    4.90999985    0.25999999
   17.97527885   -1.00000000    4.90999985    0.15000001
   17.97833443   -1.00000000    4.90999985    0.44000000
   17.98166656   -1.00000000    4.90999985    1.28999996
   17.98472214   -1.00000000    4.90999985    0.81999999
   17.98805618   -1.00000000    4.90999985    0.36000001
   17.99138832   -1.00000000    4.90999985    0.40000001
   18.00166702   -1.00000000    4.90999985    0.17000000
   18.00472260  140.86099243    4.90999985    0.44000000
   18.00805473  191.54800415    4.90999985    2.51999998
   18.01111031   -1.00000000    4.90999985    1.88000000
   18.01444435   -1.00000000    4.90999985    0.58999997
   18.01777840   -1.00000000    4.90999985    0.41999999
   18.02083397   -1.00000000    4.90999985    0.50000000
   18.02416611   -1.00000000    4.90999985    0.38000000
   18.02722168   -1.00000000    4.90999985    0.55000001
   18.03055573   -1.00000000    4.90999985    1.23000002
   18.03388786  213.09100342    4.90999985    1.88000000
   18.03472137  169.44999695    4.90999985    2.00000000
   18.04027748  169.44999695    4.90999985    2.03999996
   18.04444313  217.91000366    4.90999985    1.94000006
   18.04777718  163.33900452    4.90999985    2.53999996
   18.05083275  163.51800537    4.90999985    2.69000006
   18.05416679  156.26800537    4.90999985    2.75000000
   18.05749893  154.08299255    4.90999985    2.78999996
   18.06055450  165.48699951    4.90999985    2.76999998
   18.06388855  149.39399719    4.90999985    2.84999990
   18.06722260  153.49000549    4.90999985    2.82999992
   18.06805611  142.09500122    4.90999985    2.80999994
   18.07083511  151.82899475    4.90999985    2.78999996
   18.07389069  168.63800049    4.90999985    2.67000008
   18.07722282  143.22300720    4.90999985    2.69000006
   18.08333397  143.22300720    4.90999985    2.64000010
   18.08722305   -1.00000000    4.90999985    2.59999990
   18.09055710   -1.00000000    4.90999985    0.52999997
   18.09388924   -1.00000000    4.90999985    0.30000001
   18.09694481   -1.00000000    4.90999985    0.83999997
   18.10027885   -1.00000000    4.90999985    1.11000001
   18.10361099   -1.00000000    4.90999985    1.61000001
   18.10694504   -1.00000000    4.90999985    0.94000000
   18.11027908  154.82800293    4.90999985    1.98000002
   18.11333466  262.45098877    4.90999985    1.96000004
   18.11666679  175.79600525    4.90999985    1.89999998
   18.12000084   -1.00000000    4.90999985    1.64999998
   18.13000107  206.48399353    4.90999985    2.61999989
   18.13333321   -1.00000000    4.90999985    2.64000010
   18.13666725   -1.00000000    4.90999985    1.00000000
   18.13999939   -1.00000000    4.90999985    0.88000000
   18.14333344  160.10099792    4.90999985    1.51999998
   18.14638901   -1.00000000    4.90999985    1.75000000
   18.14972115   -1.00000000    4.90999985    1.41999996
   18.15305519   57.14179993    4.90999985    1.58000004
   18.15611076  165.79800415    4.90999985    2.09999990
   18.15944481   86.07450104    4.90999985    1.94000006
   18.16250038  263.61801147    4.90999985    1.88000000
   18.16888809  263.61801147    4.90999985    2.53999996
   18.17305565  300.01901245    4.90999985    2.39000010
   18.17638779  252.79800415    4.90999985    2.36999989
   18.17944336  167.35400391    4.90999985    2.30999994
   18.18277740  167.28599548    4.90999985    2.13000011
   18.18583298  124.56199646    4.90999985    2.07999992
   18.18916512   -1.00000000    4.90999985    1.96000004
   18.19249916   -1.00000000    4.90999985    1.69000006
   18.19555473   -1.00000000    4.90999985    1.63000000
   18.19888878   -1.00000000    4.90999985    1.48000002
   18.20222282   -1.00000000    4.90999985    1.09000003
   18.20555687   -1.00000000    4.90999985    1.07000005
   18.21166801   -1.00000000    4.90999985    1.88000000
   18.21583366   -1.00000000    4.90999985    2.00000000
   18.21916771   -1.00000000    4.90999985    1.55999994
   18.22222328   -1.00000000    4.90999985    1.50000000
   18.22555542   -1.00000000    4.90999985    1.28999996
   18.22861099   -1.00000000    4.90999985    1.00000000
   18.23194504   -1.00000000    4.90999985    1.01999998
   18.23527718   -1.00000000    4.90999985    1.23000002
   18.23861122   -1.00000000    4.90999985    1.03999996
   18.24194527   -1.00000000    4.90999985    0.79000002
   18.24500084   -1.00000000    4.90999985    0.73000002
   18.24833298   -1.00000000    4.90999985    1.01999998
   18.25444412   -1.00000000    4.90999985    1.80999994
   18.25861168  238.41499329    4.90999985    2.48000002
   18.26194382  261.38400269    4.90999985    2.39000010
   18.26527786  230.57699585    4.90999985    2.17000008
   18.26861000   -1.00000000    4.90999985    1.64999998
   18.27194405   -1.00000000    4.90999985    1.01999998
   18.27527809   -1.00000000    4.90999985    1.03999996
   18.27833366   -1.00000000    4.90999985    1.11000001
   18.28166580   -1.00000000    4.90999985    1.36000001
   18.28499985  218.17500305    4.90999985    1.48000002
   18.28805542  203.76499939    4.90999985    2.48000002
   18.29138756   23.57019997    4.90999985    2.00000000
   18.29749870   23.57019997    4.90999985    2.26999998
   18.30166626   -1.00000000    4.90999985    1.76999998
   18.30472183   -1.00000000    4.90999985    1.11000001
   18.30805397   -1.00000000    4.90999985    0.83999997
   18.31110954   -1.00000000    4.90999985    0.86000001
   18.31444359   -1.00000000    4.90999985    1.26999998
   18.31777954   -1.00000000    4.90999985    1.14999998
   18.32083511   -1.00000000    4.90999985    1.23000002
   18.32416725   -1.00000000    4.90999985    0.17000000
   18.32750130   -1.00000000    4.90999985    0.07000000
   18.33055687   -1.00000000    4.90999985    0.05000000
   18.33388901   -1.00000000    2.89000010    0.01000000
   18.34416771   -1.00000000    2.55999994    0.01000000
   18.34749985   -1.00000000    4.34999990    0.01000000
   18.35083389   -1.00000000    4.90999985    0.01000000
   18.35388947   -1.00000000    4.90999985    0.03000000
   18.35722351   -1.00000000    4.90999985    0.09000000
   18.36055565   -1.00000000    4.90999985    0.11000000
   18.36361122   -1.00000000    4.90999985    0.25000000
   18.36694527   -1.00000000    4.90999985    1.25000000
   18.36805534   66.49900055    4.90999985    1.51999998
   18.37055588  300.02099609    4.90999985    1.91999996
   18.37361145   -1.00000000    4.90999985    2.15000010
   18.37694550   -1.00000000    4.90999985    1.14999998
   18.38722229   -1.00000000    4.90999985    0.98000002
   18.39027786   -1.00000000    4.90999985    1.53999996
   18.39361191   -1.00000000    4.90999985    1.55999994
   18.39694405   -1.00000000    4.90999985    1.26999998
   18.39999962   -1.00000000    4.90999985    1.16999996
   18.40333366   -1.00000000    4.90999985    1.11000001
   18.40666580   -1.00000000    4.90999985    0.67000002
   18.40999985   -1.00000000    4.90999985    0.95999998
   18.41305542   -1.00000000    4.90999985    1.36000001
   18.41638756   -1.00000000    4.90999985    1.51999998
   18.41972160  195.94700623    4.90999985    1.76999998
   18.42583275  195.94700623    4.90999985    2.46000004
   18.43000031  161.43899536    4.90999985    2.23000002
   18.43333244  214.25399780    4.90999985    2.28999996
   18.43472099  199.29299927    4.90999985    2.07999992
   18.43694305   -1.00000000    4.90999985    1.96000004
   18.43999863   -1.00000000    4.90999985    0.55000001
   18.44333267   -1.00000000    4.90999985    0.69000000
   18.44666672   -1.00000000    4.90999985    0.47999999
   18.44972038   -1.00000000    4.90999985    0.20999999
   18.45305634   -1.00000000    4.90999985    0.19000000
   18.45639038   -1.00000000    4.90999985    0.17000000
   18.45944595   -1.00000000    4.90999985    0.09000000
   18.46277809   -1.00000000    4.90999985    0.05000000
   18.47277832   -1.00000000    3.78999996    0.01000000
   18.47611237   -1.00000000    3.78999996    0.01000000
   18.47916794   -1.00000000    3.78999996    0.01000000
   18.48250008   -1.00000000    3.78999996    0.01000000
   18.48583412   -1.00000000    3.78999996    0.01000000
   18.48888969   -1.00000000    3.78999996    0.01000000
   18.49222183   -1.00000000    3.78999996    0.01000000
   18.49527740   -1.00000000    3.78999996    0.01000000
   18.49861145   -1.00000000    3.78999996    0.01000000
   18.50194359   -1.00000000    3.78999996    0.01000000
   18.50527763   -1.00000000    3.78999996    0.01000000
   18.51555634   -1.00000000    3.78999996    0.01000000
   18.51888847   -1.00000000    3.78999996    0.01000000
   18.52222252   -1.00000000    3.78999996    0.01000000
   18.52527809   -1.00000000    3.78999996    0.01000000
   18.52888870   -1.00000000    3.78999996    0.01000000
   18.53222275   -1.00000000    3.78999996    0.01000000
   18.53555489   -1.00000000    3.78999996    0.01000000
   18.53888893   -1.00000000    3.78999996    0.01000000
   18.54222107   -1.00000000    3.78999996    0.01000000
   18.54527664   -1.00000000    3.78999996    0.01000000
   18.54861069   -1.00000000    3.78999996    0.01000000
   18.55861092   -1.00000000    3.78999996    0.01000000
   18.56166649   -1.00000000    3.78999996    0.01000000
   18.56499863   -1.00000000    3.78999996    0.01000000
   18.56833458   -1.00000000    3.78999996    0.01000000
   18.57166672   -1.00000000    3.78999996    0.01000000
   18.57500076   -1.00000000    3.78999996    0.01000000
   18.57805634   -1.00000000    3.78999996    0.01000000
   18.58139038   -1.00000000    3.78999996    0.01000000
   18.58472252   -1.00000000    3.78999996    0.01000000
   18.58777809   -1.00000000    3.78999996    0.01000000
   18.59111214   -1.00000000    3.78999996    0.01000000
   18.60166740   -1.00000000    3.78999996    0.01000000
   18.60499954   -1.00000000    3.78999996    0.01000000
   18.60833359   -1.00000000    3.78999996    0.01000000
   18.61138916   -1.00000000    2.71000004    0.01000000
   18.61472321   -1.00000000    4.90999985    0.01000000
   18.61805534   -1.00000000    4.90999985    0.03000000
   18.62111092   -1.00000000    4.90999985    0.07000000
   18.62444496   -1.00000000    4.90999985    0.23000000
   18.62750053   -1.00000000    4.90999985    0.50000000
   18.63083267   -1.00000000    4.90999985    0.25000000
   18.63416672   -1.00000000    4.90999985    0.05000000
   18.64416695   -1.00000000    2.93000007    0.01000000
   18.64749908   -1.00000000    2.93000007    0.01000000
   18.65055466   -1.00000000    2.93000007    0.01000000
   18.65388870   -1.00000000    2.93000007    0.01000000
   18.65722275   -1.00000000    2.93000007    0.01000000
   18.66027832   -1.00000000    2.93000007    0.01000000
   18.66361046   -1.00000000    2.93000007    0.01000000
   18.66694450   -1.00000000    2.93000007    0.01000000
   18.67055511   -1.00000000    2.93000007    0.01000000
   18.67361069   -1.00000000    2.93000007    0.01000000
   18.67694473   -1.00000000    2.93000007    0.01000000
   18.68694305   -1.00000000    2.93000007    0.01000000
   18.69027710   -1.00000000    2.93000007    0.01000000
   18.71000099   -1.00000000    2.93000007    0.01000000
   18.71333504   -1.00000000    2.93000007    0.01000000
   18.71666718   -1.00000000    2.93000007    0.01000000
   18.71972275   -1.00000000    2.93000007    0.01000000
