    HOUR (UT)   FLARE FACTOR    SKY TESTER    SUN TESTER
   14.57611084   -1.00000000   -1.00000000   -1.00000000
   14.61166668  131.43099976    0.36000001    2.69000006
   14.61472225  127.77600098    0.36000001    2.69000006
   14.61805534  136.61099243    0.36000001    2.69000006
   14.62138939  142.02099609    0.36000001    2.67000008
   14.62444496  133.86399841    0.36000001    2.69000006
   14.62777805  134.30299377    0.36000001    2.69000006
   14.63194466  134.30299377    0.38000000    2.69000006
   14.63583279  133.79499817    0.36000001    2.69000006
   14.63916683  138.43899536    0.36000001    2.69000006
   14.64249992  135.65299988    0.36000001    2.69000006
   14.64472198  136.91499329    0.36000001    2.69000006
   14.64611053  145.49099731    0.36000001    2.69000006
   14.64944458  140.00700378    0.36000001    2.69000006
   14.65249920  138.81100464    0.36000001    2.69000006
   14.65583324  140.85099792    0.36000001    2.69000006
   14.65916634  133.91000366    0.36000001    2.69000006
   14.66222191  136.65899658    0.36000001    2.69000006
   14.66555500  138.71299744    0.36000001    2.69000006
   14.66888905  140.94400024    0.36000001    2.69000006
   14.67472267  140.94400024    0.34000000    2.69000006
   14.67888927  139.55200195    0.36000001    2.69000006
   14.68194485  140.22500610    0.34000000    2.69000006
   14.68527794  131.80200195    0.34000000    2.69000006
   14.68861103  133.29600525    0.34000000    2.69000006
   14.69166660  145.30599976    0.34000000    2.69000006
   14.69499969  138.79100037    0.36000001    2.69000006
   14.69805527  132.08099365    0.36000001    2.69000006
   14.70138836  133.29600525    0.34000000    2.69000006
   14.70472240  129.46299744    0.34000000    2.69000006
   14.70777798  128.75399780    0.36000001    2.69000006
   14.71111107  143.89199829    0.34000000    2.69000006
   14.71166611  133.75500488    0.34000000    2.69000006
   14.71749973  133.75500488    0.34000000    2.69000006
   14.72166634  126.60900116    0.34000000    2.69000006
   14.72499943  124.22200012    0.34000000    2.69000006
   14.72805500  131.20599365    0.34000000    2.69000006
   14.73138809  129.80200195    0.36000001    2.69000006
   14.73444462  139.93800354    0.34000000    2.69000006
   14.73777771  137.41900635    0.36000001    2.69000006
   14.74111176  132.51699829    0.36000001    2.71000004
   14.74416733  125.77100372    0.36000001    2.71000004
   14.74499989  136.11799622    0.36000001    2.71000004
   14.74805546  135.46600342    0.36000001    2.71000004
   14.75111103  129.22999573    0.36000001    2.71000004
   14.75444412  133.49400330    0.36000001    2.69000006
   14.76027775  133.49400330    0.38000000    2.71000004
   14.76444435  114.62500000    0.38000000    2.71000004
   14.76777744  133.80900574    0.36000001    2.69000006
   14.77083302  128.04699707    0.36000001    2.71000004
   14.77416611  129.35699463    0.36000001    2.69000006
   14.77750015  123.57099915    0.36000001    2.69000006
   14.77833271  124.44200134    0.36000001    2.69000006
   14.78111076  132.33799744    0.36000001    2.69000006
   14.78416729  133.65499878    0.36000001    2.69000006
   14.78750038  136.85800171    0.36000001    2.69000006
   14.79055595  131.88900757    0.36000001    2.69000006
   14.79388905  129.41400146    0.36000001    2.69000006
   14.79722309  129.19299316    0.34000000    2.71000004
   14.80333328  129.19299316    0.34000000    2.69000006
   14.80722237  135.28700256    0.34000000    2.71000004
   14.81055546  129.79699707    0.34000000    2.71000004
   14.81166649  120.90599823    0.34000000    2.71000004
   14.81444454  125.48699951    0.36000001    2.71000004
   14.81750011  121.27899933    0.36000001    2.71000004
   14.82083321  116.77799988    0.36000001    2.71000004
   14.82388878  125.91600037    0.36000001    2.69000006
   14.82722187  127.77999878    0.36000001    2.69000006
   14.83055592  126.86399841    0.36000001    2.71000004
   14.83361053  123.30899811    0.36000001    2.71000004
   14.83694458  118.80500031    0.34000000    2.71000004
   14.84027767  118.20200348    0.36000001    2.69000006
   14.84611034  118.20200348    0.36000001    2.71000004
   14.85027790  125.22100067    0.36000001    2.71000004
   14.85333347  125.41799927    0.38000000    2.71000004
   14.85666752  121.77700043    0.38000000    2.71000004
   14.86000061  127.94000244    0.46000001    2.71000004
   14.86333370  128.75999451    0.46000001    2.69000006
   14.86638927  122.98500061    0.47999999    2.71000004
   14.86972237  125.63099670    0.61000001    2.69000006
   14.87277794  125.98799896    0.61000001    2.69000006
   14.87611103  123.78800201    0.56999999    2.71000004
   14.87833309  123.29100037    0.56999999    2.71000004
   14.87972260  127.90299988    0.58999997    2.69000006
   14.88277817  119.34100342    0.58999997    2.69000006
   14.88888836  119.34100342    0.52999997    2.69000006
   14.89305496  123.06700134    0.52999997    2.71000004
   14.89638901  122.11900330    0.55000001    2.69000006
   14.89944458  115.43699646    0.51999998    2.71000004
   14.90277767  119.59200287    0.51999998    2.71000004
   14.90583324  122.37799835    0.52999997    2.69000006
   14.90916634  121.68900299    0.52999997    2.69000006
   14.91166592  126.79000092    0.51999998    2.71000004
   14.91305542  125.15299988    0.51999998    2.71000004
   14.91611099  128.39100647    0.55000001    2.69000006
   14.91944504  118.72000122    0.58999997    2.71000004
   14.92250061  113.97399902    0.47999999    2.71000004
   14.92583370  123.83300018    0.40000001    2.71000004
   14.93166733  123.83300018    0.41999999    2.71000004
   14.93583298  118.78299713    0.40000001    2.71000004
   14.93916702  122.43800354    0.40000001    2.71000004
   14.94222260  125.00800323    0.41999999    2.71000004
   14.94499969  122.22899628    0.41999999    2.71000004
   14.94611073  117.02100372    0.41999999    2.71000004
   14.94916630  114.71299744    0.44000000    2.69000006
   14.95249939  124.66100311    0.44000000    2.69000006
   14.95555496  128.67199707    0.46000001    2.71000004
   14.95888901  113.24600220    0.46000001    2.71000004
   14.96222210  123.90799713    0.46000001    2.71000004
   14.96527767  119.04699707    0.44000000    2.71000004
   14.96861076  109.03099823    0.44000000    2.71000004
   14.97472191  109.03099823    0.50000000    2.73000002
   14.97861099  115.52600098    0.55000001    2.71000004
   14.98194408  120.07900238    0.46000001    2.71000004
   14.98527813  116.44599915    0.47999999    2.71000004
   14.98833370  114.85800171    0.50000000    2.71000004
   14.99166679  120.85099792    0.47999999    2.71000004
   14.99499989  120.62400055    0.47999999    2.71000004
   14.99805546  122.98000336    0.46000001    2.71000004
   15.00138855  111.67800140    0.46000001    2.71000004
   15.00444412  110.69400024    0.44000000    2.71000004
   15.00777817  109.99500275    0.41999999    2.73000002
   15.01111126  112.13899994    0.44000000    2.73000002
   15.01166630  117.55200195    0.44000000    2.73000002
   15.01749992  117.55200195    0.38000000    2.71000004
   15.02166653  113.66600037    0.38000000    2.71000004
   15.02472210  129.71699524    0.38000000    2.71000004
   15.02805519  124.65299988    0.38000000    2.71000004
   15.03138828  114.09500122    0.38000000    2.71000004
   15.03444481  113.69100189    0.38000000    2.71000004
   15.03777790  118.31700134    0.38000000    2.71000004
   15.04083347  116.92400360    0.38000000    2.71000004
   15.04416752  123.19400024    0.36000001    2.71000004
   15.04500008  116.64900208    0.36000001    2.71000004
   15.04777813  123.91500092    0.36000001    2.71000004
   15.05083370  116.08300018    0.38000000    2.73000002
   15.05416679  113.37100220    0.36000001    2.71000004
   15.06027794  113.37100220    0.36000001    2.71000004
   15.06444454  127.67199707    0.36000001    2.71000004
   15.06777763  125.60099792    0.34000000    2.71000004
   15.07083321  119.40899658    0.36000001    2.71000004
   15.07416630  110.81400299    0.36000001    2.73000002
   15.07750034  115.58200073    0.36000001    2.73000002
   15.07833290  119.06800079    0.38000000    2.73000002
   15.08111095  114.09600067    0.36000001    2.71000004
   15.08416653  125.37100220    0.36000001    2.73000002
   15.08749962  114.09899902    0.34000000    2.71000004
   15.09083271  110.41799927    0.34000000    2.71000004
   15.09388828  124.44000244    0.34000000    2.71000004
   15.09722233  121.12899780    0.34000000    2.73000002
   15.10305595  121.12899780    0.34000000    2.71000004
   15.10722256  121.71600342    0.34000000    2.73000002
   15.11055565  108.86599731    0.34000000    2.73000002
   15.11166668  124.69400024    0.34000000    2.71000004
   15.11416721  121.61699677    0.34000000    2.71000004
   15.11750031  112.52500153    0.34000000    2.73000002
   15.12055588  118.80799866    0.34000000    2.73000002
   15.12388897  115.16899872    0.36000001    2.71000004
   15.12722206  116.77200317    0.36000001    2.73000002
   15.13027763  112.23300171    0.36000001    2.73000002
   15.13361073  121.77200317    0.34000000    2.73000002
   15.13666630  116.02600098    0.34000000    2.73000002
   15.14000034  121.55599976    0.36000001    2.73000002
   15.14611053  121.55599976    0.36000001    2.71000004
   15.14999962  116.32099915    0.36000001    2.73000002
   15.15333271  125.43499756    0.38000000    2.73000002
   15.15666676  105.01000214    0.38000000    2.71000004
   15.15972137  114.59799957    0.36000001    2.71000004
   15.16305542  108.04699707    0.36000001    2.73000002
   15.16638851  116.24199677    0.36000001    2.73000002
   15.16944504  115.66000366    0.36000001    2.73000002
   15.17277813  103.76100159    0.36000001    2.73000002
   15.17583370  123.96199799    0.36000001    2.73000002
   15.17833328  126.87899780    0.36000001    2.73000002
   15.17972279  128.40299988    0.36000001    2.73000002
   15.18277836  126.11799622    0.36000001    2.73000002
   15.18888855  126.11799622    0.34000000    2.73000002
   15.19305515  123.94100189    0.36000001    2.73000002
   15.19611073  142.15899658    0.36000001    2.73000002
   15.19944477  131.58099365    0.34000000    2.71000004
   15.20277786  149.94099426    0.34000000    2.73000002
   15.20583344  146.68499756    0.36000001    2.73000002
   15.20916653  170.25500488    0.36000001    2.73000002
   15.21166611  197.09899902    0.34000000    2.75000000
   15.21277714  188.88099670    0.34000000    2.75000000
   15.21583271  215.33099365    0.34000000    2.73000002
   15.21916580  221.54100037    0.34000000    2.73000002
   15.22249985  283.63900757    0.34000000    2.73000002
   15.22555542  310.89498901    0.34000000    2.73000002
   15.23166656  310.89498901    0.34000000    2.73000002
   15.23583317  141.29400635    0.34000000    2.73000002
   15.23916721   99.30529785    0.34000000    2.73000002
   15.24222279   37.41279984    0.36000001    2.73000002
   15.24499989   -1.00000000   -1.00000000   -1.00000000
   15.24611092   -1.00000000    0.34000000    2.73000002
   15.24916649   -1.00000000    0.34000000    2.73000002
   15.25249958   -1.00000000    0.34000000    2.73000002
   15.25583363   -1.00000000    0.34000000    2.73000002
   15.25888920   -1.00000000    0.34000000    2.73000002
   15.26222229   -1.00000000    0.34000000    2.75000000
   15.26527786   -1.00000000    0.34000000    2.75000000
   15.26861095   -1.00000000    0.34000000    2.73000002
   15.27861118   -1.00000000    0.34000000    2.73000002
   15.28194427   -1.00000000    0.34000000    2.73000002
   15.28500080   -1.00000000    0.34000000    2.73000002
   15.28833389   -1.00000000    0.34000000    2.73000002
   15.29166698   -1.00000000    0.36000001    2.73000002
   15.29472256   -1.00000000    0.36000001    2.73000002
   15.29805565   -1.00000000    0.36000001    2.73000002
   15.30111122   -1.00000000    0.34000000    2.75000000
   15.30444431   -1.00000000    0.34000000    2.73000002
   15.30777836   -1.00000000    0.34000000    2.73000002
   15.31083393   -1.00000000    0.34000000    2.73000002
   15.32138920   -1.00000000    0.36000001    2.75000000
   15.32472229   -1.00000000    0.36000001    2.73000002
   15.32777786   -1.00000000    0.36000001    2.75000000
   15.33111095   -1.00000000    0.34000000    2.75000000
   15.33444405   -1.00000000    0.36000001    2.75000000
   15.33749962   -1.00000000    0.36000001    2.73000002
   15.34083271   -1.00000000    0.36000001    2.75000000
   15.34416676   -1.00000000    0.36000001    2.73000002
   15.34749985   -1.00000000    0.36000001    2.73000002
   15.35083389   -1.00000000    0.36000001    2.73000002
   15.35416698   -1.00000000    0.36000001    2.73000002
   15.36416721   -1.00000000    0.36000001    2.73000002
   15.36750031   -1.00000000    0.36000001    2.73000002
   15.37083340   -1.00000000    0.38000000    2.73000002
   15.37388897   -1.00000000    0.36000001    2.73000002
   15.37722206   -1.00000000    0.36000001    2.75000000
   15.38083363   -1.00000000    0.36000001    2.73000002
   15.38388920   -1.00000000    0.36000001    2.73000002
   15.38722229   -1.00000000    0.36000001    2.73000002
   15.39027786   -1.00000000    0.36000001    2.73000002
   15.39361095   -1.00000000    0.38000000    2.73000002
   15.39694405   -1.00000000    0.36000001    2.73000002
   15.40722179   -1.00000000    0.36000001    2.73000002
   15.41027737   -1.00000000    0.36000001    2.73000002
   15.41416645   -1.00000000    0.36000001    2.75000000
   15.41722298   -1.00000000    0.36000001    2.73000002
   15.42055607   -1.00000000    0.36000001    2.73000002
   15.42361164   -1.00000000    0.36000001    2.73000002
   15.42694473   -1.00000000    0.36000001    2.73000002
   15.43027782   -1.00000000    0.36000001    2.73000002
   15.43361092   -1.00000000    0.36000001    2.73000002
   15.43666649   -1.00000000    0.36000001    2.75000000
   15.44000053   -1.00000000    0.36000001    2.75000000
   15.44999981   -1.00000000    0.38000000    2.73000002
   15.45333290   -1.00000000    0.36000001    2.73000002
   15.45638847   -1.00000000    0.38000000    2.73000002
   15.45972157   -1.00000000    0.38000000    2.73000002
   15.46277714   -1.00000000    0.38000000    2.73000002
   15.46611118   -1.00000000    0.40000001    2.73000002
   15.46944427   -1.00000000    0.38000000    2.75000000
   15.47249985   -1.00000000    0.38000000    2.75000000
   15.47583294   -1.00000000    0.38000000    2.75000000
   15.47944355   -1.00000000    0.38000000    2.73000002
   15.48249912   -1.00000000    0.38000000    2.73000002
   15.49277782   -1.00000000    0.38000000    2.75000000
   15.49611092   -1.00000000    0.38000000    2.73000002
   15.49916649   -1.00000000    0.38000000    2.73000002
   15.50249958   -1.00000000    0.38000000    2.73000002
   15.50583363   -1.00000000    0.40000001    2.73000002
   15.50888920   -1.00000000    0.40000001    2.75000000
   15.51277733   -1.00000000    0.40000001    2.75000000
   15.51583290   -1.00000000    0.38000000    2.73000002
   15.51916599   -1.00000000    0.40000001    2.73000002
   15.52222157   -1.00000000    0.40000001    2.73000002
   15.52555561   -1.00000000    0.40000001    2.75000000
   15.53555584   -1.00000000    0.38000000    2.75000000
   15.53888893   -1.00000000    0.38000000    2.75000000
   15.54222298   -1.00000000    0.40000001    2.75000000
   15.54583359   -1.00000000    0.38000000    2.75000000
   15.54888916   -1.00000000    0.38000000    2.73000002
   15.55222225   -1.00000000    0.38000000    2.75000000
   15.55527782   -1.00000000    0.38000000    2.73000002
   15.55861092   -1.00000000    0.38000000    2.73000002
   15.56194496   -1.00000000    0.38000000    2.75000000
   15.56500053   -1.00000000    0.40000001    2.75000000
   15.56833363   -1.00000000    0.38000000    2.75000000
   15.69055557   -1.00000000   -1.00000000   -1.00000000
   15.89972210   -1.00000000   -1.00000000   -1.00000000
   16.02972221   -1.00000000   -1.00000000   -1.00000000
   16.12611198   -1.00000000   -1.00000000   -1.00000000
   16.14361191   72.84359741    0.52999997    2.75000000
   16.14666748  126.24500275    0.56999999    2.75000000
   16.14999962  120.85600281    0.56999999    2.75000000
   16.15333366  119.48999786    0.58999997    2.75000000
   16.15638924  104.24299622    0.58999997    2.76999998
   16.15972137  110.11000061    0.58999997    2.75000000
   16.16388893  110.11000061    0.58999997    2.76999998
   16.16805458  120.86599731    0.58999997    2.76999998
   16.17111015  109.68299866    0.61000001    2.75000000
   16.17444420  118.40899658    0.58999997    2.75000000
   16.17694473  123.80200195    0.58999997    2.76999998
   16.17805481  115.72499847    0.56999999    2.75000000
   16.18138885  121.48699951    0.56999999    2.75000000
   16.18472099  125.90100098    0.56999999    2.75000000
   16.18777657  121.89800262    0.56999999    2.75000000
   16.19111061  120.21199799    0.55000001    2.75000000
   16.19416618  120.42400360    0.55000001    2.75000000
   16.19749832  116.64299774    0.55000001    2.76999998
   16.20083427  124.00199890    0.55000001    2.75000000
   16.20666695  124.00199890    0.52999997    2.76999998
   16.21083450  115.93499756    0.52999997    2.75000000
   16.21389008  123.46099854    0.55000001    2.75000000
   16.21722221  103.04799652    0.55000001    2.75000000
   16.22055626  109.52500153    0.55000001    2.75000000
   16.22361183  113.32299805    0.56999999    2.75000000
   16.22694588  111.66000366    0.58999997    2.76999998
   16.23027802  118.28099823    0.58999997    2.75000000
   16.23333359  112.84500122    0.56999999    2.76999998
   16.23666763  118.10500336    0.55000001    2.76999998
   16.23972321  121.32399750    0.55000001    2.75000000
   16.24305534  123.81300354    0.55000001    2.76999998
   16.24361229  110.64299774    0.55000001    2.75000000
   16.24944496  110.64299774    0.55000001    2.75000000
   16.25361061  130.99499512    0.50000000    2.75000000
   16.25694466  119.34700012    0.50000000    2.75000000
   16.26000023  115.26499939    0.50000000    2.75000000
   16.26333427  111.90200043    0.51999998    2.75000000
   16.26666641  108.31800079    0.51999998    2.75000000
   16.26972198  120.55999756    0.51999998    2.75000000
   16.27305603  108.04599762    0.51999998    2.75000000
   16.27638817  117.33200073    0.51999998    2.75000000
   16.27694511  111.03600311    0.51999998    2.76999998
   16.28000069  108.62300110    0.51999998    2.76999998
   16.28305435  105.52600098    0.50000000    2.75000000
   16.28638840  106.80400085    0.51999998    2.76999998
   16.29222107  106.80400085    0.52999997    2.75000000
   16.29638863  112.21199799    0.51999998    2.75000000
   16.29972076  105.42800140    0.52999997    2.76999998
   16.30305481  102.47699738    0.55000001    2.76999998
   16.30611038  110.22000122    0.51999998    2.76999998
   16.30944443  121.71299744    0.50000000    2.76999998
   16.31027794  117.31099701    0.50000000    2.76999998
   16.31305504  119.07399750    0.51999998    2.76999998
   16.31611061  113.32199860    0.51999998    2.75000000
   16.31944466  121.52500153    0.50000000    2.75000000
   16.32277870  112.80599976    0.50000000    2.76999998
   16.32583427  113.77899933    0.50000000    2.76999998
   16.32916832  112.04599762    0.51999998    2.75000000
   16.33527756  112.04599762    0.51999998    2.76999998
   16.33944511  120.15200043    0.51999998    2.75000000
   16.34250069  124.66200256    0.51999998    2.75000000
   16.34361267  113.25199890    0.51999998    2.75000000
   16.34638977   99.29460144    0.51999998    2.75000000
   16.34944534  108.82399750    0.51999998    2.75000000
   16.35277748  111.11900330    0.51999998    2.75000000
   16.35611153  119.07399750    0.52999997    2.76999998
   16.35916710  116.69400024    0.51999998    2.75000000
   16.36250114  113.98600006    0.50000000    2.76999998
   16.36583328  119.46900177    0.51999998    2.75000000
   16.36888885  115.02799988    0.51999998    2.75000000
   16.37222290  115.90799713    0.52999997    2.76999998
   16.37805557  115.90799713    0.52999997    2.76999998
   16.38222313  112.25800323    0.51999998    2.76999998
   16.38527679  100.53900146    0.51999998    2.75000000
   16.38861084  116.03199768    0.50000000    2.76999998
   16.39194489   96.33820343    0.50000000    2.76999998
   16.39500046  122.51899719    0.47999999    2.76999998
   16.39833260  122.00199890    0.47999999    2.76999998
   16.40166664  106.44000244    0.47999999    2.76999998
   16.40499878  112.03399658    0.50000000    2.78999996
   16.40833282  109.44100189    0.50000000    2.75000000
   16.41027832  115.04000092    0.50000000    2.76999998
   16.41194344  115.98400116    0.51999998    2.76999998
   16.41499901  114.08499908    0.51999998    2.76999998
   16.42083359  114.08499908    0.50000000    2.75000000
   16.42499924  118.55000305    0.50000000    2.75000000
   16.42833328  113.37899780    0.50000000    2.75000000
   16.43138885  120.73899841    0.51999998    2.76999998
   16.43472099  122.29299927    0.51999998    2.76999998
   16.43805504  109.75099945    0.47999999    2.76999998
   16.44111061  106.99199677    0.47999999    2.76999998
   16.44361115  122.62899780    0.47999999    2.76999998
   16.44499969  106.16000366    0.47999999    2.76999998
   16.44805527  122.73999786    0.51999998    2.76999998
   16.45138931  110.34899902    0.51999998    2.76999998
   16.45472336  116.33200073    0.51999998    2.76999998
   16.45777893  117.78099823    0.50000000    2.76999998
   16.46361160  117.78099823    0.50000000    2.75000000
   16.46777916  111.11599731    0.50000000    2.75000000
   16.47111130  114.51300049    0.52999997    2.76999998
   16.47444534  115.83499908    0.52999997    2.76999998
   16.47694588  107.12200165    0.52999997    2.76999998
   16.47805595  113.62899780    0.52999997    2.76999998
   16.48111153  114.55699921    0.55000001    2.76999998
   16.48444557  119.46099854    0.56999999    2.76999998
   16.48777771  115.94400024    0.58999997    2.75000000
   16.49083328  107.65699768    0.58999997    2.75000000
   16.49416733  104.95300293    0.58999997    2.75000000
   16.49749947  105.48000336    0.58999997    2.76999998
   16.50055504  114.86799622    0.58999997    2.76999998
   16.50666618  114.86799622    0.58999997    2.75000000
   16.51083374  113.41000366    0.61000001    2.75000000
   16.51388931  105.52400208    0.55000001    2.76999998
   16.51722145  103.79699707    0.55000001    2.76999998
   16.52027702  110.06400299    0.52999997    2.76999998
   16.52361107  114.71600342    0.52999997    2.76999998
   16.52694511  114.68299866    0.50000000    2.76999998
   16.53000069  113.62899780    0.47999999    2.76999998
   16.53333282  109.40899658    0.50000000    2.76999998
   16.53666687  111.33200073    0.50000000    2.76999998
   16.53972244  117.84500122    0.47999999    2.76999998
   16.54305458  120.69300079    0.50000000    2.76999998
   16.54361153  111.40399933    0.50000000    2.76999998
   16.54944420  111.40399933    0.51999998    2.76999998
   16.55360985  118.84400177    0.51999998    2.75000000
   16.55666542  117.58699799    0.51999998    2.76999998
   16.55999947  114.42400360    0.52999997    2.76999998
   16.56333351  116.76200104    0.51999998    2.76999998
   16.56638718  114.26200104    0.51999998    2.76999998
   16.56972313  113.75499725    0.50000000    2.76999998
   16.57305717  111.90000153    0.47999999    2.76999998
   16.57611275  108.88700104    0.50000000    2.75000000
   16.57694626  119.96800232    0.50000000    2.75000000
   16.58000183  119.31199646    0.47999999    2.76999998
   16.58305550  107.08899689    0.50000000    2.76999998
   16.58638954  109.45400238    0.50000000    2.76999998
   16.59222221  109.45400238    0.51999998    2.76999998
   16.59638977  119.92099762    0.50000000    2.76999998
   16.59972191  105.94499969    0.51999998    2.76999998
   16.60277748  115.32499695    0.47999999    2.76999998
   16.60611153  118.33100128    0.50000000    2.76999998
   16.60944557  115.91500092    0.50000000    2.76999998
   16.61027908  112.02400208    0.47999999    2.76999998
   16.61305618  121.06800079    0.47999999    2.76999998
   16.61611176  108.77400208    0.47999999    2.76999998
   16.61944389  109.41400146    0.50000000    2.78999996
   16.62277794  114.17099762    0.47999999    2.76999998
   16.62583351  109.54100037    0.47999999    2.76999998
   16.62916756  117.52100372    0.47999999    2.75000000
   16.63500023  117.52100372    0.47999999    2.76999998
   16.63916588  121.59500122    0.47999999    2.76999998
   16.64249992  124.51000214    0.47999999    2.76999998
   16.64361191  117.42600250    0.47999999    2.76999998
   16.64611053  116.00399780    0.51999998    2.76999998
   16.64944458  117.91899872    0.51999998    2.76999998
   16.65250015  108.15200043    0.51999998    2.76999998
   16.65583229   94.40589905    0.51999998    2.76999998
   16.65916634  105.59500122    0.51999998    2.76999998
   16.66222191   99.63739777    0.51999998    2.76999998
   16.66555595  106.44899750    0.52999997    2.76999998
   16.66860962  105.22200012    0.52999997    2.76999998
   16.67194366  106.58999634    0.55000001    2.76999998
   16.67805481  106.58999634    0.58999997    2.76999998
   16.68222237   95.49160004    0.56999999    2.76999998
   16.68527603  111.76999664    0.58999997    2.76999998
   16.68861008  114.17299652    0.56999999    2.76999998
   16.69166565  105.72799683    0.61000001    2.76999998
   16.69499969  112.52400208    0.63000000    2.75000000
   16.69833183  111.06400299    0.63000000    2.76999998
   16.70138931  110.42199707    0.56999999    2.75000000
   16.70472336  111.22799683    0.55000001    2.75000000
   16.70805550  111.97100067    0.55000001    2.76999998
   16.71027946  118.89099884    0.55000001    2.76999998
   16.71166801  114.24299622    0.55000001    2.76999998
   16.71500015  121.50900269    0.55000001    2.76999998
   16.72083473  121.50900269    0.55000001    2.75000000
   16.72500038  128.62500000    0.55000001    2.76999998
   16.72805595  114.64900208    0.55000001    2.76999998
   16.73139000  120.20300293    0.55000001    2.75000000
   16.73472214  116.04699707    0.52999997    2.76999998
   16.73777771  119.80699921    0.52999997    2.76999998
   16.74111176  108.41600037    0.55000001    2.76999998
   16.74361229  117.86699677    0.55000001    2.75000000
   16.74472237  111.47899628    0.55000001    2.76999998
   16.74777794  121.68399811    0.55000001    2.76999998
   16.75111198  118.51799774    0.52999997    2.76999998
   16.75444412  117.70099640    0.55000001    2.75000000
   16.75749969  116.86900330    0.55000001    2.75000000
   16.76361084  116.86900330    0.61000001    2.76999998
   16.76777840  107.04399872    0.61000001    2.76999998
   16.77111053  120.12000275    0.58999997    2.76999998
   16.77416611  105.70400238    0.58999997    2.75000000
   16.77694511  117.40599823    0.58999997    2.75000000
   16.77777672  125.08999634    0.58999997    2.75000000
   16.78111076  110.79699707    0.58999997    2.76999998
   16.78416634  113.56199646    0.58999997    2.75000000
   16.78750038  123.77300262    0.58999997    2.75000000
   16.79083252  120.90399933    0.63000000    2.75000000
   16.79388809  123.43399811    0.61000001    2.75000000
   16.79722214  111.75399780    0.58999997    2.75000000
   16.80027771  120.31800079    0.61000001    2.75000000
   16.80638885  120.31800079    0.55000001    2.75000000
   16.81055450  113.71299744    0.55000001    2.75000000
   16.81388855  121.39900208    0.50000000    2.76999998
   16.81722260  114.40100098    0.50000000    2.75000000
   16.82027817  111.94699860    0.51999998    2.76999998
   16.82361221  114.02500153    0.51999998    2.75000000
   16.82666779  113.04900360    0.51999998    2.76999998
   16.83000183  121.62799835    0.52999997    2.76999998
   16.83333397  116.61299896    0.55000001    2.76999998
   16.83638954  119.22299957    0.55000001    2.76999998
   16.83972359  109.37400055    0.55000001    2.76999998
   16.84305573  120.53299713    0.58999997    2.75000000
   16.84361267  104.14099884    0.58999997    2.75000000
   16.84944534  104.14099884    0.69000000    2.76999998
   16.85333443  111.79699707    0.69000000    2.76999998
   16.85666656  111.10600281    0.61000001    2.75000000
   16.86000061  113.38899994    0.55000001    2.76999998
   16.86305618  114.41999817    0.52999997    2.75000000
   16.86638832  115.69100189    0.51999998    2.76999998
   16.86972237  111.52700043    0.51999998    2.75000000
   16.87277794  112.32199860    0.51999998    2.75000000
   16.87611198  117.61900330    0.51999998    2.76999998
   16.87694550  112.93099976    0.51999998    2.76999998
   16.87972260  106.65899658    0.51999998    2.76999998
   16.88305473  110.52200317    0.50000000    2.75000000
   16.88611031  106.94699860    0.51999998    2.76999998
   16.89222145  106.94699860    0.51999998    2.76999998
   16.89638901  110.32099915    0.51999998    2.76999998
   16.89944458  118.71700287    0.51999998    2.76999998
   16.90277672  116.73500061    0.51999998    2.76999998
   16.90611076  102.94699860    0.50000000    2.76999998
   16.90916634  106.10099792    0.50000000    2.76999998
   16.91027832  114.43099976    0.50000000    2.76999998
   16.91277695  111.95200348    0.50000000    2.76999998
   16.91611099  113.26599884    0.50000000    2.76999998
   16.91916656  109.35399628    0.50000000    2.75000000
   16.92249870  111.00900269    0.47999999    2.75000000
   16.92555428  113.66000366    0.47999999    2.75000000
   16.92888832  114.16300201    0.47999999    2.76999998
   16.93499947  114.16300201    0.47999999    2.76999998
   16.93916512  113.50299835    0.47999999    2.76999998
   16.94249916  113.90899658    0.47999999    2.76999998
   16.94361115  115.13300323    0.47999999    2.76999998
   16.94610977  118.37000275    0.47999999    2.76999998
   16.94944382  116.34500122    0.47999999    2.76999998
   16.95250130  107.81700134    0.50000000    2.75000000
   16.95583344  112.90299988    0.50000000    2.76999998
   16.95916748  115.53700256    0.50000000    2.75000000
   16.96222305  103.34600067    0.51999998    2.78999996
   16.96555710  109.45300293    0.51999998    2.76999998
   16.96861076  113.57399750    0.51999998    2.76999998
   16.97194481  106.74500275    0.51999998    2.76999998
   16.97777748  106.74500275    0.52999997    2.76999998
   16.98194504  116.06500244    0.52999997    2.75000000
   16.98527718  101.31600189    0.52999997    2.75000000
   16.98833275  116.75000000    0.52999997    2.75000000
   16.99166679  110.35500336    0.50000000    2.76999998
   16.99500084  122.08699799    0.51999998    2.76999998
   16.99805641  110.58200073    0.50000000    2.75000000
   17.00138855  115.29399872    0.52999997    2.75000000
   17.00472260  120.10900116    0.52999997    2.75000000
   17.00777817  112.57399750    0.52999997    2.75000000
   17.01027870  105.38899994    0.52999997    2.76999998
   17.01138878  113.27700043    0.52999997    2.76999998
   17.01472282  112.23300171    0.51999998    2.75000000
   17.02083397  112.23300171    0.51999998    2.75000000
   17.02472115  112.86799622    0.51999998    2.75000000
   17.02805519  117.86699677    0.51999998    2.75000000
   17.03138924  116.12400055    0.51999998    2.75000000
   17.03444481  118.81099701    0.51999998    2.75000000
   17.03777695  117.05599976    0.51999998    2.75000000
   17.04111099  106.29000092    0.50000000    2.75000000
   17.04361153  110.34999847    0.50000000    2.75000000
   17.04472160  111.55899811    0.50000000    2.75000000
   17.04805565  115.62100220    0.51999998    2.75000000
   17.05111122  115.08599854    0.47999999    2.75000000
   17.05444336  114.56300354    0.47999999    2.76999998
   17.05777740  111.71800232    0.47999999    2.75000000
   17.06361008  111.71800232    0.46000001    2.76999998
   17.06777954  110.50099945    0.46000001    2.75000000
   17.07083511  115.07900238    0.46000001    2.75000000
   17.07416725  111.08699799    0.46000001    2.75000000
   17.07694626  114.77100372    0.44000000    2.75000000
   17.07777786  109.14800262    0.46000001    2.75000000
   17.08111191  121.40699768    0.46000001    2.75000000
   17.08416748  114.69400024    0.47999999    2.75000000
   17.08750153  115.59200287    0.50000000    2.75000000
   17.09083366  117.09200287    0.50000000    2.75000000
   17.09388924  115.77899933    0.50000000    2.75000000
   17.09722328  113.21900177    0.51999998    2.75000000
   17.10027885  112.76899719    0.51999998    2.76999998
   17.10639000  112.76899719    0.52999997    2.75000000
   17.11055565  119.95500183    0.51999998    2.75000000
   17.11388969  111.40599823    0.52999997    2.75000000
   17.11694527  121.29699707    0.51999998    2.76999998
   17.12027740  111.69599915    0.52999997    2.75000000
   17.12333298  113.43000031    0.52999997    2.75000000
   17.12666702  114.22899628    0.52999997    2.75000000
   17.13000107  104.98400116    0.51999998    2.75000000
   17.13305473   88.32219696    0.51999998    2.75000000
   17.13638878  106.29299927    0.51999998    2.75000000
   17.13972282  102.05899811    0.51999998    2.75000000
   17.14277840   97.32720184    0.51999998    2.76999998
   17.14361191  111.90399933    0.51999998    2.76999998
   17.16444397  111.90399933    0.51999998    2.76999998
   17.16860962  106.38800049    0.50000000    2.75000000
   17.17194366  104.50199890    0.52999997    2.76999998
   17.17499924  110.91100311    0.51999998    2.76999998
   17.17694473  120.01300049    0.51999998    2.75000000
   17.17860985  107.34200287    0.52999997    2.75000000
   17.18194389  103.11799622    0.51999998    2.75000000
   17.18499947  106.39199829    0.51999998    2.75000000
   17.18833160  105.95800018    0.51999998    2.75000000
   17.19166565  102.45099640    0.52999997    2.75000000
   17.19472122  104.66899872    0.52999997    2.75000000
   17.19805527  115.00499725    0.55000001    2.73000002
   17.20138931  115.03600311    0.56999999    2.75000000
   17.20722389  115.03600311    0.56999999    2.75000000
   17.21138954  113.78099823    0.56999999    2.75000000
   17.21472359  112.53299713    0.58999997    2.75000000
   17.21777916  106.91500092    0.58999997    2.75000000
   17.22111130  108.11000061    0.58999997    2.75000000
   17.22416687  108.65499878    0.58999997    2.76999998
   17.22750092  103.22299957    0.56999999    2.75000000
   17.23083305   98.58419800    0.56999999    2.75000000
   17.23388863  104.10900116    0.56999999    2.75000000
   17.23722267  108.05400085    0.58999997    2.75000000
   17.24055672  101.54000092    0.61000001    2.75000000
   17.24388885  105.01599884    0.63000000    2.75000000
   17.24416733   96.34999847    0.63000000    2.75000000
   17.25000000   96.34999847    0.63000000    2.75000000
   17.25416756  107.20999908    0.55000001    2.75000000
   17.25749969  104.72299957    0.55000001    2.75000000
   17.26055527  110.43900299    0.55000001    2.75000000
   17.26388931  110.27300262    0.58999997    2.75000000
   17.26722145  117.95500183    0.61000001    2.75000000
   17.27027702  101.56300354    0.64999998    2.75000000
   17.27361107  104.99400330    0.63000000    2.75000000
   17.27666664  112.23899841    0.56999999    2.75000000
   17.27722168  104.54199982    0.56999999    2.75000000
   17.28055573  102.88200378    0.55000001    2.75000000
   17.28388786  106.64900208    0.52999997    2.75000000
   17.28694344  101.54699707    0.51999998    2.75000000
   17.29277802  101.54699707    0.52999997    2.76999998
   17.29694366  106.18199921    0.52999997    2.75000000
   17.30027771  108.23799896    0.52999997    2.75000000
   17.30360985   98.31880188    0.51999998    2.76999998
   17.30666542  108.57399750    0.52999997    2.75000000
   17.30999947  105.24600220    0.55000001    2.76999998
   17.31055450  111.27300262    0.55000001    2.76999998
   17.31361008  108.09899902    0.52999997    2.75000000
   17.31694603  112.01599884    0.51999998    2.75000000
   17.32000160  107.34700012    0.51999998    2.75000000
   17.32333374  108.66600037    0.52999997    2.76999998
   17.32666779  110.27999878    0.51999998    2.75000000
   17.32972336  112.46199799    0.51999998    2.75000000
   17.33583450  112.46199799    0.51999998    2.75000000
   17.34000015  109.85600281    0.51999998    2.75000000
   17.34305573   98.13510132    0.51999998    2.75000000
   17.34388924  107.01200104    0.51999998    2.75000000
   17.34666824  102.65899658    0.51999998    2.75000000
   17.35000038  106.19599915    0.50000000    2.75000000
   17.35305595  102.56300354    0.50000000    2.75000000
   17.35639000  104.79499817    0.50000000    2.75000000
   17.35972214  102.16200256    0.50000000    2.75000000
   17.36277771  108.66999817    0.50000000    2.75000000
   17.36611176  113.08000183    0.50000000    2.75000000
   17.36916733  115.07700348    0.50000000    2.75000000
   17.37249947  103.51699829    0.50000000    2.75000000
   17.37861061  103.51699829    0.51999998    2.75000000
   17.38277817  118.14800262    0.51999998    2.75000000
   17.38583374  106.83599854    0.50000000    2.75000000
   17.38916588   99.01930237    0.50000000    2.75000000
   17.39249992  105.14499664    0.51999998    2.75000000
   17.39555550  102.79199982    0.51999998    2.75000000
   17.39888954  104.74900055    0.51999998    2.75000000
   17.40222168  106.53299713    0.51999998    2.75000000
   17.40527725  100.97200012    0.52999997    2.75000000
   17.40861130  108.30799866    0.52999997    2.75000000
   17.41055489   98.39990234    0.52999997    2.75000000
   17.41222191  107.92099762    0.52999997    2.75000000
   17.41555595  106.83300018    0.52999997    2.75000000
   17.42138863  106.83300018    0.55000001    2.75000000
   17.42555428  109.32099915    0.55000001    2.75000000
   17.42888832  110.29000092    0.52999997    2.75000000
   17.43194389  105.65299988    0.52999997    2.75000000
   17.43527603  105.00800323    0.55000001    2.75000000
   17.43861008  110.57700348    0.52999997    2.75000000
   17.44166565  115.13099670    0.52999997    2.75000000
   17.44388771  114.89199829    0.55000001    2.75000000
   17.44527626  108.28299713    0.55000001    2.75000000
   17.44861031  111.49600220    0.55000001    2.75000000
   17.45166779  108.18000031    0.55000001    2.75000000
   17.45499992  106.73100281    0.55000001    2.75000000
   17.45833397  109.19499969    0.56999999    2.75000000
   17.46416664  109.19499969    0.55000001    2.75000000
   17.46833420  110.49099731    0.56999999    2.75000000
   17.47166634  109.72200012    0.55000001    2.75000000
   17.47500038  110.51699829    0.55000001    2.75000000
   17.47722244   94.51090240    0.55000001    2.75000000
   17.47861099  101.53299713    0.55000001    2.75000000
   17.48194504   92.25440216    0.55000001    2.73000002
   17.48500061  106.11699677    0.51999998    2.75000000
   17.48833275   93.09500122    0.51999998    2.75000000
   17.49166679   96.33850098    0.51999998    2.75000000
   17.49472237  112.78299713    0.52999997    2.75000000
   17.49805641  103.87799835    0.52999997    2.75000000
   17.50138855  104.88899994    0.55000001    2.75000000
   17.50722313  104.88899994    0.52999997    2.75000000
   17.51138878   96.59049988    0.52999997    2.75000000
   17.51444435  102.25199890    0.51999998    2.75000000
   17.51777840  107.76000214    0.52999997    2.76999998
   17.52083397  101.66000366    0.52999997    2.75000000
   17.52416611   94.29679871    0.52999997    2.75000000
   17.52750015  104.85700226    0.51999998    2.75000000
   17.53055573  112.41100311    0.51999998    2.75000000
   17.53388786  103.44999695    0.52999997    2.75000000
   17.53722191   99.78569794    0.52999997    2.75000000
   17.54027748  106.85900116    0.55000001    2.75000000
   17.54361153   97.61080170    0.55000001    2.75000000
   17.54416656   95.01319885    0.55000001    2.75000000
   17.54999924   95.01319885    0.55000001    2.75000000
   17.55416679   97.26689911    0.55000001    2.75000000
   17.55722237  103.95200348    0.52999997    2.75000000
   17.56055450  104.50800323    0.55000001    2.75000000
   17.56388855  100.62400055    0.51999998    2.75000000
   17.56694603  104.36100006    0.52999997    2.75000000
   17.57027817  108.44699860    0.52999997    2.75000000
   17.57361221  102.64099884    0.52999997    2.75000000
   17.57666779  104.43699646    0.52999997    2.75000000
   17.57750130  102.37000275    0.52999997    2.75000000
   17.58027840  100.33000183    0.51999998    2.75000000
   17.58361244  103.01899719    0.55000001    2.75000000
   17.58694458  106.07099915    0.55000001    2.75000000
   17.59277916  106.07099915    0.55000001    2.75000000
   17.59694481   98.94419861    0.55000001    2.75000000
   17.60027885  107.60399628    0.55000001    2.75000000
   17.60333443  105.97499847    0.55000001    2.75000000
   17.60666656  108.34700012    0.52999997    2.75000000
   17.60972214  107.29799652    0.52999997    2.75000000
   17.61083412  104.46099854    0.52999997    2.75000000
   17.61333466  107.39399719    0.55000001    2.76999998
   17.61666679  108.70500183    0.55000001    2.75000000
   17.62000084  101.75399780    0.56999999    2.75000000
   17.62305641  100.00499725    0.56999999    2.75000000
   17.62638855  101.25800323    0.58999997    2.75000000
   17.62972260   99.35209656    0.58999997    2.75000000
   17.63555527   99.35209656    0.56999999    2.75000000
   17.63972282  106.52100372    0.56999999    2.75000000
   17.64305496   99.14360046    0.55000001    2.75000000
   17.64416695   97.49590302    0.55000001    2.75000000
   17.64666748   99.26719666    0.55000001    2.75000000
   17.64999962   99.92649841    0.55000001    2.75000000
   17.65333366  102.16100311    0.55000001    2.75000000
   17.65638924  100.43499756    0.58999997    2.75000000
   17.65972137   96.99919891    0.58999997    2.75000000
   17.66305542   94.08489990    0.58999997    2.75000000
   17.66611099   96.35019684    0.56999999    2.75000000
   17.66944313  108.98799896    0.55000001    2.75000000
   17.67277718  111.58499908    0.55000001    2.75000000
   17.67860985  111.58499908    0.52999997    2.75000000
   17.68277740  110.86599731    0.55000001    2.75000000
   17.68583298  109.91899872    0.55000001    2.75000000
   17.68916512  101.55599976    0.58999997    2.75000000
   17.69222069  107.02300262    0.56999999    2.75000000
   17.69555473  103.46900177    0.56999999    2.73000002
   17.69888878  106.81900024    0.56999999    2.75000000
   17.70194435  115.12500000    0.61000001    2.75000000
   17.70527840  108.01699829    0.61000001    2.75000000
   17.70861244  100.69599915    0.63000000    2.75000000
   17.71083450  107.97200012    0.63000000    2.75000000
   17.71194458  104.03399658    0.63000000    2.75000000
   17.71527863  101.15100098    0.63000000    2.75000000
   17.72138977  101.15100098    0.63000000    2.73000002
   17.72555542  105.01000214    0.63000000    2.75000000
   17.72861099  103.74600220    0.63000000    2.75000000
   17.73194504  103.78199768    0.58999997    2.71000004
   17.73527718  109.25599670    0.56999999    2.75000000
   17.73833275  105.12999725    0.56999999    2.75000000
   17.74166679  100.80100250    0.56999999    2.75000000
   17.74416733  100.54900360    0.55000001    2.75000000
   17.74527740  103.83799744    0.55000001    2.75000000
   17.74861145  114.48799896    0.55000001    2.75000000
   17.75194359  100.84300232    0.51999998    2.75000000
   17.75499916  105.61399841    0.52999997    2.73000002
   17.75833321  104.54199982    0.51999998    2.75000000
   17.76416588  104.54199982    0.51999998    2.73000002
   17.76833344   99.22630310    0.51999998    2.75000000
   17.77166557  108.91000366    0.51999998    2.73000002
   17.77472115  106.71800232    0.52999997    2.75000000
   17.77750015  110.03500366    0.52999997    2.73000002
   17.77833366   95.68299866    0.51999998    2.75000000
   17.78166580   94.05319977    0.52999997    2.75000000
   17.78499985   93.78880310    0.52999997    2.75000000
   17.78805542  108.19100189    0.52999997    2.75000000
   17.79138756  103.48200226    0.52999997    2.75000000
   17.79472160   92.72200012    0.52999997    2.75000000
   17.79777718   98.64150238    0.55000001    2.75000000
   17.80111122  106.34799957    0.52999997    2.73000002
   17.80694389  106.34799957    0.52999997    2.73000002
   17.81110954  103.74600220    0.55000001    2.73000002
   17.81444359  102.13300323    0.55000001    2.73000002
   17.81750107  113.76799774    0.55000001    2.75000000
   17.82083511  111.31400299    0.56999999    2.73000002
   17.82416725  103.25199890    0.55000001    2.75000000
   17.82722282  111.11499786    0.55000001    2.75000000
   17.83055687  106.54399872    0.55000001    2.75000000
   17.83388901  107.85199738    0.51999998    2.73000002
   17.83694458  112.97000122    0.52999997    2.75000000
   17.84027863  106.74900055    0.52999997    2.75000000
   17.84333420  115.59600067    0.51999998    2.75000000
   17.84416771  113.71499634    0.51999998    2.75000000
   17.85000038  113.71499634    0.51999998    2.73000002
   17.85388947  104.81900024    0.51999998    2.75000000
   17.85722351  113.11100006    0.52999997    2.75000000
   17.86055565  111.91899872    0.51999998    2.75000000
   17.86361122  113.71700287    0.52999997    2.75000000
   17.86694527  114.51999664    0.51999998    2.73000002
   17.87000084  111.25499725    0.51999998    2.73000002
   17.87333298  112.50099945    0.55000001    2.75000000
   17.87666702  112.34999847    0.56999999    2.75000000
   17.87750053  101.19100189    0.56999999    2.75000000
   17.88000107  124.62699890    0.56999999    2.75000000
   17.88333321  109.08999634    0.56999999    2.75000000
   17.88666725  108.29100037    0.56999999    2.75000000
   17.89277840  108.29100037    0.52999997    2.75000000
   17.89694405   99.48639679    0.55000001    2.73000002
   17.89999962  109.54900360    0.56999999    2.75000000
   17.90333366  113.24900055    0.55000001    2.75000000
   17.90638924  114.33000183    0.52999997    2.73000002
   17.90972137  104.06500244    0.55000001    2.73000002
   17.91083336  113.24299622    0.55000001    2.73000002
   17.91361046  119.48100281    0.52999997    2.75000000
   17.91666603  109.31099701    0.52999997    2.73000002
   17.92000008  110.37100220    0.51999998    2.73000002
   17.92333221  113.05100250    0.63000000    2.75000000
   17.92638779  120.92500305    0.69000000    2.73000002
   17.92972183  112.21499634    0.73000002    2.73000002
   17.93555450  112.21499634    0.69000000    2.73000002
   17.93972206  112.29499817    0.67000002    2.73000002
   17.94305420  110.30000305    0.64999998    2.75000000
   17.94416618  118.79599762    0.64999998    2.75000000
   17.94666672  118.63800049    0.56999999    2.73000002
   17.94972038  110.32099915    0.56999999    2.73000002
   17.95305634  114.17600250    0.55000001    2.73000002
   17.95611191  114.62300110    0.55000001    2.73000002
   17.95944595  113.27300262    0.58999997    2.73000002
   17.96277809  118.00499725    0.58999997    2.75000000
   17.96583366  115.23799896    0.58999997    2.73000002
   17.96916771  105.66100311    0.61000001    2.75000000
   17.97222328  117.20800018    0.58999997    2.73000002
   17.97833443  117.20800018    0.56999999    2.73000002
   17.98250008  111.79699707    0.56999999    2.73000002
   17.98583412  112.77500153    0.55000001    2.75000000
   17.98888969  111.53500366    0.55000001    2.75000000
   17.99222183  118.48600006    0.51999998    2.75000000
   17.99555588  112.30599976    0.51999998    2.75000000
   17.99861145  113.75199890    0.51999998    2.75000000
   18.00194359  111.51599884    0.52999997    2.73000002
   18.00527763  111.66799927    0.52999997    2.73000002
   18.00833321  111.97899628    0.55000001    2.75000000
   18.01083374  112.38500214    0.52999997    2.73000002
   18.01222229  113.26200104    0.52999997    2.73000002
   18.01527786  113.62400055    0.52999997    2.73000002
   18.02138901  113.62400055    0.52999997    2.73000002
   18.02527809  110.70700073    0.51999998    2.73000002
   18.02861023  118.22799683    0.51999998    2.75000000
   18.03194427  111.17600250    0.51999998    2.75000000
   18.03499985  109.77999878    0.50000000    2.73000002
   18.03833199  113.82700348    0.50000000    2.75000000
   18.04166603  106.70200348    0.50000000    2.73000002
   18.04416656  109.03099823    0.50000000    2.75000000
   18.04527664  113.07700348    0.50000000    2.75000000
   18.04833221  107.44999695    0.50000000    2.73000002
   18.05166626  104.93000031    0.51999998    2.73000002
   18.05499840   95.80860138    0.51999998    2.75000000
   18.05805397  101.81300354    0.51999998    2.73000002
   18.06416512  101.81300354    0.52999997    2.75000000
   18.06833458   97.73680115    0.52999997    2.73000002
   18.07139015  116.08200073    0.51999998    2.73000002
   18.07472229  113.14399719    0.51999998    2.73000002
   18.07750130  113.97299957    0.51999998    2.73000002
   18.07861137  110.38300323    0.51999998    2.73000002
   18.08166695  106.58599854    0.50000000    2.73000002
   18.08500099  109.13300323    0.51999998    2.73000002
   18.08805656  117.67800140    0.51999998    2.73000002
   18.09138870  113.47799683    0.51999998    2.73000002
   18.09472275  108.88700104    0.51999998    2.73000002
   18.09777832  113.93800354    0.51999998    2.75000000
   18.10111237  113.15200043    0.51999998    2.75000000
   18.10694504  113.15200043    0.55000001    2.73000002
   18.11111069  113.58899689    0.55000001    2.73000002
   18.11416626  114.82199860    0.55000001    2.73000002
   18.11750031  119.99199677    0.55000001    2.73000002
   18.12083435  113.35199738    0.56999999    2.73000002
   18.12388992  119.45999908    0.56999999    2.73000002
   18.12722206  115.39700317    0.56999999    2.73000002
   18.13055611  114.08399963    0.56999999    2.73000002
   18.13361168  110.61399841    0.56999999    2.73000002
   18.13694382  118.57700348    0.55000001    2.73000002
   18.13999939   97.14459991    0.55000001    2.73000002
   18.14333344  115.78700256    0.55000001    2.73000002
   18.14416695  111.00399780    0.55000001    2.73000002
   18.14972115  111.00399780    0.52999997    2.73000002
   18.15388870  116.28399658    0.52999997    2.73000002
   18.15722275  119.30200195    0.51999998    2.73000002
   18.16027832  116.79599762    0.51999998    2.73000002
   18.17805481  119.84899902    0.52999997    2.73000002
   18.18055534  105.92099762    0.52999997    2.73000002
   18.18361092  111.63600159    0.52999997    2.73000002
   18.18694305  115.16699982    0.52999997    2.71000004
   18.19277763  115.16699982    0.55000001    2.73000002
   18.19694328  109.98400116    0.55000001    2.71000004
   18.20027924  116.60399628    0.58999997    2.73000002
   18.20333481  106.48899841    0.58999997    2.73000002
   18.20666695  113.83799744    0.56999999    2.73000002
   18.21000099  113.47799683    0.56999999    2.71000004
   18.21111107  112.15399933    0.56999999    2.73000002
   18.21361160  115.33599854    0.56999999    2.73000002
   18.21694565  117.27500153    0.56999999    2.73000002
   18.22000122  118.23699951    0.56999999    2.73000002
   18.22333336  112.48799896    0.56999999    2.71000004
   18.22666740  126.83200073    0.56999999    2.71000004
   18.22972298  110.33100128    0.56999999    2.71000004
   18.23555565  110.33100128    0.55000001    2.73000002
   18.23972321  116.65399933    0.55000001    2.71000004
   18.24305534  111.11699677    0.52999997    2.73000002
   18.24444389  109.36399841    0.52999997    2.73000002
   18.24666786  108.96399689    0.52999997    2.71000004
   18.25000000  118.03399658    0.55000001    2.71000004
   18.25305557  109.15599823    0.55000001    2.73000002
   18.25638962  112.17600250    0.55000001    2.73000002
   18.25972176  118.54199982    0.52999997    2.71000004
   18.26277733  125.38899994    0.51999998    2.73000002
   18.26611137  114.07700348    0.51999998    2.73000002
   18.26944351   99.13040161    0.51999998    2.73000002
   18.27249908  113.58899689    0.51999998    2.73000002
   18.27861023  113.58899689    0.51999998    2.71000004
   18.28277779  113.08000183    0.52999997    2.71000004
   18.28583336  114.14900208    0.55000001    2.71000004
   18.28916550  104.82800293    0.55000001    2.71000004
   18.29222107  112.62200165    0.55000001    2.71000004
   18.29555511  105.51799774    0.55000001    2.71000004
   18.29888916  113.71700287    0.55000001    2.71000004
   18.30194283  106.15899658    0.55000001    2.71000004
   18.30527687   95.67330170    0.56999999    2.71000004
   18.30861092  104.91600037    0.56999999    2.71000004
   18.31110954   97.28900146    0.56999999    2.71000004
   18.31250000  109.27999878    0.56999999    2.71000004
   18.31583214  108.34600067    0.55000001    2.71000004
   18.32139015  108.34600067    0.56999999    2.71000004
   18.32583427  109.73799896    0.55000001    2.71000004
   18.32888985  100.16699982    0.55000001    2.71000004
   18.33222389  100.97100067    0.56999999    2.71000004
   18.33527756  109.92099762    0.58999997    2.73000002
   18.33861160  115.32099915    0.56999999    2.71000004
   18.34194565  107.37400055    0.55000001    2.71000004
   18.34472275  119.10299683    0.55000001    2.71000004
   18.34555626  114.54699707    0.55000001    2.71000004
   18.34889030  113.90899658    0.55000001    2.71000004
   18.35222244   97.25389862    0.52999997    2.71000004
   18.35527802  116.99500275    0.52999997    2.71000004
   18.35861206  102.49800110    0.55000001    2.71000004
   18.36416626  102.49800110    0.56999999    2.71000004
   18.36833382  108.18699646    0.56999999    2.71000004
   18.37166595  103.66000366    0.56999999    2.71000004
   18.37472153   94.51170349    0.55000001    2.71000004
   18.37805557  107.32800293    0.55000001    2.71000004
   18.37833405   95.21330261    0.55000001    2.71000004
   18.38166618  111.68199921    0.55000001    2.71000004
   18.38472176  108.29000092    0.55000001    2.71000004
   18.38805580  106.55999756    0.55000001    2.71000004
   18.39138794  116.81600189    0.55000001    2.71000004
   18.39444351  114.79499817    0.55000001    2.71000004
   18.39777756  119.85299683    0.55000001    2.71000004
   18.40111160  110.90499878    0.56999999    2.71000004
   18.40722275  110.90499878    0.56999999    2.71000004
   18.41138840  104.51000214    0.56999999    2.71000004
   18.41166687  106.29000092    0.56999999    2.71000004
   18.41499901  112.91000366    0.56999999    2.71000004
   18.41805458  113.33499908    0.56999999    2.71000004
   18.42138863  109.60900116    0.58999997    2.71000004
   18.42472076  101.76100159    0.56999999    2.71000004
   18.42777634  108.11299896    0.56999999    2.71000004
   18.43111038  107.32900238    0.55000001    2.71000004
   18.43444443  104.77500153    0.56999999    2.71000004
   18.43750000  107.64499664    0.56999999    2.71000004
   18.44083214  106.64800262    0.56999999    2.71000004
   18.44416618   96.58699799    0.61000001    2.69000006
   18.44472122  101.84999847    0.61000001    2.71000004
   18.45000076  101.84999847    0.64999998    2.71000004
   18.45416832  103.94999695    0.61000001    2.71000004
   18.45722389  107.11299896    0.56999999    2.71000004
   18.46055603  104.31500244    0.56999999    2.69000006
   18.46361160  108.15599823    0.56999999    2.71000004
   18.46694565  106.53299713    0.56999999    2.71000004
   18.47027779  106.30899811    0.56999999    2.71000004
   18.47333336  112.36199951    0.58999997    2.71000004
   18.47666740  107.95300293    0.61000001    2.71000004
   18.47805595  102.61000061    0.61000001    2.69000006
   18.48027802  107.40499878    0.61000001    2.71000004
   18.48361206  109.97599792    0.61000001    2.71000004
   18.48694420  106.53099823    0.61000001    2.69000006
   18.49277878  106.53099823    0.63000000    2.69000006
   18.49694443  103.97399902    0.63000000    2.69000006
   18.50000000  102.66000366    0.64999998    2.71000004
   18.50333405  108.17500305    0.64999998    2.71000004
   18.50666618  102.43399811    0.64999998    2.69000006
   18.50972176   96.99469757    0.67000002    2.71000004
   18.51138878  103.00599670    0.67000002    2.69000006
   18.51333427   94.12539673    0.67000002    2.69000006
   18.51666641  103.25599670    0.70999998    2.69000006
   18.52000046   98.67240143    0.70999998    2.71000004
   18.52305603   99.47119904    0.70999998    2.71000004
   18.52638817  106.12799835    0.69000000    2.69000006
   18.52944374  107.26599884    0.69000000    2.69000006
   18.53555489  107.26599884    0.69000000    2.71000004
   18.53972244  103.44699860    0.63000000    2.69000006
   18.54305458  102.88899994    0.63000000    2.69000006
   18.54472160  103.20099640    0.61000001    2.69000006
   18.54666710   96.65090179    0.63000000    2.69000006
   18.54999924  105.48100281    0.63000000    2.69000006
   18.55333328  106.56400299    0.63000000    2.69000006
   18.55638885  112.00900269    0.61000001    2.69000006
   18.55972099  101.64600372    0.61000001    2.71000004
   18.56277657  106.83899689    0.64999998    2.69000006
   18.56611061  105.84899902    0.64999998    2.69000006
   18.56944466  107.07700348    0.67000002    2.69000006
   18.57250023  110.05899811    0.64999998    2.69000006
   18.57833481  110.05899811    0.64999998    2.69000006
   18.58250046  107.45200348    0.64999998    2.69000006
   18.58583450  108.46199799    0.64999998    2.69000006
   18.58916664  106.26599884    0.61000001    2.69000006
   18.59222221  113.83000183    0.64999998    2.71000004
   18.59555626  110.42400360    0.67000002    2.69000006
   18.59889030  103.26200104    0.67000002    2.69000006
   18.60194397  107.27700043    0.69000000    2.69000006
   18.60527802   94.02390289    0.67000002    2.69000006
   18.60833359  107.71099854    0.69000000    2.69000006
   18.61138916  107.14700317    0.70999998    2.69000006
   18.61194420  107.23200226    0.69000000    2.69000006
   18.61527824  106.69599915    0.69000000    2.69000006
   18.62138939  106.69599915    0.69000000    2.69000006
   18.62555504  105.92700195    0.64999998    2.71000004
   18.62861061  104.54799652    0.64999998    2.69000006
   18.63194466  116.21399689    0.64999998    2.69000006
   18.63500023  103.10399628    0.64999998    2.69000006
   18.63833237   99.69129944    0.67000002    2.69000006
   18.64166641  109.51100159    0.67000002    2.69000006
   18.64472198  102.46299744    0.69000000    2.69000006
   18.64500046  101.20899963    0.69000000    2.69000006
   18.64833260  104.16100311    0.70999998    2.69000006
   18.65166664  108.79000092    0.70999998    2.69000006
   18.65472221  113.23699951    0.73000002    2.69000006
   18.65805435  109.41300201    0.73000002    2.69000006
   18.66416550  109.41300201    0.73000002    2.69000006
   18.66833305  106.80000305    0.73000002    2.69000006
   18.67166519  110.40699768    0.73000002    2.69000006
   18.67472076  101.43800354    0.73000002    2.69000006
   18.67805481  108.36000061    0.69000000    2.69000006
   18.67833328  105.35800171    0.69000000    2.69000006
   18.68166542  103.50900269    0.67000002    2.69000006
   18.68499947  114.76300049    0.64999998    2.69000006
   18.68805504  115.88800049    0.64999998    2.69000006
   18.69138718  106.43399811    0.63000000    2.69000006
   18.69444275  108.38700104    0.64999998    2.69000006
   18.69777679  111.34500122    0.64999998    2.69000006
   18.70111275   98.25489807    0.64999998    2.69000006
   18.70694542   98.25489807    0.64999998    2.69000006
   18.71111107  101.70899963    0.64999998    2.69000006
   18.71166801  107.68599701    0.64999998    2.69000006
   18.71500015  100.81300354    0.64999998    2.69000006
   18.71805573  110.02799988    0.67000002    2.69000006
   18.72138977  101.38099670    0.64999998    2.69000006
   18.72472191  103.48600006    0.64999998    2.69000006
   18.72777748   96.63780212    0.64999998    2.69000006
   18.73111153  110.82499695    0.64999998    2.69000006
   18.73444557  110.08999634    0.64999998    2.69000006
   18.73750114   98.86499786    0.64999998    2.69000006
   18.74083328   97.19889832    0.64999998    2.69000006
   18.74388885   98.16369629    0.64999998    2.69000006
   18.74500084  116.09100342    0.64999998    2.69000006
   18.75000000  116.09100342    0.64999998    2.67000008
   18.75388908  102.09899902    0.64999998    2.67000008
   18.75722313   99.48020172    0.64999998    2.67000008
   18.76055527  104.99900055    0.64999998    2.67000008
   18.76361084  104.67600250    0.63000000    2.67000008
   18.76694489  102.76300049    0.63000000    2.69000006
   18.77027702  103.99900055    0.61000001    2.69000006
   18.77333260   97.44039917    0.61000001    2.69000006
   18.77666664   93.98040009    0.61000001    2.67000008
   18.77833366   98.61409760    0.63000000    2.67000008
   18.78027725   97.26260376    0.63000000    2.69000006
   18.78333282  100.89700317    0.63000000    2.69000006
   18.78666687   93.85079956    0.63000000    2.67000008
   18.79277802   93.85079956    0.63000000    2.69000006
   18.79694366  104.10600281    0.63000000    2.67000008
   18.79999924  109.69799805    0.56999999    2.69000006
   18.80333328  102.42299652    0.56999999    2.69000006
   18.80666542   86.58599854    0.56999999    2.69000006
   18.80972099  103.55699921    0.58999997    2.67000008
   18.81166649  103.75700378    0.56999999    2.69000006
   18.81333351   90.49410248    0.56999999    2.69000006
   18.81638718  107.60600281    0.58999997    2.69000006
   18.81972313  102.63600159    0.61000001    2.67000008
   18.82305717  106.65399933    0.58999997    2.67000008
   18.82611275  108.95099640    0.58999997    2.67000008
   18.82944489  104.82499695    0.61000001    2.67000008
   18.83555603  104.82499695    0.61000001    2.67000008
   18.83972359  105.92299652    0.61000001    2.67000008
   18.84305573  107.03299713    0.61000001    2.67000008
   18.84500122  102.25299835    0.58999997    2.67000008
   18.84666824  108.30100250    0.58999997    2.67000008
   18.85000038  103.23000336    0.58999997    2.67000008
   18.85305595  110.11100006    0.58999997    2.67000008
   18.85639000  100.71199799    0.58999997    2.67000008
   18.85972214  113.79000092    0.61000001    2.67000008
   18.86277771   91.06629944    0.61000001    2.67000008
   18.86611176  103.53399658    0.61000001    2.67000008
   18.86916733  102.21499634    0.58999997    2.67000008
   18.87249947  101.05599976    0.58999997    2.67000008
   18.87833405  101.05599976    0.58999997    2.66000009
   18.88249969  103.37799835    0.61000001    2.67000008
   18.88583374  109.13400269    0.61000001    2.67000008
   18.88888931   97.06849670    0.63000000    2.67000008
   18.89222145  105.85500336    0.63000000    2.67000008
   18.89555550   98.94940186    0.63000000    2.66000009
   18.89861107  101.44999695    0.61000001    2.67000008
   18.90194321  110.14900208    0.61000001    2.66000009
   18.90527725  104.78800201    0.63000000    2.67000008
   18.90833282   99.16320038    0.63000000    2.67000008
   18.91166687  107.35700226    0.63000000    2.67000008
   18.91361046  104.86100006    0.63000000    2.67000008
   18.91527748  101.32800293    0.63000000    2.67000008
   18.92138863  101.32800293    0.63000000    2.67000008
   18.92527771  103.16899872    0.63000000    2.66000009
   18.92860985   99.71360016    0.64999998    2.66000009
   18.93194389  102.61299896    0.67000002    2.66000009
   18.93527603  104.28600311    0.70999998    2.67000008
   18.93833160  109.06199646    0.70999998    2.67000008
   18.94194412   98.65239716    0.86000001    2.66000009
   18.94527626  100.11799622    0.89999998    2.66000009
   18.94694328   95.69529724    0.86000001    2.66000009
   18.94861031  112.04799652    0.88000000    2.66000009
   18.95194435  106.58899689    0.92000002    2.66000009
   18.95499992  104.62500000    1.07000005    2.66000009
   18.95833397  104.63700104    1.09000003    2.66000009
   18.96416664  104.63700104    0.80000001    2.66000009
   18.96833420  104.93800354    0.80000001    2.67000008
   18.97138977  101.14499664    0.69000000    2.67000008
   18.97472191   97.33129883    0.70999998    2.66000009
   18.97777748  101.23100281    0.70999998    2.66000009
   18.98027802  109.89399719    0.69000000    2.66000009
   18.98166656  105.43599701    0.69000000    2.66000009
   18.98472214  103.92800140    0.70999998    2.67000008
   18.98805618  105.13099670    0.73000002    2.66000009
   18.99138832  101.75399780    0.67000002    2.66000009
   18.99444389   89.08000183    0.67000002    2.66000009
   18.99777794   97.64499664    0.64999998    2.67000008
   19.00111198   93.44969940    0.67000002    2.66000009
   19.00694466   93.44969940    0.63000000    2.66000009
   19.01111031   94.27970123    0.67000002    2.66000009
   19.01361084  105.73000336    0.67000002    2.66000009
   19.01472282  103.81800079    0.64999998    2.66000009
   19.01777840  107.67299652    0.63000000    2.66000009
   19.02111053   98.23709869    0.63000000    2.66000009
   19.02444458  102.59600067    0.63000000    2.66000009
   19.02750015   97.24729919    0.63000000    2.66000009
   19.03083229  107.61599731    0.63000000    2.66000009
   19.03416634  102.05400085    0.61000001    2.66000009
   19.03722191   98.45110321    0.61000001    2.66000009
   19.04055595  113.23100281    0.61000001    2.66000009
   19.04388809  101.63899994    0.61000001    2.66000009
   19.04972076  101.63899994    0.61000001    2.66000009
   19.05388832   98.48629761    0.61000001    2.66000009
   19.05722237  105.40899658    0.61000001    2.66000009
   19.06027794  106.63600159    0.61000001    2.66000009
   19.06361008  101.62300110    0.61000001    2.66000009
   19.06694603  101.24600220    0.61000001    2.66000009
   19.07000160   96.04989624    0.61000001    2.66000009
   19.07333374   99.22260284    0.61000001    2.66000009
   19.07638931   99.68499756    0.61000001    2.66000009
   19.07972336   93.23609924    0.63000000    2.66000009
   19.08083344   99.94080353    0.63000000    2.66000009
   19.08333397   89.71549988    0.63000000    2.66000009
   19.08666801  101.97200012    0.64999998    2.67000008
   19.09277916  101.97200012    0.67000002    2.66000009
   19.09666824   97.04129791    0.67000002    2.66000009
   19.10000038  101.01200104    0.64999998    2.66000009
   19.10333443  105.97299957    0.64999998    2.66000009
   19.10639000   91.21499634    0.64999998    2.64000010
   19.10972214   90.15309906    0.67000002    2.66000009
   19.11305618  100.94499969    0.64999998    2.66000009
   19.11416626  101.92299652    0.64999998    2.66000009
   19.11666679  101.27400208    0.67000002    2.66000009
   19.12000084   98.14540100    0.64999998    2.64000010
   19.12305641   96.35600281    0.67000002    2.64000010
   19.12638855   97.75109863    0.64999998    2.66000009
   19.12972260   89.19029999    0.64999998    2.64000010
   19.13555527   89.19029999    0.64999998    2.64000010
   19.13972282   96.65299988    0.64999998    2.66000009
   19.14277840   99.69259644    0.63000000    2.64000010
   19.14611053  103.30899811    0.64999998    2.64000010
   19.14749908  106.32399750    0.64999998    2.64000010
   19.14972115  103.54199982    0.63000000    2.66000009
   19.15277672   99.14949799    0.63000000    2.64000010
   19.15611076  106.61699677    0.63000000    2.64000010
   19.15944481  104.59500122    0.64999998    2.66000009
   19.16250038  102.94000244    0.64999998    2.66000009
   19.16583252  107.76100159    0.64999998    2.66000009
   19.16916656   95.58719635    0.63000000    2.66000009
   19.17222214  108.90499878    0.63000000    2.64000010
   19.17833328  108.90499878    0.64999998    2.64000010
   19.19666672  105.76799774    0.69000000    2.64000010
   19.20000076  110.84799957    0.67000002    2.64000010
   19.20305634  102.48000336    0.67000002    2.64000010
   19.20639038  101.46499634    0.67000002    2.64000010
   19.20972252  106.32800293    0.64999998    2.64000010
   19.21277809  109.35800171    0.64999998    2.64000010
   19.21611214   95.04229736    0.67000002    2.64000010
   19.22166634   95.04229736    0.64999998    2.64000010
   19.22583389  107.85900116    0.64999998    2.64000010
   19.22888947  104.29100037    0.64999998    2.64000010
   19.22972298   97.22660065    0.64999998    2.64000010
   19.23250008  109.39299774    0.64999998    2.64000010
   19.23555565  101.15699768    0.64999998    2.64000010
   19.23888969  103.61399841    0.64999998    2.64000010
   19.24222183  114.56800079    0.67000002    2.64000010
   19.24527740  108.79199982    0.67000002    2.64000010
   19.24861145  100.97100067    0.67000002    2.64000010
   19.25194359  106.28500366    0.67000002    2.64000010
   19.25499916  106.96499634    0.67000002    2.61999989
   19.25833321  103.24299622    0.67000002    2.64000010
   19.26416588  103.24299622    0.64999998    2.64000010
   19.26833344  110.65399933    0.63000000    2.64000010
   19.27166557  107.86199951    0.63000000    2.64000010
   19.27499962  108.45800018    0.63000000    2.61999989
   19.27805519  106.43000031    0.64999998    2.64000010
   19.28138924  109.57599640    0.64999998    2.64000010
   19.28472137  113.51999664    0.64999998    2.61999989
   19.28777695  109.55500031    0.64999998    2.64000010
   19.29111099  101.32099915    0.64999998    2.64000010
   19.29444313  101.81800079    0.64999998    2.64000010
   19.29638863  111.72499847    0.63000000    2.64000010
   19.29805565  113.86900330    0.63000000    2.64000010
   19.30111122  109.91100311    0.64999998    2.64000010
   19.30722237  109.91100311    0.64999998    2.61999989
   19.31110954  106.29399872    0.64999998    2.61999989
   19.31444359  104.82099915    0.64999998    2.61999989
   19.31777954   99.21489716    0.64999998    2.61999989
   19.32083511  113.33499908    0.69000000    2.61999989
   19.32416725  106.66100311    0.70999998    2.61999989
   19.32750130  113.62100220    0.75000000    2.64000010
   19.32972336   97.83830261    0.79000002    2.61999989
   19.33111191   98.19850159    0.80000001    2.61999989
   19.33416748  117.97100067    0.81999999    2.61999989
   19.33750153  112.40899658    0.83999997    2.64000010
   19.34083366  104.19300079    0.76999998    2.61999989
   19.34388924   96.73000336    0.76999998    2.61999989
   19.35000038   96.73000336    0.73000002    2.61999989
   19.35416794  111.91000366    0.75000000    2.61999989
   19.35722351  106.91899872    0.73000002    2.61999989
   19.36055565  115.45999908    0.73000002    2.61999989
   19.36305618  114.16699982    0.70999998    2.61999989
   19.36416626  119.84700012    0.73000002    2.61999989
   19.36750031  110.13300323    0.73000002    2.61999989
   19.37055588  111.17900085    0.70999998    2.61999989
   19.37388992  116.41699982    0.73000002    2.61999989
   19.37694550  104.98300171    0.70999998    2.61999989
   19.38027763  114.68800354    0.70999998    2.61999989
   19.38361168  108.39199829    0.70999998    2.61999989
   19.38666725  116.88899994    0.69000000    2.61999989
   19.39277840  116.88899994    0.67000002    2.59999990
   19.39694405  116.05400085    0.67000002    2.61999989
   19.40027809  126.92700195    0.67000002    2.59999990
   19.40333366  111.95300293    0.67000002    2.59999990
   19.40666580  112.41500092    0.67000002    2.59999990
   19.40972137  108.99400330    0.67000002    2.61999989
   19.41305542  117.33200073    0.67000002    2.59999990
   19.41638756  122.07599640    0.67000002    2.59999990
   19.41944313  101.98600006    0.67000002    2.59999990
   19.42277718  106.78900146    0.69000000    2.59999990
   19.42611122  113.67400360    0.69000000    2.59999990
   19.42916679  105.32499695    0.67000002    2.59999990
   19.42972183  109.40799713    0.67000002    2.59999990
   19.43555450  109.40799713    0.67000002    2.59999990
   19.43972206  102.94000244    0.64999998    2.59999990
   19.44305420  104.24800110    0.64999998    2.61999989
   19.44610977  117.89199829    0.64999998    2.59999990
   19.44944382  103.87500000    0.64999998    2.59999990
   19.45277786  101.03199768    0.63000000    2.59999990
   19.45583344  112.30000305    0.63000000    2.59999990
   19.45916748  113.80300140    0.63000000    2.59999990
   19.46250153  111.31300354    0.63000000    2.59999990
   19.46305656  113.91400146    0.63000000    2.59999990
   19.46611214  105.39900208    0.64999998    2.59999990
   19.46944427  103.17500305    0.64999998    2.61999989
   19.47249985  108.17099762    0.67000002    2.59999990
   19.47861099  108.17099762    0.67000002    2.59999990
   19.48250008  106.14600372    0.67000002    2.59999990
   19.48583412  106.14299774    0.67000002    2.57999992
   19.48916626  104.93800354    0.64999998    2.57999992
   19.49222183   96.98829651    0.64999998    2.59999990
   19.49555588  102.46900177    0.67000002    2.59999990
   19.49638939  104.68299866    0.64999998    2.59999990
   19.49916649   96.59559631    0.64999998    2.59999990
   19.50250053  108.28700256    0.64999998    2.57999992
   19.50555611  109.85600281    0.64999998    2.59999990
   19.50888824  111.72599792    0.64999998    2.59999990
   19.51194382  111.29299927    0.64999998    2.59999990
   19.51527786  114.93199921    0.64999998    2.59999990
   19.52138901  114.93199921    0.64999998    2.59999990
   19.52555466   99.49600220    0.64999998    2.59999990
   19.52888870  120.14900208    0.64999998    2.59999990
   19.52972221  109.09400177    0.64999998    2.59999990
   19.53249931  116.69200134    0.64999998    2.57999992
   19.53583336  110.21800232    0.64999998    2.57999992
   19.53888893  102.48100281    0.64999998    2.57999992
   19.54222107  115.50700378    0.64999998    2.57999992
   19.54527664   97.91419983    0.67000002    2.59999990
   19.54861069  104.74400330    0.67000002    2.57999992
   19.55194283  110.16899872    0.67000002    2.59999990
   19.55499840  110.03099823    0.67000002    2.57999992
   19.55833244  113.90000153    0.69000000    2.57999992
   19.56416512  113.90000153    0.67000002    2.57999992
   19.56833458  103.75499725    0.67000002    2.57999992
   19.57166672  104.04100037    0.67000002    2.55999994
   19.57472229  107.39600372    0.69000000    2.57999992
   19.57805634  106.44200134    0.69000000    2.57999992
   19.58139038  112.20200348    0.67000002    2.57999992
   19.58444595  101.60900116    0.69000000    2.57999992
   19.58777809  105.11799622    0.67000002    2.57999992
   19.59083366  111.50199890    0.67000002    2.57999992
   19.59416771  106.43900299    0.69000000    2.57999992
   19.59638977  103.73600006    0.69000000    2.55999994
   19.59777832  106.86199951    0.69000000    2.57999992
   19.60111237  107.93800354    0.70999998    2.57999992
   19.60694504  107.93800354    0.70999998    2.55999994
   19.61111069  108.13200378    0.69000000    2.55999994
   19.61444473  104.31500244    0.69000000    2.55999994
   19.61750031  102.55599976    0.69000000    2.57999992
   19.62083435  104.34500122    0.69000000    2.57999992
   19.62416649  106.10600281    0.69000000    2.55999994
   19.62722206   93.77030182    0.69000000    2.55999994
   19.62972260  106.08200073    0.69000000    2.55999994
   19.63083267  114.02700043    0.69000000    2.55999994
   19.63416672  129.93200684    0.69000000    2.57999992
   19.63722229  165.05999756    0.69000000    2.57999992
   19.64055634  192.52200317    0.67000002    2.57999992
   19.64361191  219.57099915    0.67000002    2.55999994
   19.64999962  219.57099915    0.67000002    2.55999994
   19.65416718  118.74099731    0.67000002    2.55999994
   19.65722275   38.48580170    0.67000002    2.55999994
   19.66055489   -1.00000000    0.67000002    2.55999994
   19.66416550   -1.00000000    0.67000002    2.55999994
   19.66722107   -1.00000000    0.67000002    2.55999994
   19.67055511   -1.00000000    0.67000002    2.55999994
   19.67361069   -1.00000000    0.67000002    2.55999994
   19.67694473   -1.00000000    0.67000002    2.55999994
   19.68027687   -1.00000000    0.69000000    2.55999994
   19.68333244   -1.00000000    0.69000000    2.55999994
   19.68666649   -1.00000000    0.64999998    2.55999994
   19.69666672   -1.00000000    0.64999998    2.55999994
   19.70000076   -1.00000000    0.64999998    2.55999994
   19.70333481   -1.00000000    0.64999998    2.53999996
   19.70639038   -1.00000000    0.64999998    2.53999996
   19.70972252   -1.00000000    0.64999998    2.53999996
   19.71305656   -1.00000000    0.64999998    2.53999996
   19.71611214   -1.00000000    0.67000002    2.53999996
   19.71944427   -1.00000000    0.67000002    2.53999996
   19.72249985   -1.00000000    0.67000002    2.53999996
   19.72583389   -1.00000000    0.67000002    2.53999996
   19.72916794   -1.00000000    0.67000002    2.55999994
   19.73972321   -1.00000000    0.67000002    2.53999996
   19.74277878   -1.00000000    0.67000002    2.53999996
   19.74611092   -1.00000000    0.67000002    2.55999994
   19.74944496   -1.00000000    0.69000000    2.53999996
   19.75250053   -1.00000000    0.67000002    2.55999994
   19.75583267   -1.00000000    0.67000002    2.53999996
   19.75888824   -1.00000000    0.67000002    2.53999996
   19.76222229   -1.00000000    0.69000000    2.53999996
   19.76583290   -1.00000000    0.67000002    2.53999996
   19.76888847   -1.00000000    0.67000002    2.53999996
   19.77222252   -1.00000000    0.67000002    2.53999996
   19.78249931   -1.00000000    0.67000002    2.53999996
   19.78583336   -1.00000000    0.67000002    2.53999996
   19.78888893   -1.00000000    0.67000002    2.53999996
   19.79222107   -1.00000000    0.67000002    2.53999996
   19.79527664   -1.00000000    0.67000002    2.53999996
   19.79888916   -1.00000000    0.67000002    2.53999996
   19.80194283   -1.00000000    0.67000002    2.53999996
   19.80527687   -1.00000000    0.69000000    2.51999998
   19.80861092   -1.00000000    0.69000000    2.51999998
   19.81166649   -1.00000000    0.69000000    2.51999998
   19.81499863   -1.00000000    0.70999998    2.53999996
   19.82527924   -1.00000000    0.70999998    2.51999998
   19.82861137   -1.00000000    0.70999998    2.51999998
   19.83222389   -1.00000000    0.70999998    2.51999998
   19.83527756   -1.00000000    0.70999998    2.51999998
   19.83861160   -1.00000000    0.70999998    2.51999998
   19.84194565   -1.00000000    0.70999998    2.51999998
   19.84500122   -1.00000000    0.70999998    2.51999998
   19.84833336   -1.00000000    0.69000000    2.51999998
   19.85138893   -1.00000000    0.70999998    2.51999998
   19.85472298   -1.00000000    0.69000000    2.51999998
   19.85805511   -1.00000000    0.69000000    2.51999998
   19.86805534   -1.00000000    0.70999998    2.51999998
   19.87138939   -1.00000000    0.69000000    2.51999998
   19.87472153   -1.00000000    0.69000000    2.50000000
   19.87777710   -1.00000000    0.69000000    2.51999998
   19.88111115   -1.00000000    0.69000000    2.51999998
   19.88444519   -1.00000000    0.69000000    2.51999998
   19.88750076   -1.00000000    0.67000002    2.51999998
   19.89083290   -1.00000000    0.67000002    2.51999998
   19.89388847   -1.00000000    0.69000000    2.51999998
   19.89749908   -1.00000000    0.69000000    2.51999998
   19.90055466   -1.00000000    0.69000000    2.51999998
   19.91110992   -1.00000000    0.70999998    2.50000000
   19.91416550   -1.00000000    0.69000000    2.50000000
   19.91749954   -1.00000000    0.69000000    2.50000000
   19.92083359   -1.00000000    0.70999998    2.50000000
   19.92388916   -1.00000000    0.69000000    2.50000000
   19.92722130   -1.00000000    0.70999998    2.50000000
   19.93083191   -1.00000000    0.70999998    2.50000000
   19.93388748   -1.00000000    0.70999998    2.51999998
   19.93722153   -1.00000000    0.70999998    2.50000000
   19.94055557   -1.00000000    0.70999998    2.50000000
   19.94361115   -1.00000000    0.70999998    2.50000000
   19.95388985   -1.00000000    0.73000002    2.50000000
   19.95722389   -1.00000000    0.73000002    2.50000000
   19.96027946   -1.00000000    0.73000002    2.50000000
   19.96389008   -1.00000000    0.75000000    2.50000000
   19.96694565   -1.00000000    0.75000000    2.48000002
   19.97027779   -1.00000000    0.75000000    2.50000000
   19.97361183   -1.00000000    0.75000000    2.48000002
   19.97666740   -1.00000000    0.75000000    2.48000002
   19.98000145   -1.00000000    0.75000000    2.48000002
   19.98305511   -1.00000000    0.75000000    2.48000002
   19.98638916   -1.00000000    0.75000000    2.48000002
   19.99666786   -1.00000000    0.75000000    2.48000002
   20.00000000   -1.00000000    0.75000000    2.48000002
   20.00305557   -1.00000000    0.76999998    2.48000002
