    HOUR (UT)   FLARE FACTOR    SKY TESTER    SUN TESTER
   12.40916634   -1.00000000   -1.00000000   -1.00000000
   12.43888855  169.20399475    3.03999996    2.11999989
   12.44194412  164.95399475    3.03999996    2.11999989
   12.44527817  169.56500244    3.01999998    2.11999989
   12.44861126  182.16099548    3.00000000    2.11999989
   12.45166683  158.83599854    2.98000002    2.11999989
   12.45499992  170.08900452    2.98000002    2.11999989
   12.45916653  170.08900452    2.94000006    2.11999989
   12.46333313  167.66900635    2.93000007    2.11999989
   12.46638870  153.06100464    2.91000009    2.13000011
   12.46972179  160.28300476    2.91000009    2.13000011
   12.47222137  158.94799805    2.89000010    2.13000011
   12.47333336  156.91600037    2.89000010    2.13000011
   12.47666645  154.72099304    2.91000009    2.13000011
   12.47999954  172.77200317    2.91000009    2.13000011
   12.48305511  152.59399414    2.91000009    2.13000011
   12.48638916  148.87500000    2.91000009    2.13000011
   12.48944473  161.49400330    2.93000007    2.13000011
   12.49277782  160.65899658    2.91000009    2.13000011
   12.49611092  159.39300537    2.93000007    2.13000011
   12.50194454  159.39300537    2.89000010    2.15000010
   12.50611115  159.91600037    2.89000010    2.15000010
   12.50944424  153.68699646    2.86999989    2.17000008
   12.51249981  151.36000061    2.86999989    2.15000010
   12.51583290  152.44299316    2.86999989    2.15000010
   12.51888847  166.05499268    2.84999990    2.15000010
   12.52222157  151.05299377    2.86999989    2.17000008
   12.52555561  161.11099243    2.84999990    2.15000010
   12.52861118  148.79800415    2.86999989    2.17000008
   12.53194427  154.49600220    2.84999990    2.17000008
   12.53527832  150.64799500    2.82999992    2.17000008
   12.53833389  149.01600647    2.80999994    2.17000008
   12.53888893  150.21499634    2.80999994    2.17000008
   12.54472256  150.21499634    2.78999996    2.17000008
   12.54888916  146.59899902    2.78999996    2.19000006
   12.55222225  151.96099854    2.76999998    2.19000006
   12.55527782  145.73199463    2.75000000    2.19000006
   12.55861092  143.09700012    2.75000000    2.19000006
   12.56194496  158.01899719    2.73000002    2.19000006
   12.56500053  149.02900696    2.71000004    2.19000006
   12.56833363  145.24600220    2.69000006    2.21000004
   12.57166672  149.61300659    2.69000006    2.19000006
   12.57222176  153.41499329    2.69000006    2.19000006
   12.57527733  148.40100098    2.67000008    2.21000004
   12.57833290  146.04600525    2.67000008    2.21000004
   12.58166695  155.79800415    2.66000009    2.19000006
   12.58777714  155.79800415    2.66000009    2.19000006
   12.59166622  150.77900696    2.66000009    2.21000004
   12.59499931  154.60099792    2.67000008    2.21000004
   12.59833336  152.40600586    2.67000008    2.21000004
   12.60166740  150.73899841    2.69000006    2.21000004
   12.60472298  144.96400452    2.67000008    2.21000004
   12.60555553  150.97599792    2.69000006    2.21000004
   12.60833359  142.80499268    2.69000006    2.21000004
   12.61138916  145.81399536    2.69000006    2.21000004
   12.61472225  152.21099854    2.69000006    2.21000004
   12.61805534  152.48699951    2.67000008    2.21000004
   12.62111092  148.30900574    2.67000008    2.23000002
   12.62444496  146.05000305    2.67000008    2.21000004
   12.63055611  146.05000305    2.67000008    2.23000002
   12.63472176  146.52499390    2.67000008    2.23000002
   12.63777733  156.05700684    2.67000008    2.23000002
   12.63888836  151.69999695    2.67000008    2.23000002
   12.64166641  158.74200439    2.67000008    2.23000002
   12.64472198  154.07499695    2.66000009    2.23000002
   12.64805508  148.80299377    2.66000009    2.23000002
   12.65138817  146.75700378    2.64000010    2.23000002
   12.65444374  144.75999451    2.61999989    2.23000002
   12.65777779  145.60699463    2.59999990    2.23000002
   12.66111088  141.20399475    2.59999990    2.23000002
   12.66416645  149.39599609    2.59999990    2.23000002
   12.66750050  146.22799683    2.59999990    2.25000000
   12.67333412  146.22799683    2.59999990    2.25000000
   12.67750072  152.21400452    2.59999990    2.25000000
   12.68083382  152.02900696    2.57999992    2.25000000
   12.68388939  145.30099487    2.57999992    2.25000000
   12.68722248  148.63099670    2.57999992    2.25000000
   12.69027805  145.16499329    2.57999992    2.25000000
   12.69361115  156.72599792    2.55999994    2.25000000
   12.69694424  143.34700012    2.55999994    2.25000000
   12.70055580  147.81100464    2.53999996    2.25000000
   12.70361137  147.27299500    2.53999996    2.26999998
   12.70555496  143.11500549    2.50000000    2.25000000
   12.70722198  150.35200500    2.50000000    2.26999998
   12.71027756  152.58500671    2.50000000    2.26999998
   12.71611118  152.58500671    2.48000002    2.26999998
   12.72027779  147.77400208    2.46000004    2.26999998
   12.72361088  146.32800293    2.46000004    2.26999998
   12.72666645  157.39900208    2.44000006    2.26999998
   12.72999954  145.33099365    2.44000006    2.26999998
   12.73333359  141.67700195    2.44000006    2.26999998
   12.73638916  141.16200256    2.44000006    2.26999998
   12.73888874  154.51499939    2.44000006    2.26999998
   12.74027824  154.99400330    2.44000006    2.26999998
   12.74333382  146.38000488    2.44000006    2.26999998
   12.74666691  141.51800537    2.44000006    2.28999996
   12.75000000  146.13699341    2.44000006    2.28999996
   12.75305557  142.24800110    2.42000008    2.28999996
   12.75916672  142.24800110    2.42000008    2.26999998
   12.76305580  141.22999573    2.42000008    2.26999998
   12.76638889  147.52400208    2.42000008    2.28999996
   12.76972198  153.48399353    2.40000010    2.28999996
   12.77222157  140.24299622    2.40000010    2.28999996
   12.77333355  145.14700317    2.40000010    2.28999996
   12.77638817  138.97900391    2.40000010    2.28999996
   12.77972221  150.72999573    2.40000010    2.28999996
   12.78305531  146.10800171    2.40000010    2.28999996
   12.78611183  137.21099854    2.40000010    2.28999996
   12.78944492  145.85299683    2.39000010    2.28999996
   12.79277802  141.19500732    2.40000010    2.28999996
   12.79583359  144.63000488    2.36999989    2.30999994
   12.80194473  144.63000488    2.39000010    2.30999994
   12.80611134  148.26199341    2.39000010    2.30999994
   12.80916691  148.08399963    2.39000010    2.30999994
   12.81250000  144.34300232    2.40000010    2.30999994
   12.81583309  142.53300476    2.40000010    2.30999994
   12.81888866  147.28300476    2.39000010    2.30999994
   12.82222176  146.00599670    2.39000010    2.30999994
   12.82527733  142.41299438    2.39000010    2.30999994
   12.82861137  138.25500488    2.36999989    2.30999994
   12.83194447  140.87600708    2.39000010    2.32999992
   12.83500004  139.41900635    2.36999989    2.30999994
   12.83833313  144.47399902    2.36999989    2.30999994
   12.83888817  138.15199280    2.36999989    2.30999994
   12.84472179  138.15199280    2.34999990    2.30999994
   12.84888840  151.30299377    2.34999990    2.30999994
   12.85222244  136.67100525    2.34999990    2.32999992
   12.85527802  132.89900208    2.34999990    2.32999992
   12.85861111  132.06100464    2.34999990    2.32999992
   12.86166668  138.78700256    2.34999990    2.32999992
   12.86500072  136.55700684    2.34999990    2.32999992
   12.86833382  137.19000244    2.34999990    2.32999992
   12.87138939  137.41900635    2.34999990    2.32999992
   12.87222195  141.52699280    2.34999990    2.32999992
   12.87500000  148.90800476    2.34999990    2.32999992
   12.87833309  134.77200317    2.32999992    2.32999992
   12.88138866  137.23300171    2.32999992    2.32999992
   12.88749981  137.23300171    2.32999992    2.34999990
   12.89166641  136.92999268    2.30999994    2.32999992
   12.89499950  143.05799866    2.32999992    2.32999992
   12.89833355  138.32099915    2.30999994    2.32999992
   12.90138817  136.96000671    2.30999994    2.32999992
   12.90472221  152.32800293    2.28999996    2.34999990
   12.90555477  148.21000671    2.28999996    2.34999990
   12.90833282  133.19200134    2.28999996    2.34999990
   12.91166592  146.90600586    2.26999998    2.34999990
   12.91472149  135.06399536    2.25000000    2.34999990
   12.91805553  144.54899597    2.25000000    2.34999990
   12.92111111  148.33999634    2.25000000    2.34999990
   12.92444515  144.05799866    2.23000002    2.34999990
   12.93055630  144.05799866    2.23000002    2.36999989
   12.93444443  141.32699585    2.23000002    2.34999990
   12.93777752  134.80499268    2.23000002    2.34999990
   12.93888855  153.76400757    2.23000002    2.34999990
   12.94138908  141.34300232    2.25000000    2.34999990
   12.94472218  137.80000305    2.25000000    2.36999989
   12.94777775  140.03300476    2.25000000    2.34999990
   12.95111084  137.62199402    2.25000000    2.36999989
   12.95416641  136.46400452    2.25000000    2.36999989
   12.95749950  150.96099854    2.25000000    2.36999989
   12.96083355  150.69299316    2.25000000    2.36999989
   12.96388912  155.94299316    2.23000002    2.36999989
   12.96722221  134.13900757    2.23000002    2.36999989
   12.97333336  134.13900757    2.21000004    2.36999989
   12.97749996  146.69900513    2.23000002    2.36999989
   12.98055553  149.05700684    2.23000002    2.36999989
   12.98388958  148.08299255    2.23000002    2.39000010
   12.98722267  146.77999878    2.23000002    2.36999989
   12.99027824   -1.00000000    2.23000002    2.39000010
   12.99388885   -1.00000000    2.23000002    2.39000010
   12.99722290  132.51699829    2.23000002    2.39000010
   13.00027752  147.02499390    2.25000000    2.39000010
   13.00361156  141.06500244    2.23000002    2.36999989
   13.00555515  139.13000488    2.23000002    2.36999989
   13.00722218  140.06300354    2.23000002    2.39000010
   13.01055527  144.81100464    2.21000004    2.39000010
   13.01611137  144.81100464    2.19000006    2.39000010
   13.02027798  144.58200073    2.19000006    2.39000010
   13.02361107  145.22599792    2.19000006    2.39000010
   13.02666664  147.33599854    2.19000006    2.39000010
   13.02999973  145.05900574    2.19000006    2.39000010
   13.03305531  138.00599670    2.19000006    2.39000010
   13.03638935  152.74800110    2.19000006    2.39000010
   13.03888893  142.54600525    2.19000006    2.39000010
   13.04000092  138.87600708    2.19000006    2.39000010
   13.04333401  154.48500061    2.19000006    2.39000010
   13.04638958  143.64500427    2.21000004    2.39000010
   13.04972267  147.47999573    2.19000006    2.39000010
   13.05305576  148.86500549    2.17000008    2.39000010
   13.05888939  148.86500549    2.15000010    2.40000010
   13.06305599  142.98300171    2.13000011    2.40000010
   13.06638908  149.16700745    2.11999989    2.40000010
   13.06944466  152.66200256    2.09999990    2.40000010
   13.07222176  138.25999451    2.09999990    2.40000010
   13.07333374  140.10400391    2.09999990    2.40000010
   13.07666683  144.72599792    2.09999990    2.40000010
   13.07972240  161.20899963    2.09999990    2.40000010
   13.08305550  141.49000549    2.09999990    2.40000010
   13.08638859  138.76699829    2.11999989    2.40000010
   13.08944416  135.76699829    2.09999990    2.40000010
   13.09277725  134.17999268    2.09999990    2.40000010
   13.09583282  133.94000244    2.09999990    2.40000010
   13.10194492  133.94000244    2.09999990    2.40000010
   13.10583401  145.55799866    2.07999992    2.40000010
   13.10916710  130.85400391    2.09999990    2.40000010
   13.11250019  132.92199707    2.09999990    2.40000010
   13.11555576  136.72300720    2.09999990    2.40000010
   13.11888885  143.49099731    2.09999990    2.42000008
   13.12222195  156.01699829    2.09999990    2.42000008
   13.12527752  136.85699463    2.09999990    2.42000008
   13.12861156  146.96099854    2.05999994    2.40000010
   13.13166714  144.09700012    2.07999992    2.40000010
   13.13500023  134.02200317    2.05999994    2.42000008
   13.13833332  149.81599426    2.05999994    2.42000008
   13.13888836  150.85299683    2.05999994    2.40000010
   13.14472198  150.85299683    2.05999994    2.42000008
   13.14888859  135.65800476    2.05999994    2.42000008
   13.15194416  136.15600586    2.05999994    2.42000008
   13.15527725  145.26300049    2.05999994    2.42000008
   13.15861034  142.72799683    2.07999992    2.42000008
   13.16166592  145.56700134    2.05999994    2.42000008
   13.16499996  148.85899353    2.05999994    2.42000008
   13.16805553  129.30200195    2.03999996    2.44000006
   13.17138958  140.87699890    2.03999996    2.44000006
   13.17222214  134.76899719    2.01999998    2.42000008
   13.17500019  133.37199402    2.01999998    2.42000008
   13.17833328  138.31399536    2.01999998    2.44000006
   13.18138885  135.90499878    2.03999996    2.42000008
   13.18750000  135.90499878    2.03999996    2.42000008
   13.19166660  142.22200012    2.01999998    2.42000008
   13.19499969  130.58799744    2.01999998    2.44000006
   13.19833374  135.63299561    2.00000000    2.44000006
   13.20166683  141.07200623    2.00000000    2.44000006
   13.20499992  151.50000000    2.11999989    2.44000006
   13.20555496  134.64999390    2.00000000    2.44000006
   13.20861053  128.81199646    1.94000006    2.44000006
   13.21194458  131.44099426    1.96000004    2.42000008
   13.21500015  131.09800720    1.96000004    2.46000004
   13.21833324  135.08299255    1.96000004    2.44000006
   13.22166634  135.19900513    1.96000004    2.46000004
   13.22472191  129.83999634    1.98000002    2.44000006
   13.23027706  129.83999634    1.98000002    2.46000004
   13.23444462  134.06300354    1.98000002    2.44000006
   13.23777771  129.55900574    1.98000002    2.44000006
   13.23916721  134.33599854    1.98000002    2.46000004
   13.24138927  127.18800354    1.98000002    2.46000004
   13.24472237  130.10699463    1.96000004    2.46000004
   13.24777794  131.45399475    1.96000004    2.46000004
   13.25111103  133.83999634    1.94000006    2.46000004
   13.25444412  136.38600159    1.94000006    2.46000004
   13.25749969  128.53999329    1.91999996    2.46000004
   13.26083374  130.68099976    1.91999996    2.46000004
   13.26416683  141.33000183    1.91999996    2.46000004
   13.26722240  134.00300598    1.94000006    2.46000004
   13.27333355  134.00300598    1.89999998    2.46000004
   13.27722168  132.96699524    1.89999998    2.46000004
   13.28055573  147.78399658    1.89999998    2.46000004
   13.28388977  139.66600037    1.89999998    2.46000004
   13.28694534  139.45100403    1.89999998    2.46000004
   13.29027843  134.44900513    1.91999996    2.46000004
   13.29361153  132.69099426    1.91999996    2.46000004
   13.29666710  127.44000244    1.91999996    2.46000004
   13.30000019  139.24499512    1.94000006    2.46000004
   13.30305576  142.78199768    1.94000006    2.46000004
   13.30555534  136.15899658    1.94000006    2.46000004
   13.30666733  141.75300598    1.94000006    2.46000004
   13.31000042  134.05700684    1.94000006    2.46000004
   13.31611156  134.05700684    1.94000006    2.48000002
   13.32027817  130.34199524    1.94000006    2.46000004
   13.32333374  146.69799805    1.94000006    2.48000002
   13.32666683  127.76200104    1.91999996    2.46000004
   13.32999992  141.61399841    1.91999996    2.46000004
   13.33305550  138.66900635    1.91999996    2.46000004
   13.33638859  139.16900635    1.89999998    2.48000002
   13.33888817  131.57899475    1.89999998    2.46000004
   13.34000015  134.05900574    1.89999998    2.46000004
   13.34333324  141.52900696    1.88000000    2.46000004
   13.34638882  130.97399902    1.88000000    2.48000002
   13.34972191  139.49299622    1.89999998    2.48000002
   13.35305595  132.73100281    1.88000000    2.48000002
   13.35888958  132.73100281    1.88000000    2.48000002
   13.36305618  138.02600098    1.86000001    2.48000002
   13.36638927  135.10200500    1.86000001    2.48000002
   13.36944485  138.82499695    1.85000002    2.48000002
   13.37250042  135.94799805    1.85000002    2.48000002
   13.37305546  136.48300171    1.83000004    2.48000002
   13.37638855  134.62399292    1.83000004    2.48000002
   13.37944412  132.62500000    1.85000002    2.48000002
   13.38277817  135.84100342    1.85000002    2.48000002
   13.38611126  131.16600037    1.85000002    2.48000002
   13.38916683  129.80099487    1.85000002    2.48000002
   13.39249992  133.91900635    1.85000002    2.48000002
   13.39583302  129.37800598    1.85000002    2.48000002
   13.40166664  129.37800598    1.80999994    2.48000002
   13.40583324  133.85600281    1.83000004    2.50000000
   13.40916634  127.45400238    1.83000004    2.50000000
   13.41222191  125.61100006    1.80999994    2.50000000
   13.41555500  125.36699677    1.80999994    2.50000000
   13.41888905  132.28300476    1.80999994    2.48000002
   13.42194462  137.45700073    1.83000004    2.48000002
   13.42527771  129.10699463    1.83000004    2.50000000
   13.42861176  134.27400208    1.80999994    2.50000000
   13.43166733  132.84899902    1.83000004    2.50000000
   13.43500042  132.83500671    1.85000002    2.50000000
   13.43833351  122.56400299    1.83000004    2.50000000
   13.43916702  142.00700378    1.83000004    2.50000000
   13.45972157  142.00700378    1.80999994    2.51999998
   13.46388912  129.12600708    1.80999994    2.50000000
   13.46722221  129.01800537    1.83000004    2.50000000
   13.47027779  132.40199280    1.85000002    2.50000000
   13.47249985  124.10800171    1.85000002    2.50000000
   13.47416592  129.24200439    1.85000002    2.50000000
   13.47722149  138.50700378    1.83000004    2.50000000
   13.48055553  123.26999664    1.80999994    2.50000000
   13.48388958  131.41200256    1.80999994    2.50000000
   13.48694515  124.68800354    1.80999994    2.50000000
   13.49027824  130.91600037    1.80999994    2.51999998
   13.49361134  124.63999939    1.78999996    2.51999998
   13.49666691  130.87500000    1.78999996    2.51999998
   13.50249958  130.87500000    1.85000002    2.50000000
   13.50666714  128.52099609    1.88000000    2.50000000
   13.50972176  131.08099365    1.88000000    2.51999998
   13.51305580  118.18199921    1.86000001    2.50000000
   13.51638889  138.51400757    1.85000002    2.51999998
   13.51944447  125.92400360    1.86000001    2.50000000
   13.52277756  129.29200745    1.88000000    2.50000000
   13.52583313  134.39500427    1.89999998    2.50000000
   13.52916622  124.96600342    1.91999996    2.50000000
   13.53249931  129.08200073    1.89999998    2.51999998
   13.53555584  132.50999451    1.89999998    2.51999998
   13.53888893  133.19799805    1.85000002    2.51999998
   13.53944492  127.26200104    1.83000004    2.51999998
   13.54527855  127.26200104    1.83000004    2.51999998
   13.54944515  127.63800049    1.80999994    2.51999998
   13.55277824  127.03299713    1.76999998    2.51999998
   13.55583382  127.07599640    1.80999994    2.51999998
   13.55916691  128.54299927    1.78999996    2.51999998
   13.56250000  124.52700043    1.78999996    2.51999998
   13.56555557  130.76100159    1.73000002    2.51999998
   13.56888866  138.62100220    1.69000006    2.51999998
   13.57194424  127.18299866    1.69000006    2.51999998
   13.57277775  135.22500610    1.66999996    2.51999998
   13.57583332  118.74400330    1.69000006    2.51999998
   13.57888889  129.75999451    1.66999996    2.51999998
   13.58222198  125.38400269    1.66999996    2.53999996
   13.58805561  125.38400269    1.66999996    2.51999998
   13.59222221  129.65199280    1.66999996    2.53999996
   13.59555531  123.84600067    1.66999996    2.53999996
   13.59861088  119.04900360    1.66999996    2.53999996
   13.60194492  120.33300018    1.64999998    2.51999998
   13.60527802  128.18400574    1.64999998    2.51999998
   13.60611153  130.27400208    1.64999998    2.53999996
   13.60888958  136.54800415    1.64999998    2.53999996
   13.61194515  125.24500275    1.64999998    2.53999996
   13.61527824  122.26000214    1.64999998    2.53999996
   13.61861134  123.96299744    1.63000000    2.53999996
   13.62166691  124.65299988    1.61000001    2.53999996
   13.62500000  127.35600281    1.61000001    2.53999996
   13.63083363  127.35600281    1.61000001    2.53999996
   13.63500023  134.10499573    1.61000001    2.53999996
   13.63833332  140.38299561    1.60000002    2.53999996
   13.63944435  125.85700226    1.60000002    2.53999996
   13.64222240  127.58100128    1.58000004    2.53999996
   13.64527798  133.27099609    1.58000004    2.53999996
   13.64861107  127.97899628    1.58000004    2.53999996
   13.65194416  127.73799896    1.58000004    2.53999996
   13.65499973  123.15599823    1.58000004    2.53999996
   13.65833282  122.57499695    1.58000004    2.53999996
   13.66138840  131.13999939    1.58000004    2.55999994
   13.66472149  128.51400757    1.58000004    2.53999996
   13.66805553  129.33000183    1.58000004    2.53999996
   13.67388916  129.33000183    1.58000004    2.53999996
   13.67805576  123.71399689    1.58000004    2.55999994
   13.68138885  137.64999390    1.58000004    2.53999996
   13.68472195  121.90399933    1.55999994    2.53999996
   13.68777752  128.62399292    1.55999994    2.53999996
   13.69111156  130.89100647    1.55999994    2.53999996
   13.69416714  123.80100250    1.60000002    2.53999996
   13.69750023  128.29600525    1.63000000    2.55999994
   13.70083332  125.86699677    1.64999998    2.55999994
   13.70388889  128.34300232    1.64999998    2.53999996
   13.70611095  122.93499756    1.64999998    2.53999996
   13.70777798  132.13600159    1.64999998    2.53999996
   13.71083355  120.48799896    1.63000000    2.53999996
   13.71666622  120.48799896    1.55999994    2.55999994
   13.72083282  121.18399811    1.51999998    2.53999996
   13.72416592  123.75199890    1.51999998    2.55999994
   13.72722149  121.54699707    1.51999998    2.55999994
   13.73055553  129.08500671    1.51999998    2.55999994
   13.73361111  127.13300323    1.51999998    2.53999996
   13.73694515  126.27400208    1.51999998    2.55999994
   13.73944473  123.95899963    1.51999998    2.55999994
   13.74055576  121.73799896    1.53999996    2.55999994
   13.74361134  123.80799866    1.55999994    2.53999996
   13.74694443  124.56400299    1.55999994    2.55999994
   13.75027752  129.55700684    1.53999996    2.55999994
   13.75333309  120.17800140    1.53999996    2.53999996
   13.75944424  120.17800140    1.53999996    2.55999994
   13.76361084  120.96600342    1.53999996    2.55999994
   13.76694393  134.87800598    1.53999996    2.55999994
   13.77027798  133.59500122    1.51999998    2.55999994
   13.77277756  125.27899933    1.51999998    2.55999994
   13.77388859  127.28299713    1.51999998    2.55999994
   13.77694416  128.12899780    1.51999998    2.55999994
   13.78027725  127.10299683    1.51999998    2.55999994
   13.78361130  131.53900146    1.48000002    2.55999994
   13.78666687  126.14700317    1.46000004    2.53999996
   13.79000092  134.96200562    1.44000006    2.55999994
   13.79305553  122.96399689    1.46000004    2.55999994
   13.79638958  127.09300232    1.44000006    2.55999994
   13.80249977  127.09300232    1.44000006    2.55999994
   13.80638885  119.76599884    1.44000006    2.55999994
   13.80972195  128.03100586    1.44000006    2.57999992
   13.81305599  117.41600037    1.44000006    2.55999994
   13.81611156  118.13999939    1.44000006    2.55999994
   13.81944466  135.60899353    1.44000006    2.55999994
   13.82277775  120.91799927    1.44000006    2.57999992
   13.82583332  118.40699768    1.41999996    2.55999994
   13.82916641  124.76599884    1.41999996    2.57999992
   13.83222198  120.40599823    1.39999998    2.55999994
   13.83555508  120.51699829    1.39999998    2.57999992
   13.83888817  131.53100586    1.41999996    2.57999992
   13.83944416  121.58699799    1.41999996    2.57999992
   13.84527779  121.58699799    1.41999996    2.57999992
   13.84944439  126.91699982    1.41999996    2.57999992
   13.85249996  123.06300354    1.41999996    2.57999992
   13.85583401  132.30999756    1.41999996    2.57999992
   13.85916710  123.00499725    1.41999996    2.57999992
   13.86222267  118.73400116    1.41999996    2.57999992
   13.86555576  113.90699768    1.44000006    2.57999992
   13.86861134  126.87100220    1.41999996    2.57999992
   13.87194443  120.54100037    1.41999996    2.57999992
   13.87277794  115.32399750    1.41999996    2.57999992
   13.87555599  120.32099915    1.41999996    2.57999992
   13.87861156  116.40399933    1.39999998    2.57999992
   13.88194466  127.62599945    1.39999998    2.57999992
   13.88805580  127.62599945    1.38000000    2.57999992
   13.89222240  116.53199768    1.38000000    2.57999992
   13.89555550  117.36900330    1.38000000    2.57999992
   13.89861107  124.13700104    1.38000000    2.57999992
   13.90194416  119.07900238    1.38000000    2.57999992
   13.90499973  123.29100037    1.38000000    2.57999992
   13.90611076  122.87400055    1.38000000    2.57999992
   13.90888882  120.39299774    1.36000001    2.59999990
   13.91194439  120.60199738    1.34000003    2.59999990
   13.91527748  116.57099915    1.34000003    2.57999992
   13.91861153  116.23600006    1.34000003    2.57999992
   13.92166710  116.29799652    1.34000003    2.57999992
   13.92500019  113.19799805    1.34000003    2.57999992
   13.93083382  113.19799805    1.34000003    2.57999992
   13.93500042  115.52600098    1.33000004    2.59999990
   13.93833351  118.05799866    1.33000004    2.59999990
   13.93944454  123.01799774    1.33000004    2.59999990
   13.94194412  121.93800354    1.33000004    2.59999990
   13.94527817  118.61299896    1.33000004    2.59999990
   13.94833374  120.77899933    1.33000004    2.57999992
   13.95166683  117.85500336    1.33000004    2.59999990
   13.95499992  123.43800354    1.33000004    2.59999990
   13.95805550  123.07599640    1.36000001    2.59999990
   13.96138859  117.30999756    1.36000001    2.57999992
   13.96444416  117.39299774    1.36000001    2.59999990
   13.96777725  115.82299805    1.36000001    2.59999990
   13.97388840  115.82299805    1.36000001    2.59999990
   13.97777748  120.08799744    1.36000001    2.59999990
   13.98111057  120.40599823    1.34000003    2.59999990
   13.98444462  114.56300354    1.34000003    2.59999990
   13.98750019  123.87200165    1.33000004    2.59999990
   13.99083328  122.36399841    1.34000003    2.59999990
   13.99416733  121.06199646    1.34000003    2.59999990
   13.99722290  115.96299744    1.34000003    2.59999990
   14.00055599  120.36399841    1.34000003    2.59999990
   14.00361156  122.05400085    1.34000003    2.59999990
   14.00611115  120.49299622    1.34000003    2.59999990
   14.00749969  115.51100159    1.34000003    2.59999990
   14.01055527  119.73300171    1.34000003    2.59999990
   14.01666641  119.73300171    1.34000003    2.59999990
   14.02083302  123.45800018    1.34000003    2.59999990
   14.02388859  117.98100281    1.33000004    2.59999990
   14.02722168  117.19300079    1.33000004    2.59999990
   14.03055573  119.54799652    1.33000004    2.57999992
   14.03361130  121.55899811    1.33000004    2.57999992
   14.03694534  113.30799866    1.30999994    2.59999990
   14.03944492  117.80799866    1.33000004    2.59999990
   14.04055595  122.44000244    1.33000004    2.59999990
   14.04361153  117.40799713    1.34000003    2.59999990
   14.04694462  115.50599670    1.36000001    2.59999990
   14.05027771  114.14499664    1.38000000    2.59999990
   14.05333328  119.00000000    1.38000000    2.59999990
   14.05944443  119.00000000    1.51999998    2.59999990
   14.06361103  110.20899963    1.51999998    2.59999990
   14.06694412  114.84400177    1.41999996    2.59999990
   14.06999969  119.49400330    1.36000001    2.59999990
   14.07277775  111.60900116    1.36000001    2.59999990
   14.07361126  115.06800079    1.36000001    2.59999990
   14.07694435  113.15000153    1.34000003    2.59999990
   14.07999992  119.39499664    1.30999994    2.59999990
   14.08333302  116.37300110    1.26999998    2.59999990
   14.08666611  118.69100189    1.25000000    2.61999989
   14.08972168  119.26300049    1.25000000    2.61999989
   14.09305477  118.97499847    1.25000000    2.59999990
   14.09611034  125.95500183    1.25000000    2.61999989
   14.10222244  125.95500183    1.25000000    2.59999990
   14.10638905  116.78600311    1.25000000    2.59999990
   14.10972214  113.69499969    1.25000000    2.61999989
   14.11277771  117.96099854    1.23000002    2.61999989
   14.11611176  119.00700378    1.23000002    2.61999989
   14.11944485  113.18199921    1.21000004    2.61999989
   14.12250042  118.22899628    1.21000004    2.59999990
   14.12583351  114.69599915    1.21000004    2.59999990
   14.12916660  115.19599915    1.23000002    2.61999989
   14.13222218  122.47799683    1.23000002    2.61999989
   14.13555527  117.75700378    1.23000002    2.61999989
   14.13861084  125.41000366    1.21000004    2.61999989
   14.13944435  123.62999725    1.21000004    2.61999989
   14.14527798  123.62999725    1.21000004    2.61999989
   14.14916611  117.82499695    1.19000006    2.61999989
   14.15249920  115.09799957    1.19000006    2.61999989
   14.15583324  111.97599792    1.19000006    2.61999989
   14.15888882  118.72599792    1.19000006    2.61999989
   14.16222191  116.91200256    1.19000006    2.61999989
   14.16555500  120.66400146    1.19000006    2.59999990
   14.16861153  117.22000122    1.19000006    2.59999990
   14.17194462  112.16799927    1.19000006    2.61999989
   14.17277813  115.32800293    1.16999996    2.61999989
   14.17555618  118.37899780    1.16999996    2.61999989
   14.17888927  115.88999939    1.16999996    2.61999989
   14.18194485  120.21299744    1.16999996    2.61999989
   14.18805599  120.21299744    1.16999996    2.61999989
   14.19222260  122.26499939    1.16999996    2.61999989
   14.19527817  117.27799988    1.16999996    2.61999989
   14.19861126  118.78299713    1.16999996    2.61999989
   14.20194435  123.80000305    1.16999996    2.59999990
   14.20499992  120.74500275    1.19000006    2.61999989
   14.20611095  116.73100281    1.16999996    2.61999989
   14.20861053  123.30000305    1.16999996    2.61999989
   14.21194458  117.41000366    1.16999996    2.61999989
   14.21500015  121.65000153    1.16999996    2.61999989
   14.21833324  118.13999939    1.16999996    2.61999989
   14.22138882  118.88700104    1.16999996    2.64000010
   14.22472191  118.98400116    1.16999996    2.64000010
   14.23083305  118.98400116    1.16999996    2.61999989
   14.23500061  117.40399933    1.16999996    2.64000010
   14.23833370  116.63899994    1.14999998    2.61999989
   14.23944473  116.90499878    1.14999998    2.61999989
   14.24194431  123.23400116    1.14999998    2.61999989
   14.24527836  113.23100281    1.14999998    2.61999989
   14.24833393  119.63999939    1.14999998    2.61999989
   14.25166702  120.75499725    1.14999998    2.61999989
   14.25472260  113.13200378    1.14999998    2.61999989
   14.25805569  121.51300049    1.14999998    2.64000010
   14.26138878  136.95300293    1.14999998    2.64000010
   14.26444435  135.96899414    1.14999998    2.61999989
   14.26777744  156.26699829    1.14999998    2.64000010
   14.27361107  156.26699829    1.14999998    2.61999989
   14.27777767  134.34199524    1.14999998    2.64000010
   14.28111076  144.91200256    1.14999998    2.61999989
   14.28416729  118.39900208    1.14999998    2.61999989
   14.28750038  119.80000305    1.14999998    2.61999989
   14.29083347  127.86900330    1.14999998    2.64000010
   14.29388905  130.11700439    1.14999998    2.64000010
   14.29722309  108.50599670    1.14999998    2.64000010
   14.30055618  143.71899414    1.14999998    2.61999989
   14.30361176  132.78799438    1.14999998    2.61999989
   14.30611134  142.01499939    1.14999998    2.64000010
   14.30722237  144.78799438    1.14999998    2.64000010
   14.31055546  123.44899750    1.16999996    2.61999989
   14.31638908  123.44899750    1.16999996    2.64000010
   14.32055569  120.34200287    1.16999996    2.64000010
   14.32388878  133.35200500    1.16999996    2.61999989
   14.32722187  129.95899963    1.16999996    2.61999989
   14.33027744  126.83200073    1.16999996    2.64000010
   14.33361053  135.75700378    1.16999996    2.64000010
   14.33694458  134.40600586    1.14999998    2.61999989
   14.33944416  127.94999695    1.14999998    2.61999989
   14.34055519  122.44200134    1.14999998    2.64000010
   14.34388828  115.82599640    1.13000000    2.64000010
   14.34694386  133.39399719    1.13000000    2.64000010
   14.35027790  116.52200317    1.13000000    2.64000010
   14.35333347  118.45200348    1.13000000    2.64000010
   14.35944462  118.45200348    1.13000000    2.64000010
   14.36361122  114.51399994    1.11000001    2.64000010
   14.36666679  118.62500000    1.11000001    2.64000010
   14.36999989  120.13800049    1.11000001    2.64000010
   14.37277794  115.61799622    1.11000001    2.64000010
   14.37361145  118.17800140    1.11000001    2.64000010
   14.37694454  109.77899933    1.11000001    2.64000010
   14.38000011  113.73999786    1.11000001    2.64000010
   14.38333321  116.69499969    1.11000001    2.64000010
   14.38666630  114.17199707    1.11000001    2.64000010
   14.38972187  112.24400330    1.11000001    2.64000010
   14.39305496  115.03299713    1.09000003    2.64000010
   14.39638901  118.26499939    1.09000003    2.64000010
   14.40222168  118.26499939    1.09000003    2.64000010
   14.40638828  115.26699829    1.07000005    2.64000010
   14.40972137  123.70700073    1.07000005    2.64000010
   14.41277695  115.00299835    1.07000005    2.64000010
   14.41611099  113.34899902    1.09000003    2.64000010
   14.41916656  120.66500092    1.07000005    2.64000010
   14.42250061  116.90499878    1.09000003    2.64000010
   14.42583370  119.46199799    1.07000005    2.64000010
   14.42888927  111.46199799    1.07000005    2.64000010
   14.43222237  118.13500214    1.09000003    2.64000010
   14.43555546  119.12799835    1.09000003    2.64000010
   14.43861103  116.69799805    1.07000005    2.64000010
   14.43944454  120.87400055    1.07000005    2.64000010
   14.44499969  120.87400055    1.05999994    2.64000010
   14.44916630  111.52999878    1.07000005    2.64000010
   14.45249939  116.83000183    1.09000003    2.64000010
   14.45555496  118.54900360    1.09000003    2.64000010
   14.47333336  105.58000183    1.09000003    2.64000010
   14.47555542  109.20600128    1.07000005    2.64000010
   14.47888851  113.82099915    1.07000005    2.64000010
   14.48222160  104.72799683    1.05999994    2.66000009
   14.48805618  104.72799683    1.05999994    2.64000010
   14.49222279  108.88999939    1.05999994    2.66000009
   14.49555588  110.94799805    1.05999994    2.64000010
   14.49861145  109.92400360    1.05999994    2.64000010
   14.50194454  106.50800323    1.05999994    2.66000009
   14.50527763  108.50700378    1.05999994    2.66000009
   14.50638866  111.56600189    1.05999994    2.66000009
   14.50888920  111.11000061    1.05999994    2.66000009
   14.51222229  105.11499786    1.05999994    2.64000010
   14.51527786  107.17199707    1.05999994    2.64000010
   14.51861095  104.13099670    1.05999994    2.66000009
   14.52194405  113.21399689    1.05999994    2.66000009
   14.52499962  108.10299683    1.05999994    2.64000010
   14.53083324  108.10299683    1.05999994    2.66000009
   14.53500080  112.45200348    1.05999994    2.66000009
   14.53833389  107.94499969    1.05999994    2.66000009
   14.53972244  105.28199768    1.03999996    2.66000009
   14.54194450  106.47000122    1.03999996    2.66000009
   14.54527855  116.63200378    1.03999996    2.64000010
   14.54833412  109.03399658    1.03999996    2.66000009
   14.55166721  115.86399841    1.03999996    2.66000009
   14.55472279  106.27500153    1.01999998    2.66000009
   14.55805588  111.14099884    1.01999998    2.66000009
   14.56138897  107.45300293    1.01999998    2.66000009
   14.56444454  114.86399841    1.01999998    2.66000009
   14.56777763  122.74299622    1.01999998    2.67000008
   14.57388878  122.74299622    1.01999998    2.66000009
   14.57805538  109.18399811    1.01999998    2.66000009
   14.58111095  115.09200287    1.03999996    2.66000009
   14.58444405  108.71800232    1.01999998    2.66000009
   14.58749962  111.97899628    1.01999998    2.66000009
   14.59083271  110.75199890    1.01999998    2.66000009
   14.59416676  108.85299683    1.01999998    2.66000009
   14.59722233  115.13800049    1.01999998    2.66000009
   14.60055637  108.25299835    1.01999998    2.66000009
   14.60388947  104.75199890    1.01999998    2.66000009
   14.60638905  107.35500336    1.01999998    2.66000009
   14.60750008  109.26599884    1.01999998    2.67000008
   14.61083412  104.97699738    1.01999998    2.66000009
   14.61666679  104.97699738    1.01999998    2.66000009
   14.62083340  114.95899963    1.01999998    2.66000009
   14.62388897  105.70999908    1.01999998    2.66000009
   14.62722206  103.33699799    1.00000000    2.66000009
   14.63055611  101.90599823    1.00000000    2.66000009
   14.63361073  109.38099670    0.98000002    2.67000008
   14.63694477  106.30400085    0.98000002    2.66000009
   14.63972187  112.48400116    1.00000000    2.67000008
   14.64055538  102.75900269    1.00000000    2.67000008
   14.64388847  108.81800079    1.01999998    2.67000008
   14.64694405  111.48100281    1.00000000    2.66000009
   14.65027714  108.27799988    1.00000000    2.66000009
   14.65361118  108.35600281    1.00000000    2.67000008
   14.65944386  108.35600281    1.00000000    2.66000009
   14.66361046  113.00299835    1.00000000    2.66000009
   14.66694450  105.69499969    1.01999998    2.66000009
   14.67000008  117.40399933    1.01999998    2.67000008
   14.67305565  111.33499908    1.01999998    2.67000008
   14.67361164  103.75000000    1.01999998    2.67000008
   14.67694473  104.02999878    1.01999998    2.67000008
   14.68027782  106.38099670    1.01999998    2.67000008
   14.68333340  112.47899628    1.01999998    2.67000008
   14.68666649  112.90899658    1.01999998    2.67000008
   14.68972206  109.87599945    1.01999998    2.66000009
   14.69305515  110.29100037    1.01999998    2.67000008
   14.69638920  103.84100342    1.01999998    2.67000008
   14.70222187  103.84100342    1.00000000    2.67000008
   14.70638847  108.31900024    1.00000000    2.67000008
   14.70694447  109.66400146    1.00000000    2.67000008
   14.71027756  108.53600311    1.00000000    2.66000009
   14.71333313  107.68900299    0.98000002    2.67000008
   14.71666622  109.16899872    0.98000002    2.66000009
   14.71999931  111.88800049    0.98000002    2.67000008
   14.72305489  110.61599731    0.98000002    2.66000009
   14.72638798  113.76399994    1.00000000    2.66000009
   14.72944355  109.18199921    1.00000000    2.66000009
   14.73277760  104.70800018    1.00000000    2.67000008
   14.73611164  111.76999664    1.00000000    2.66000009
   14.73916721  108.35299683    1.00000000    2.67000008
   14.73972225  114.93699646    1.00000000    2.66000009
   14.74527836  114.93699646    1.01999998    2.67000008
   14.74916649  107.62500000    1.00000000    2.66000009
   14.75249958  111.13999939    1.01999998    2.67000008
   14.75583363  113.01200104    1.01999998    2.66000009
   14.75888920  103.80200195    1.03999996    2.66000009
   14.76222229  110.39700317    1.05999994    2.67000008
   14.76555538  118.81400299    1.05999994    2.66000009
   14.76861095  107.34100342    1.07000005    2.67000008
   14.77194405  113.38899994    1.23000002    2.67000008
   14.77305508  108.48999786    1.23000002    2.67000008
   14.77555561  109.62599945    1.11000001    2.66000009
   14.77888870  116.23600006    1.11000001    2.66000009
   14.78194427  112.00199890    1.09000003    2.67000008
   14.78805637  112.00199890    1.03999996    2.67000008
   14.79222298  115.09799957    1.01999998    2.67000008
   14.79555607  118.08699799    1.00000000    2.67000008
   14.79861164  118.73699951    1.01999998    2.66000009
   14.80194473  122.32599640    1.01999998    2.67000008
   14.80500031  119.00499725    1.01999998    2.67000008
   14.80638885  118.20999908    1.00000000    2.67000008
   14.80861092  116.94499969    1.01999998    2.67000008
   14.81194496  110.21299744    1.00000000    2.67000008
   14.81500053  112.50199890    1.00000000    2.67000008
   14.81833363  112.78299713    1.00000000    2.67000008
   14.82166672  114.99800110    1.00000000    2.67000008
   14.82472229  120.96199799    1.01999998    2.67000008
   14.83083344  120.96199799    1.01999998    2.67000008
   14.83500004  111.74199677    1.03999996    2.67000008
   14.83833313  116.90899658    1.03999996    2.67000008
   14.83972168  106.05500031    1.03999996    2.67000008
   14.84194374  110.73600006    1.03999996    2.67000008
   14.84527779  114.78199768    1.05999994    2.67000008
   14.84833336  115.93399811    1.07000005    2.66000009
   14.85166740  111.85800171    1.14999998    2.67000008
   14.85500050  118.07199860    1.13000000    2.67000008
   14.85805607  117.77700043    1.05999994    2.67000008
   14.86138916  113.56600189    1.05999994    2.67000008
   14.86472225  110.84799957    1.07000005    2.67000008
   14.86777782  108.57599640    1.07000005    2.67000008
   14.87361145  108.57599640    1.05999994    2.67000008
   14.87777805  111.44499969    1.03999996    2.67000008
   14.88111115  112.51300049    1.01999998    2.67000008
   14.88444424  106.40299988    1.03999996    2.67000008
   14.88749981  105.35600281    1.03999996    2.67000008
   14.89083290  110.56400299    1.05999994    2.67000008
   14.89388847  107.59300232    1.07000005    2.67000008
   14.89722252  106.74700165    1.05999994    2.67000008
   14.90055561  106.97699738    1.05999994    2.67000008
   14.90361118  110.21299744    1.05999994    2.67000008
   14.90666676  106.90899658    1.05999994    2.67000008
   14.90722179  111.09999847    1.05999994    2.67000008
   14.91055489  109.41999817    1.01999998    2.67000008
   14.91666698  109.41999817    1.01999998    2.67000008
   14.92083359  110.62500000    1.01999998    2.66000009
   14.92388916  111.98699951    1.01999998    2.67000008
   14.92722225  109.58200073    1.01999998    2.67000008
   14.93027782  116.41200256    1.00000000    2.67000008
   14.93361092  111.11100006    1.00000000    2.67000008
   14.93694496  118.11199951    1.00000000    2.67000008
   14.94000053  111.87300110    0.98000002    2.67000008
   14.94055557  114.22000122    0.98000002    2.67000008
   14.94388866  113.59400177    0.98000002    2.67000008
   14.94694424  114.96900177    0.98000002    2.69000006
   14.95027733  116.38200378    0.98000002    2.67000008
   14.95361137  117.47000122    0.98000002    2.69000006
   14.95944405  117.47000122    0.98000002    2.67000008
   14.96361065  115.67299652    0.95999998    2.67000008
   14.96666622  109.88800049    0.95999998    2.67000008
   14.96999931  109.52100372    0.95999998    2.67000008
   14.97333336  116.82800293    0.95999998    2.67000008
   14.97361088  116.47499847    0.95999998    2.67000008
   14.97694397  117.92500305    0.94000000    2.67000008
   14.97999954  116.22000122    0.95999998    2.67000008
   14.98333359  107.24299622    0.92000002    2.67000008
   14.98666668  117.23600006    0.89999998    2.69000006
   14.98972225  117.67800140    0.89999998    2.69000006
   14.99305534  109.59400177    0.89999998    2.69000006
   14.99611092  113.24199677    0.89999998    2.69000006
   15.00222206  113.24199677    0.92000002    2.69000006
   15.00638866  117.37999725    0.92000002    2.69000006
   15.00694466  114.29000092    0.92000002    2.69000006
   15.01027775  122.66799927    0.94000000    2.69000006
   15.01333332  116.72000122    0.94000000    2.69000006
   15.01666641  112.09400177    0.94000000    2.69000006
   15.01999950  112.81400299    0.92000002    2.69000006
   15.02305508  119.02899933    0.94000000    2.67000008
   15.02638817  117.61000061    0.94000000    2.67000008
   15.02972221  113.26999664    0.95999998    2.69000006
   15.03277779  117.34700012    0.95999998    2.69000006
   15.03611183  120.09400177    0.95999998    2.69000006
   15.03916740  120.59300232    0.98000002    2.69000006
   15.04027843  113.19899750    0.98000002    2.69000006
   15.04500008  113.19899750    0.95999998    2.67000008
   15.04916668  111.21199799    0.98000002    2.69000006
   15.05249977  110.51799774    0.95999998    2.67000008
   15.05555534  106.44100189    0.98000002    2.69000006
   15.05888939  106.91300201    0.98000002    2.69000006
   15.06222248  120.47799683    1.00000000    2.69000006
   15.06527805  117.89600372    1.00000000    2.67000008
   15.06861115  112.00700378    1.01999998    2.67000008
   15.07194424  105.08899689    1.01999998    2.69000006
   15.07361126  109.76699829    1.01999998    2.67000008
   15.07555580  110.89399719    1.01999998    2.69000006
   15.07861137  113.37400055    1.00000000    2.69000006
   15.08194447  104.38400269    1.00000000    2.69000006
   15.08722210  104.38400269    1.00000000    2.69000006
   15.09138870  114.74800110    1.01999998    2.69000006
   15.09444427  113.26999664    1.00000000    2.69000006
   15.09777737  105.62400055    0.98000002    2.69000006
   15.10111141  104.08699799    0.98000002    2.69000006
   15.10416698  109.56999969    0.98000002    2.67000008
   15.10611153  108.72799683    0.98000002    2.67000008
   15.10777855  110.46299744    0.98000002    2.67000008
   15.11083412  114.74099731    0.98000002    2.67000008
   15.11416721  106.00099945    0.98000002    2.69000006
   15.11750031  107.08100128    0.98000002    2.69000006
   15.12055588  107.87500000    0.98000002    2.71000004
   15.12388897  110.86699677    0.98000002    2.69000006
   15.13000011  110.86699677    0.98000002    2.69000006
   15.13416672  103.85900116    0.98000002    2.69000006
   15.13722229  109.31999969    0.98000002    2.69000006
   15.13944435  111.29799652    0.98000002    2.69000006
   15.14111137  100.84799957    0.98000002    2.69000006
   15.14416695  107.79799652    0.98000002    2.69000006
   15.14750004  113.98999786    0.98000002    2.69000006
   15.15083313  109.78299713    0.98000002    2.69000006
   15.15388870  113.85500336    0.98000002    2.69000006
   15.15722179  105.65200043    0.98000002    2.71000004
   15.16055489  106.24800110    0.95999998    2.69000006
   15.16361046  106.95099640    0.95999998    2.69000006
   15.16694450  104.15699768    0.95999998    2.67000008
   15.17361164  104.15699768    0.98000002    2.69000006
   15.17777824  114.97200012    0.95999998    2.69000006
   15.18083382  114.18099976    0.98000002    2.69000006
   15.18416691  105.70999908    0.98000002    2.69000006
   15.18750000  104.87999725    0.98000002    2.69000006
   15.19055557  115.47599792    0.98000002    2.69000006
   15.19388866  112.79499817    0.98000002    2.71000004
   15.19722271  112.41400146    0.98000002    2.69000006
   15.20027733  110.54699707    0.98000002    2.69000006
   15.20361137  108.15100098    0.95999998    2.69000006
   15.20694447  108.79599762    0.98000002    2.69000006
   15.20722198  108.95600128    0.95999998    2.69000006
   15.21055508  104.97799683    0.95999998    2.71000004
   15.21638870  104.97799683    0.95999998    2.69000006
   15.22055531  108.75199890    0.95999998    2.67000008
   15.22388840  116.67700195    0.95999998    2.71000004
   15.22694397  113.43599701    0.95999998    2.71000004
   15.23027706  113.04799652    0.95999998    2.69000006
   15.23361111  106.96399689    0.95999998    2.69000006
   15.23666668  117.43399811    0.95999998    2.69000006
   15.24000072  121.12300110    0.95999998    2.71000004
   15.24083328  109.74299622    0.95999998    2.71000004
   15.24361134  109.10500336    0.98000002    2.69000006
   15.34305477   -1.00000000   -1.00000000   -1.00000000
   15.59277725   -1.00000000   -1.00000000   -1.00000000
   15.88583279   -1.00000000   -1.00000000   -1.00000000
   16.03111076   77.57289886    0.83999997    2.73000002
   16.03444481  112.61799622    0.81999999    2.75000000
   16.03750038  110.82299805    0.81999999    2.73000002
   16.04083252  105.35500336    0.81999999    2.71000004
   16.04388809  112.27899933    0.81999999    2.73000002
   16.04722214  108.50900269    0.81999999    2.73000002
   16.05138779  108.50900269    0.81999999    2.73000002
   16.05555534  114.84799957    0.81999999    2.73000002
   16.05861092  120.33999634    0.81999999    2.71000004
   16.06194305  108.91600037    0.81999999    2.73000002
   16.06444359  112.30599976    0.83999997    2.73000002
   16.06583214  115.27999878    0.83999997    2.73000002
   16.06888962  117.98300171    0.83999997    2.71000004
   16.07222366  112.29100037    0.83999997    2.73000002
   16.07527924  112.63500214    0.83999997    2.73000002
   16.07861137  111.47200012    0.86000001    2.73000002
   16.08194542  110.55599976    0.83999997    2.71000004
   16.08527756  108.28099823    0.83999997    2.73000002
   16.08833313  106.54499817    0.83999997    2.73000002
   16.09416771  106.54499817    0.86000001    2.71000004
   16.09833336  113.80699921    0.86000001    2.73000002
   16.10166740  111.97200012    0.86000001    2.73000002
   16.10472298  109.35399628    0.86000001    2.73000002
   16.10805511  114.51699829    0.86000001    2.73000002
   16.11138916  101.96900177    0.83999997    2.73000002
   16.11444473  113.94999695    0.83999997    2.73000002
   16.11777878  108.47899628    0.83999997    2.73000002
   16.12083435  126.58599854    0.81999999    2.73000002
   16.12416649  114.20200348    0.83999997    2.73000002
   16.12750053  118.16200256    0.81999999    2.73000002
   16.13055611  119.17500305    0.81999999    2.71000004
   16.13111115  108.80999756    0.83999997    2.73000002
   16.13722229  108.80999756    0.83999997    2.73000002
   16.14111137  111.14900208    0.81999999    2.73000002
   16.14444351  119.01499939    0.83999997    2.75000000
   16.14777756  117.52799988    0.81999999    2.71000004
   16.15083313  115.72599792    0.83999997    2.73000002
   16.15416718  116.87999725    0.81999999    2.73000002
   16.15722275  105.83100128    0.81999999    2.73000002
   16.16055489  114.19100189    0.81999999    2.73000002
   16.16388893  117.45800018    0.81999999    2.73000002
   16.16444397  111.62699890    0.83999997    2.73000002
   16.16749954  115.35299683    0.83999997    2.73000002
   16.17083359  113.17400360    0.81999999    2.73000002
   16.17388916  109.95899963    0.83999997    2.73000002
   16.18000031  109.95899963    0.83999997    2.71000004
   16.18416595  107.23500061    0.83999997    2.73000002
   16.18722153  116.47499847    0.83999997    2.73000002
   16.19055557  107.98100281    0.83999997    2.73000002
   16.19388771  118.60399628    0.83999997    2.73000002
   16.19694328  117.91799927    0.83999997    2.73000002
   16.19777679  108.85500336    0.81999999    2.71000004
   16.20055580  119.05000305    0.81999999    2.73000002
   16.20388985  108.76000214    0.81999999    2.71000004
   16.20694542  109.20800018    0.81999999    2.73000002
   16.21027946  102.31800079    0.83999997    2.73000002
   16.21333504  114.64800262    0.83999997    2.73000002
   16.21666718  113.36000061    0.83999997    2.73000002
   16.22277832  113.36000061    0.81999999    2.71000004
   16.22694588  107.06600189    0.81999999    2.73000002
   16.23000145  107.94499969    0.80000001    2.73000002
   16.23111153  109.85800171    0.80000001    2.73000002
   16.23388863  109.36299896    0.80000001    2.73000002
   16.23722267  114.69999695    0.80000001    2.73000002
   16.24027824  116.91400146    0.80000001    2.71000004
   16.24361229  112.76699829    0.80000001    2.73000002
   16.24666786  109.72799683    0.80000001    2.73000002
   16.25000000  108.67900085    0.81999999    2.73000002
   16.25333405  110.24900055    0.81999999    2.75000000
   16.25638962  109.18000031    0.81999999    2.73000002
   16.25972176  117.12200165    0.80000001    2.73000002
   16.26555634  117.12200165    0.80000001    2.73000002
   16.26972198  108.23600006    0.81999999    2.71000004
   16.27305603  107.41500092    0.81999999    2.75000000
   16.27611160  101.10299683    0.80000001    2.73000002
   16.27944374  106.33499908    0.81999999    2.73000002
   16.28277779  111.40699768    0.80000001    2.71000004
   16.28583336  114.15699768    0.81999999    2.71000004
   16.28916550  118.74199677    0.80000001    2.73000002
   16.29222107  121.34600067    0.81999999    2.73000002
   16.29555511  120.14399719    0.81999999    2.73000002
   16.29777718  104.56800079    0.81999999    2.73000002
   16.29916573  105.67400360    0.81999999    2.73000002
   16.30249977  107.42600250    0.83999997    2.73000002
   16.30833244  107.42600250    0.83999997    2.73000002
   16.31250000  104.17500305    0.81999999    2.71000004
   16.31583214  107.89900208    0.81999999    2.73000002
   16.31916809  105.09500122    0.83999997    2.73000002
   16.32222366  107.37100220    0.83999997    2.73000002
   16.32555580  116.95700073    0.83999997    2.73000002
   16.32861137  103.45700073    0.83999997    2.71000004
   16.33111191  105.61299896    0.81999999    2.73000002
   16.33250046  117.91400146    0.81999999    2.73000002
   16.33583450  107.46499634    0.83999997    2.73000002
   16.33889008  106.85500336    0.81999999    2.73000002
   16.34222221  107.13800049    0.81999999    2.73000002
   16.34555626  101.44200134    0.81999999    2.73000002
   16.35138893  101.44200134    0.81999999    2.73000002
   16.35555649  111.10399628    0.81999999    2.73000002
   16.35861206  109.22000122    0.80000001    2.73000002
   16.36194420  112.90499878    0.80000001    2.71000004
   16.36444473  107.04399872    0.80000001    2.73000002
   16.36555672  104.39099884    0.80000001    2.73000002
   16.36888885  117.34100342    0.80000001    2.73000002
   16.37194443  111.81199646    0.80000001    2.73000002
   16.37527847  103.76899719    0.81999999    2.71000004
   16.37861061  111.59500122    0.81999999    2.73000002
   16.38166618  108.35700226    0.81999999    2.75000000
   16.38500023  111.44999695    0.83999997    2.73000002
   16.38805580  107.20899963    0.81999999    2.73000002
   16.39416695  107.20899963    0.83999997    2.73000002
   16.39833260  124.75700378    0.83999997    2.71000004
   16.40138817  112.91100311    0.83999997    2.73000002
   16.40472221  118.02899933    0.81999999    2.73000002
   16.40805435  111.30000305    0.81999999    2.73000002
   16.41110992  114.18800354    0.81999999    2.73000002
   16.41444397  112.55699921    0.83999997    2.73000002
   16.41777802  107.85299683    0.83999997    2.73000002
   16.42083359  106.19899750    0.81999999    2.75000000
   16.42416573  115.96099854    0.81999999    2.75000000
   16.42722130  100.93199921    0.86000001    2.73000002
   16.43055534  110.33200073    0.86000001    2.73000002
   16.43111038  105.48400116    0.86000001    2.73000002
   16.43694305  105.48400116    0.89999998    2.73000002
   16.44111061  105.66300201    0.92000002    2.73000002
   16.44444275  101.70800018    0.92000002    2.71000004
   16.44749832  120.58699799    0.89999998    2.73000002
   16.45083427  123.42700195    0.89999998    2.73000002
   16.45416832  112.65799713    0.89999998    2.73000002
   16.45722389  113.27899933    0.89999998    2.73000002
   16.46055603  112.19100189    0.89999998    2.73000002
   16.46389008  113.52400208    0.88000000    2.73000002
   16.46444511  125.06999969    0.88000000    2.73000002
   16.46750069  112.98899841    0.88000000    2.73000002
   16.47083473  109.00700378    0.88000000    2.73000002
   16.47389030  106.18599701    0.86000001    2.71000004
   16.47972298  106.18599701    0.80000001    2.73000002
   16.48388863  115.19499969    0.80000001    2.73000002
   16.48722267  111.13400269    0.81999999    2.73000002
   16.49055672  115.20700073    0.81999999    2.73000002
   16.49361229  107.77600098    0.81999999    2.73000002
   16.49694443  105.65499878    0.83999997    2.73000002
   16.49777794  103.47599792    0.83999997    2.73000002
   16.50055504  125.38099670    0.83999997    2.73000002
   16.50388908  112.84999847    0.86000001    2.73000002
   16.50694466  113.84700012    0.86000001    2.73000002
   16.51027870  118.73200226    0.83999997    2.73000002
   16.51361084  105.86799622    0.83999997    2.73000002
   16.51666641  106.97100067    0.81999999    2.73000002
   16.52277756  106.97100067    0.81999999    2.75000000
   16.52694511  106.85800171    0.81999999    2.73000002
   16.53000069  107.47799683    0.81999999    2.73000002
   16.53111076  112.67299652    0.81999999    2.75000000
   16.53361130  118.02700043    0.81999999    2.73000002
   16.53694344  111.17500305    0.81999999    2.73000002
   16.53999901  114.07900238    0.81999999    2.73000002
   16.54333305  118.14800262    0.86000001    2.73000002
   16.54666710  111.13700104    0.83999997    2.73000002
   16.54972076   99.99880219    0.86000001    2.73000002
   16.55305481  121.37899780    0.86000001    2.73000002
   16.55611038  109.29000092    0.86000001    2.73000002
   16.55944443  111.25700378    0.86000001    2.73000002
   16.56555557  111.25700378    0.88000000    2.73000002
   16.56972313  110.25499725    0.88000000    2.73000002
   16.57305717  105.07800293    0.88000000    2.73000002
   16.57611275  102.67900085    0.88000000    2.73000002
   16.57944489  107.17800140    0.86000001    2.73000002
   16.58250046  103.92500305    0.86000001    2.73000002
   16.58583450  111.75099945    0.86000001    2.73000002
   16.58916664  113.89700317    0.83999997    2.73000002
   16.59222221  115.03299713    0.83999997    2.73000002
   16.59555626  107.81199646    0.83999997    2.73000002
   16.59777832  113.01799774    0.81999999    2.73000002
   16.59916687  110.66400146    0.81999999    2.73000002
   16.60250092  105.89800262    0.81999999    2.73000002
   16.60833359  105.89800262    0.81999999    2.73000002
   16.61250114  111.60199738    0.80000001    2.75000000
   16.61583328  113.60099792    0.80000001    2.75000000
   16.61888885  108.58100128    0.81999999    2.75000000
   16.62222290  106.93000031    0.81999999    2.75000000
   16.62527847  115.14499664    0.81999999    2.73000002
   16.62861061  106.83200073    0.81999999    2.75000000
   16.63138962  105.65499878    0.81999999    2.73000002
   16.63222313  120.35199738    0.81999999    2.73000002
   16.63555527  119.50000000    0.81999999    2.73000002
   16.63861084  123.51799774    0.83999997    2.73000002
   16.64194489  108.56700134    0.83999997    2.73000002
   16.64527702  102.40499878    0.83999997    2.73000002
   16.65111160  102.40499878    0.86000001    2.73000002
   16.65527725  107.76100159    0.88000000    2.73000002
   16.65861130  104.46800232    0.88000000    2.73000002
   16.66194344  107.77200317    0.88000000    2.73000002
   16.66472244  108.85600281    0.89999998    2.73000002
   16.66555595  107.30100250    0.89999998    2.73000002
   16.66888809  107.34300232    0.89999998    2.73000002
   16.67194366  104.32900238    0.88000000    2.73000002
   16.67527771  110.38500214    0.89999998    2.73000002
   16.67860985  103.79900360    0.88000000    2.73000002
   16.68166542  103.81999969    0.88000000    2.73000002
   16.68499947  101.95400238    0.88000000    2.71000004
   16.68833160  101.57199860    0.88000000    2.73000002
   16.69416618  101.57199860    0.88000000    2.73000002
   16.69805527  106.31199646    0.89999998    2.75000000
   16.70138931  106.65799713    0.88000000    2.75000000
   16.70472336  118.59500122    0.86000001    2.73000002
   16.70777893  110.82900238    0.86000001    2.73000002
   16.71111107  103.59300232    0.83999997    2.73000002
   16.71444511  106.30999756    0.83999997    2.73000002
   16.71750069  112.21399689    0.83999997    2.71000004
   16.72083473  104.91100311    0.86000001    2.75000000
   16.72416687  113.00800323    0.86000001    2.73000002
   16.72722244  110.69200134    0.88000000    2.73000002
   16.73055649  107.82800293    0.88000000    2.73000002
   16.73139000  105.96399689    0.86000001    2.73000002
   16.73694420  105.96399689    0.86000001    2.73000002
   16.74111176  113.44000244    0.86000001    2.73000002
   16.74416733  110.84100342    0.86000001    2.73000002
   16.74749947  112.41300201    0.86000001    2.73000002
   16.75083351  111.93599701    0.81999999    2.73000002
   16.75388908  102.57299805    0.81999999    2.73000002
   16.75722313  106.52100372    0.81999999    2.71000004
   16.76027870  110.55300140    0.81999999    2.73000002
   16.76361084  103.44899750    0.80000001    2.73000002
   16.76472282  117.49700165    0.80000001    2.73000002
   16.76722145  118.75700378    0.80000001    2.73000002
   16.77055550  109.55000305    0.81999999    2.73000002
   16.77361107  117.51200104    0.81999999    2.73000002
   16.77972221  117.51200104    0.80000001    2.73000002
   16.78388786  110.19300079    0.81999999    2.73000002
   16.78722191  113.50800323    0.81999999    2.73000002
   16.79027748  115.67900085    0.81999999    2.73000002
   16.79361153  113.37999725    0.83999997    2.73000002
   16.79666710  115.57700348    0.81999999    2.73000002
   16.79805565  108.90399933    0.81999999    2.73000002
   16.80027771  109.75800323    0.81999999    2.73000002
   16.80360985  110.94699860    0.81999999    2.73000002
   16.80694389  112.82099915    0.81999999    2.73000002
   16.80999947  108.50399780    0.83999997    2.73000002
   16.81333351  107.06500244    0.83999997    2.73000002
   16.81638718  112.21099854    0.81999999    2.71000004
   16.82250023  112.21099854    0.81999999    2.71000004
   16.82666779  108.85099792    0.81999999    2.73000002
   16.83000183  105.90299988    0.83999997    2.73000002
   16.83139038  109.39700317    0.81999999    2.71000004
   16.83361244  106.61100006    0.83999997    2.73000002
   16.83694458  104.27999878    0.81999999    2.73000002
   16.84000015  109.73899841    0.81999999    2.75000000
   16.84333420  110.59999847    0.88000000    2.73000002
   16.84666824  107.33499908    0.86000001    2.73000002
   16.84972191  103.76000214    0.88000000    2.73000002
   16.85305595  111.64800262    0.92000002    2.71000004
   16.85639000  110.91200256    0.94000000    2.71000004
   16.85944557  117.57700348    0.92000002    2.73000002
   16.86555672  117.57700348    0.89999998    2.73000002
   16.86944389  105.40799713    0.92000002    2.73000002
   16.87277794  105.55300140    0.92000002    2.73000002
   16.87611198  107.50900269    0.89999998    2.75000000
   16.87916756  116.45400238    0.88000000    2.73000002
   16.88249969  111.01899719    0.86000001    2.73000002
   16.88583374  117.49600220    0.86000001    2.73000002
   16.88888931  125.82299805    0.83999997    2.73000002
   16.89222145  109.53700256    0.83999997    2.73000002
   16.89555550  125.64199829    0.86000001    2.73000002
   16.89805603  124.92299652    0.83999997    2.73000002
   16.89916611  120.23400116    0.83999997    2.73000002
   16.90250015  126.96499634    0.92000002    2.73000002
   16.90833282  126.96499634    0.94000000    2.73000002
   16.91250038  110.06600189    0.92000002    2.73000002
   16.91555595  124.25199890    0.92000002    2.73000002
   16.91888809  117.79399872    0.94000000    2.73000002
   16.92222214  121.86100006    0.94000000    2.71000004
   16.92527771  115.51200104    0.94000000    2.73000002
   16.92860985  123.49299622    0.95999998    2.71000004
   16.93138885  111.44999695    1.00000000    2.73000002
   16.93222237  119.64600372    1.01999998    2.71000004
   16.93555450  115.00399780    1.01999998    2.73000002
   16.93888855  109.46199799    1.01999998    2.71000004
   16.94194412  113.88099670    1.01999998    2.73000002
   16.94527626  110.76899719    1.03999996    2.73000002
   16.95111275  110.76899719    1.05999994    2.73000002
   16.95527840  101.90499878    1.07000005    2.73000002
   16.95861244  108.52400208    1.03999996    2.73000002
   16.96166801  118.03500366    1.03999996    2.73000002
   16.96472359  113.86699677    1.01999998    2.73000002
   16.96527863  115.85600281    1.01999998    2.73000002
   16.96861076  113.82599640    1.01999998    2.73000002
   16.97194481  112.51300049    1.01999998    2.73000002
   16.97500038  118.25700378    1.00000000    2.71000004
   16.97833443  111.20200348    0.98000002    2.73000002
   16.98166656  110.07299805    0.98000002    2.71000004
   16.98472214  105.91000366    0.98000002    2.71000004
   16.98805618  111.89499664    1.01999998    2.73000002
   16.99388885  111.89499664    1.01999998    2.71000004
   16.99805641  110.35399628    1.01999998    2.73000002
   17.00138855  114.11499786    1.00000000    2.73000002
   17.00472260  118.63200378    0.94000000    2.73000002
   17.00777817  114.76200104    0.94000000    2.71000004
   17.01111031  109.01899719    0.94000000    2.73000002
   17.01416588  114.38300323    0.94000000    2.73000002
   17.01749992  118.07099915    0.92000002    2.73000002
   17.02083397  110.72799683    0.92000002    2.73000002
   17.02388954  117.36499786    0.89999998    2.73000002
   17.02722168  118.30100250    0.92000002    2.73000002
   17.03055573  117.73100281    0.89999998    2.73000002
   17.03138924  125.28299713    0.89999998    2.73000002
   17.05194283  125.28299713    0.88000000    2.73000002
   17.05611038  113.93599701    0.86000001    2.73000002
   17.05944443  102.55699921    0.86000001    2.73000002
   17.06250000  119.59899902    0.86000001    2.73000002
   17.06472206  106.75399780    0.88000000    2.73000002
   17.06611061  105.66600037    0.88000000    2.73000002
   17.06944466  104.95300293    0.88000000    2.71000004
   17.07277870  104.55300140    0.88000000    2.73000002
   17.07583427  113.29199982    0.88000000    2.73000002
   17.07916832  106.54399872    0.88000000    2.73000002
   17.08250046  101.99900055    0.88000000    2.73000002
   17.08555603  109.48000336    0.88000000    2.71000004
   17.08889008  113.79599762    0.88000000    2.71000004
   17.09472275  113.79599762    0.88000000    2.73000002
   17.09889030  105.08200073    0.88000000    2.73000002
   17.10222244  108.09700012    0.88000000    2.73000002
   17.10527802  109.55699921    0.88000000    2.73000002
   17.10861206  103.98899841    0.88000000    2.71000004
   17.11194420  106.33399963    0.88000000    2.73000002
   17.11499977  112.69200134    0.88000000    2.71000004
   17.11833382  109.46299744    0.86000001    2.71000004
   17.12138939  110.33599854    0.86000001    2.71000004
   17.12472153  106.28199768    0.86000001    2.73000002
   17.12805557  108.72200012    0.88000000    2.73000002
   17.13111115  109.94200134    0.88000000    2.73000002
   17.13166618  108.85700226    0.88000000    2.73000002
   17.13750076  108.85700226    0.88000000    2.73000002
   17.14166641  107.96600342    0.88000000    2.71000004
   17.14500046  110.13200378    0.88000000    2.71000004
   17.14833260  107.53399658    0.88000000    2.71000004
   17.15138817  105.02300262    0.88000000    2.73000002
   17.15472221  105.00000000    0.88000000    2.71000004
   17.15777779  116.08699799    0.88000000    2.73000002
   17.16110992  105.55300140    0.88000000    2.73000002
   17.16444397  105.05000305    0.88000000    2.71000004
   17.16499901  104.85299683    0.88000000    2.71000004
   17.16805458  107.65799713    0.88000000    2.71000004
   17.17138863  105.24900055    0.88000000    2.71000004
   17.17444420  104.93000031    0.88000000    2.73000002
   17.18055534  104.93000031    0.86000001    2.71000004
   17.18472099  101.76200104    0.86000001    2.71000004
   17.18777657  105.74099731    0.88000000    2.73000002
   17.19111061  109.63800049    0.88000000    2.73000002
   17.19416618  104.42400360    0.86000001    2.71000004
   17.19749832  111.93199921    0.88000000    2.73000002
   17.19833183  115.63899994    0.88000000    2.73000002
   17.20111275  107.44799805    0.88000000    2.73000002
   17.20444489  100.17800140    0.88000000    2.71000004
   17.20750046  103.04000092    0.89999998    2.73000002
   17.21083450  107.89299774    0.88000000    2.71000004
   17.21389008  104.34400177    0.89999998    2.73000002
   17.21722221  111.61900330    0.89999998    2.71000004
   17.22333336  111.61900330    0.86000001    2.73000002
   17.22750092  101.21499634    0.86000001    2.73000002
   17.23055649  105.98699951    0.86000001    2.71000004
   17.23166656  107.46199799    0.86000001    2.71000004
   17.23416710  109.03399658    0.86000001    2.73000002
   17.23750114  105.87999725    0.86000001    2.73000002
   17.24055672  109.70700073    0.86000001    2.73000002
   17.24388885  119.21299744    0.86000001    2.73000002
   17.24694443  112.31900024    0.86000001    2.73000002
   17.25027847  107.80400085    0.86000001    2.73000002
   17.25361061  108.75800323    0.83999997    2.73000002
   17.25666618  116.42500305    0.83999997    2.73000002
   17.26000023  109.12899780    0.83999997    2.73000002
   17.26611137  109.12899780    0.86000001    2.71000004
   17.27027702  109.80500031    0.86000001    2.71000004
   17.27361107  118.97000122    0.86000001    2.71000004
   17.27666664  106.20500183    0.86000001    2.73000002
   17.28000069  100.63200378    0.86000001    2.73000002
   17.28305435  103.22699738    0.86000001    2.73000002
   17.28638840  110.00000000    0.86000001    2.71000004
   17.28972244  106.79499817    0.86000001    2.71000004
   17.29277802  112.88700104    0.86000001    2.71000004
   17.29611015  102.09500122    0.86000001    2.73000002
   17.29833221  105.74299622    0.88000000    2.71000004
   17.29972076  103.50000000    0.88000000    2.71000004
   17.30305481  106.09500122    0.86000001    2.71000004
   17.30888748  106.09500122    0.86000001    2.73000002
   17.31305504  108.44799805    0.86000001    2.71000004
   17.31638718  108.67400360    0.86000001    2.73000002
   17.31944466  109.43800354    0.86000001    2.71000004
   17.32277870  112.06900024    0.86000001    2.71000004
   17.32611275  111.31900024    0.86000001    2.71000004
   17.32916832  115.10700226    0.88000000    2.71000004
   17.33166695  109.95300293    0.88000000    2.71000004
   17.33277893  110.49500275    0.88000000    2.71000004
   17.33611107  109.09899902    0.88000000    2.73000002
   17.33916664  105.66300201    0.88000000    2.71000004
   17.34250069  102.42700195    0.88000000    2.71000004
   17.34583473  104.79799652    0.88000000    2.71000004
   17.35194397  104.79799652    0.89999998    2.73000002
   17.35583305  104.20700073    0.89999998    2.71000004
   17.35916710  116.92600250    0.89999998    2.71000004
   17.36250114  111.90899658    0.89999998    2.73000002
   17.36499977  108.61699677    0.89999998    2.71000004
   17.36611176  105.49600220    0.89999998    2.71000004
   17.36944389  108.30000305    0.89999998    2.73000002
   17.37249947  112.48200226    0.89999998    2.71000004
   17.37583351  106.79799652    0.89999998    2.71000004
   17.37916756  109.65399933    0.92000002    2.71000004
   17.38222313  111.47899628    0.92000002    2.73000002
   17.38555527  113.66999817    0.92000002    2.71000004
   17.38888931  110.36499786    0.92000002    2.73000002
   17.39472198  110.36499786    0.92000002    2.73000002
   17.39888954  111.14700317    0.92000002    2.71000004
   17.40194321  107.60399628    0.92000002    2.73000002
   17.40527725  104.15499878    0.92000002    2.73000002
   17.40861130  105.25700378    0.92000002    2.71000004
   17.41166687  114.61000061    0.92000002    2.73000002
   17.41499901  104.54900360    0.92000002    2.73000002
   17.41805458  109.25099945    0.92000002    2.71000004
   17.42138863  109.55799866    0.92000002    2.73000002
   17.42472076  106.81199646    0.92000002    2.71000004
   17.42777634  107.14199829    0.89999998    2.73000002
   17.43111038  106.15299988    0.89999998    2.71000004
   17.43166542  116.66600037    0.89999998    2.71000004
   17.43750000  116.66600037    0.89999998    2.71000004
   17.44166565  111.99900055    0.89999998    2.71000004
   17.44499969  107.30500031    0.92000002    2.71000004
   17.44805527  108.48699951    0.89999998    2.71000004
   17.45138931  109.36900330    0.89999998    2.71000004
   17.45444489  107.52300262    0.92000002    2.71000004
   17.45777893  109.09100342    0.92000002    2.71000004
   17.46111107  107.07599640    0.92000002    2.71000004
   17.46416664  115.50800323    0.92000002    2.71000004
   17.46500015  106.69100189    0.92000002    2.71000004
   17.46777916  104.73400116    0.92000002    2.71000004
   17.47111130  108.65100098    0.92000002    2.71000004
   17.47444534  117.32399750    0.92000002    2.71000004
   17.48027802  117.32399750    0.92000002    2.71000004
   17.48444557  114.64499664    0.92000002    2.71000004
   17.48777771  111.48300171    0.92000002    2.73000002
   17.49083328  114.38300323    0.92000002    2.71000004
   17.49416733  109.93900299    0.89999998    2.71000004
   17.49749947  106.56900024    0.89999998    2.71000004
   17.49833298  111.95700073    0.89999998    2.71000004
   17.50111198  119.37899780    0.92000002    2.71000004
   17.50444412  104.31600189    0.92000002    2.71000004
   17.50749969  112.06199646    0.92000002    2.71000004
   17.51083374  113.77999878    0.94000000    2.71000004
   17.51416588  112.19499969    0.94000000    2.71000004
   17.51722145  110.70300293    0.94000000    2.71000004
   17.52333260  110.70300293    0.94000000    2.71000004
   17.52722168  116.50099945    0.94000000    2.71000004
   17.53055573  111.38300323    0.94000000    2.73000002
   17.53166580  106.06700134    0.92000002    2.71000004
   17.53416634  105.07499695    0.92000002    2.71000004
   17.53750038  104.50900269    0.92000002    2.71000004
   17.54055595  113.56900024    0.92000002    2.71000004
   17.54388809  108.61799622    0.92000002    2.71000004
   17.54722214  103.67600250    0.92000002    2.71000004
   17.55027771  109.61799622    0.92000002    2.71000004
   17.55360985  105.12699890    0.92000002    2.71000004
   17.55666542  101.95200348    1.00000000    2.71000004
   17.55999947  106.97200012    1.00000000    2.71000004
   17.56611061  106.97200012    0.92000002    2.71000004
   17.57027817  107.35399628    0.92000002    2.71000004
   17.57333374  103.27100372    0.89999998    2.71000004
   17.57666779  107.08300018    0.92000002    2.71000004
   17.58000183  107.04199982    0.89999998    2.71000004
   17.58305550  106.56300354    0.89999998    2.71000004
   17.58638954  106.11699677    0.88000000    2.71000004
   17.58944511  104.45099640    0.89999998    2.71000004
   17.59277916  105.41899872    0.88000000    2.71000004
   17.59611130  109.52999878    0.88000000    2.71000004
   17.59833336  110.28099823    0.88000000    2.71000004
   17.59972191  104.94699860    0.88000000    2.71000004
   17.60305595  111.84899902    0.88000000    2.71000004
   17.60888863  111.84899902    0.88000000    2.71000004
   17.61305618  107.89399719    0.88000000    2.71000004
   17.61638832  106.09700012    0.88000000    2.71000004
   17.61944389  111.41799927    0.88000000    2.71000004
   17.62277794  108.43599701    0.88000000    2.71000004
   17.62611198  109.88999939    0.89999998    2.71000004
   17.62916756  108.56900024    0.89999998    2.71000004
   17.63166618  104.76799774    0.89999998    2.69000006
   17.63277817  107.10399628    0.89999998    2.69000006
   17.63611031  107.57099915    0.89999998    2.69000006
   17.63944435  117.58799744    0.92000002    2.71000004
   17.64249992  103.44100189    0.92000002    2.71000004
   17.64583397  104.73200226    0.94000000    2.71000004
   17.65166664  104.73200226    0.95999998    2.69000006
   17.65583229  107.22299957    0.98000002    2.69000006
   17.65916634  105.40399933    1.01999998    2.71000004
   17.66222191  106.51799774    1.03999996    2.71000004
   17.66499901  105.22000122    1.09000003    2.71000004
   17.66583252  107.43299866    1.09000003    2.69000006
   17.66916656  101.69100189    1.07000005    2.69000006
   17.67222214  106.75199890    1.07000005    2.71000004
   17.67555428  112.89499664    1.05999994    2.69000006
   17.67888832  106.81800079    1.03999996    2.69000006
   17.68194389  104.76899719    1.03999996    2.69000006
   17.68527603  117.56600189    1.00000000    2.71000004
   17.68861008  108.69200134    1.00000000    2.69000006
   17.69472122  108.69200134    0.98000002    2.71000004
   17.69861031  110.11399841    0.98000002    2.69000006
   17.70194435  112.10700226    0.98000002    2.69000006
   17.70527840  106.77999878    1.00000000    2.71000004
   17.70833397  113.41899872    1.00000000    2.69000006
   17.71166801  108.92099762    1.00000000    2.71000004
   17.71500015  108.38200378    0.98000002    2.71000004
   17.71805573  104.96700287    0.95999998    2.71000004
   17.72138977  108.90599823    0.95999998    2.71000004
   17.72444534  108.36399841    0.95999998    2.71000004
   17.72777748  114.21299744    0.98000002    2.71000004
   17.73111153  105.75800323    0.95999998    2.71000004
   17.73194504  104.77300262    0.95999998    2.71000004
   17.73750114  104.77300262    0.94000000    2.69000006
   17.74166679  106.92400360    0.94000000    2.71000004
   17.74472237  104.86900330    0.94000000    2.69000006
   17.74805641  110.40000153    0.94000000    2.71000004
   17.75138855  107.87300110    0.92000002    2.71000004
   17.75444412  118.44100189    0.94000000    2.71000004
   17.75777817  109.37899780    0.92000002    2.71000004
   17.76083374  108.27799988    0.92000002    2.71000004
   17.76416588  105.67400360    0.89999998    2.71000004
   17.76527786  104.22899628    0.92000002    2.71000004
   17.76777840  108.49099731    0.92000002    2.71000004
   17.77111053  113.52400208    0.92000002    2.71000004
   17.77416611  109.38099670    0.92000002    2.71000004
   17.78027725  109.38099670    0.92000002    2.71000004
   17.78444481  106.56900024    0.92000002    2.71000004
   17.78777695  111.36699677    0.92000002    2.71000004
   17.79083252  104.06800079    0.92000002    2.71000004
   17.79416656  114.76300049    0.92000002    2.69000006
   17.79722214  109.11900330    0.94000000    2.71000004
   17.79861069  109.32199860    0.94000000    2.71000004
   17.80083275  113.51000214    0.92000002    2.69000006
   17.80416679  103.58399963    0.92000002    2.69000006
   17.80722237  100.92600250    0.92000002    2.69000006
   17.81055450  116.65200043    0.92000002    2.71000004
   17.81388855  104.27799988    0.95999998    2.71000004
   17.81694603  107.56099701    0.95999998    2.69000006
   17.82305717  107.56099701    0.95999998    2.69000006
   17.82722282  109.48899841    0.95999998    2.69000006
   17.83055687  114.34600067    0.95999998    2.69000006
   17.83194542  112.49099731    0.95999998    2.69000006
   17.83416748  103.65100098    0.98000002    2.69000006
   17.83750153  103.51100159    0.98000002    2.69000006
   17.84083366  112.62699890    1.01999998    2.69000006
   17.84388924  105.02200317    1.01999998    2.69000006
   17.84722328  104.06600189    1.03999996    2.71000004
   17.85055542  103.24199677    1.03999996    2.69000006
   17.85361099  104.95099640    1.07000005    2.69000006
   17.85694504  103.38999939    1.07000005    2.69000006
   17.86000061  104.17099762    1.09000003    2.71000004
   17.86611176  104.17099762    1.03999996    2.69000006
   17.87000084  104.21700287    1.01999998    2.69000006
   17.87333298  108.20800018    1.00000000    2.71000004
   17.87666702  105.15200043    0.98000002    2.69000006
   17.87972260  104.76999664    0.98000002    2.71000004
   17.88305473  109.12899780    0.98000002    2.71000004
   17.88638878  115.18900299    0.98000002    2.71000004
   17.88944435  111.61599731    0.98000002    2.71000004
   17.89277840  104.58599854    0.95999998    2.69000006
   17.89611053  107.03399658    0.95999998    2.69000006
   17.89861107  113.57700348    1.00000000    2.69000006
   17.89972115  103.07199860    1.00000000    2.69000006
   17.90305519  110.45300293    1.00000000    2.69000006
   17.90888786  110.45300293    0.94000000    2.69000006
   17.91305542  105.34799957    0.94000000    2.69000006
   17.91611099  110.12000275    0.94000000    2.71000004
   17.91944313  113.12500000    0.94000000    2.69000006
   17.92277718  105.19799805    0.95999998    2.69000006
   17.92583275  114.88600159    0.95999998    2.71000004
   17.92916679  116.04699707    0.95999998    2.69000006
   17.93194389  107.77200317    0.98000002    2.69000006
   17.93277740  106.97599792    0.98000002    2.69000006
   17.93610954  116.40399933    0.98000002    2.69000006
   17.93944359  111.66799927    0.98000002    2.69000006
   17.94249916  104.01899719    1.00000000    2.69000006
   17.94583321  107.81500244    0.98000002    2.69000006
   17.95166779  107.81500244    0.98000002    2.71000004
   17.95583344  110.96700287    0.95999998    2.71000004
   17.95916748  108.35600281    0.95999998    2.69000006
   17.96222305  106.39499664    0.98000002    2.69000006
   17.96527863  112.97200012    0.98000002    2.69000006
   17.96583366  107.08399963    1.05999994    2.69000006
   17.96916771  104.10600281    0.98000002    2.71000004
   17.97249985  102.34400177    0.98000002    2.69000006
   17.97555542  110.13500214    0.98000002    2.69000006
   17.97888947  108.76999664    1.00000000    2.69000006
   17.98194504  105.84899902    1.03999996    2.71000004
   17.98527718  103.23500061    1.05999994    2.71000004
   17.98861122  100.76899719    1.01999998    2.71000004
   17.99444389  100.76899719    1.01999998    2.69000006
   17.99861145  102.35199738    1.00000000    2.69000006
   18.00194359  113.49299622    1.01999998    2.69000006
   18.00499916  111.55400085    1.01999998    2.69000006
   18.00833321  106.72299957    1.01999998    2.69000006
   18.01166725  113.65899658    1.01999998    2.69000006
   18.01472282  114.00199890    1.03999996    2.69000006
   18.01805496  113.94799805    1.03999996    2.67000008
   18.02138901  103.60700226    1.03999996    2.69000006
   18.02444458  113.64700317    1.03999996    2.69000006
   18.02777672  114.82099915    1.01999998    2.69000006
   18.03111076  106.99099731    1.03999996    2.69000006
   18.03194427  107.19599915    1.03999996    2.69000006
   18.03722191  107.19599915    1.03999996    2.69000006
   18.04138756  110.11199951    1.03999996    2.69000006
   18.04472160  113.24600220    1.03999996    2.69000006
   18.04805565  119.73999786    1.03999996    2.71000004
   18.06555557  115.01999664    1.05999994    2.69000006
   18.06805611  106.51399994    1.05999994    2.69000006
   18.07111168  112.56099701    1.05999994    2.69000006
   18.07444572  119.16300201    1.07000005    2.67000008
   18.08027840  119.16300201    1.07000005    2.69000006
   18.08444595  106.38400269    1.07000005    2.67000008
   18.08777809  112.57399750    1.07000005    2.69000006
   18.09111214  112.10199738    1.07000005    2.69000006
   18.09416771  110.37899780    1.07000005    2.71000004
   18.09749985  115.16000366    1.09000003    2.69000006
   18.09889030  111.41300201    1.09000003    2.67000008
   18.10111237  108.41400146    1.09000003    2.69000006
   18.10444450  110.40699768    1.09000003    2.69000006
   18.10777855  119.31199646    1.07000005    2.69000006
   18.11083412  116.18399811    1.07000005    2.69000006
   18.11416626  109.10299683    1.09000003    2.69000006
   18.11750031  108.04499817    1.07000005    2.67000008
   18.12333298  108.04499817    1.07000005    2.69000006
   18.12750053  111.83599854    1.07000005    2.66000009
   18.13055611  108.94999695    1.07000005    2.67000008
   18.13222313  107.64900208    1.07000005    2.67000008
   18.13416672  111.20899963    1.07000005    2.67000008
   18.13750076  117.33799744    1.07000005    2.69000006
   18.14083290  113.08000183    1.07000005    2.69000006
   18.14388847  109.95400238    1.07000005    2.69000006
   18.14722252  109.70600128    1.07000005    2.69000006
   18.15055466  109.68599701    1.05999994    2.67000008
   18.15361023  112.28900146    1.07000005    2.67000008
   18.15694427  110.26699829    1.07000005    2.69000006
   18.16027832  118.38400269    1.05999994    2.69000006
   18.16611099  118.38400269    1.05999994    2.67000008
   18.17027664  128.44599915    1.05999994    2.67000008
   18.17333221  125.00099945    1.05999994    2.67000008
   18.17666626  122.72399902    1.07000005    2.69000006
   18.18000031  123.18900299    1.07000005    2.69000006
   18.18305397  111.47399902    1.07000005    2.67000008
   18.18638802  116.56800079    1.07000005    2.67000008
   18.18972206  130.89900208    1.09000003    2.67000008
   18.19305420  132.42700195    1.07000005    2.67000008
   18.19610977  112.30999756    1.07000005    2.67000008
   18.19888878  109.63500214    1.07000005    2.67000008
   18.19972038  122.02700043    1.07000005    2.67000008
   18.20305634  122.96099854    1.09000003    2.69000006
   18.20888901  122.96099854    1.09000003    2.67000008
   18.21305656  116.18499756    1.09000003    2.69000006
   18.21638870  112.57599640    1.11000001    2.69000006
   18.21972275  116.50000000    1.11000001    2.69000006
   18.22277832  115.00099945    1.11000001    2.67000008
   18.22611237  114.48100281    1.11000001    2.67000008
   18.22916794  115.38600159    1.13000000    2.67000008
   18.23222351  120.98300171    1.13000000    2.67000008
   18.23277855  115.31800079    1.13000000    2.67000008
   18.23611069  117.05400085    1.13000000    2.67000008
   18.23944473  109.80599976    1.14999998    2.67000008
   18.24250031  122.39399719    1.13000000    2.67000008
   18.24583435  115.62799835    1.13000000    2.67000008
   18.25166702  115.62799835    1.13000000    2.66000009
   18.25583267  117.79000092    1.13000000    2.67000008
   18.25916672  116.59100342    1.16999996    2.66000009
   18.26250076  107.53399658    1.16999996    2.67000008
   18.26555634  110.46800232    1.16999996    2.67000008
   18.26611137  119.40499878    1.16999996    2.67000008
   18.26916695  117.49500275    1.16999996    2.67000008
   18.27249908  123.26499939    1.16999996    2.67000008
   18.27555466  111.40499878    1.16999996    2.69000006
   18.27888870  118.69300079    1.19000006    2.67000008
   18.28222275  113.00199890    1.21000004    2.67000008
   18.28527641  108.36100006    1.19000006    2.67000008
   18.28861046  114.18599701    1.16999996    2.66000009
   18.29472160  114.18599701    1.16999996    2.66000009
   18.29888916  112.24800110    1.14999998    2.67000008
   18.29916573  106.59799957    1.14999998    2.67000008
   18.30249977  117.83999634    1.14999998    2.67000008
   18.30583191  118.13600159    1.16999996    2.67000008
   18.30888748  119.83899689    1.19000006    2.67000008
   18.31222153  107.87699890    1.19000006    2.67000008
   18.31555557  114.44000244    1.19000006    2.67000008
   18.31861115  117.80899811    1.19000006    2.67000008
   18.32194519  112.48699951    1.19000006    2.67000008
   18.32527924  116.49299622    1.21000004    2.66000009
   18.32833481  109.67700195    1.23000002    2.67000008
   18.33166695  106.11699677    1.23000002    2.66000009
   18.33222389  103.19899750    1.23000002    2.66000009
   18.33750153  103.19899750    1.25000000    2.67000008
   18.34166718  109.41500092    1.25000000    2.66000009
   18.34472275  115.57599640    1.25000000    2.66000009
   18.34805679  108.61399841    1.25000000    2.67000008
   18.35138893  115.48000336    1.25000000    2.67000008
   18.35444450  112.10900116    1.23000002    2.67000008
   18.35777855  114.79799652    1.23000002    2.67000008
   18.36111069  110.23500061    1.23000002    2.67000008
   18.36416626  108.98699951    1.25000000    2.66000009
   18.36555672  124.36299896    1.25000000    2.66000009
   18.36805534  112.84400177    1.25000000    2.67000008
   18.37111092  114.72200012    1.25000000    2.67000008
   18.37444496  113.65699768    1.26999998    2.66000009
   18.38027763  113.65699768    1.25000000    2.67000008
   18.38444519  118.50800323    1.23000002    2.67000008
   18.38777733  116.71499634    1.21000004    2.66000009
   18.39083290  113.28700256    1.21000004    2.67000008
   18.39416695  110.43099976    1.21000004    2.67000008
   18.39749908  110.48100281    1.21000004    2.66000009
   18.39888954  114.67199707    1.21000004    2.67000008
   18.40111160  113.57599640    1.21000004    2.67000008
   18.40416718  104.75399780    1.21000004    2.67000008
   18.40749931  115.94599915    1.21000004    2.67000008
   18.41083336  112.35199738    1.19000006    2.67000008
   18.41388893  110.81300354    1.19000006    2.67000008
   18.41722107  107.62999725    1.21000004    2.67000008
   18.42305565  107.62999725    1.19000006    2.67000008
   18.42722130  113.86399841    1.21000004    2.66000009
   18.43055534  118.41899872    1.21000004    2.66000009
   18.43222237  116.95500183    1.21000004    2.66000009
   18.43416595  112.76200104    1.19000006    2.66000009
   18.43750000  115.70700073    1.19000006    2.67000008
   18.44055557  114.16000366    1.21000004    2.67000008
   18.44388771  112.62999725    1.21000004    2.67000008
   18.44722176  117.08300018    1.21000004    2.67000008
   18.45027924  111.98000336    1.21000004    2.67000008
   18.45361137  118.35800171    1.21000004    2.67000008
   18.45694542  114.21900177    1.16999996    2.66000009
   18.46000099  113.82499695    1.14999998    2.67000008
   18.46611214  113.82499695    1.16999996    2.66000009
   18.47027779  114.18499756    1.19000006    2.66000009
   18.47333336  114.64700317    1.19000006    2.67000008
   18.47666740  120.23699951    1.21000004    2.66000009
   18.48000145  111.07499695    1.21000004    2.66000009
   18.48333359  119.51699829    1.23000002    2.66000009
   18.48638916  120.82499695    1.25000000    2.66000009
   18.48972321  119.97100067    1.25000000    2.66000009
   18.49305534  110.93599701    1.25000000    2.66000009
   18.49611092  109.57900238    1.23000002    2.66000009
   18.49888992  113.01200104    1.23000002    2.66000009
   18.50000000  117.26599884    1.23000002    2.66000009
   18.50305557  121.00199890    1.25000000    2.67000008
   18.50888824  121.00199890    1.25000000    2.66000009
   18.51305580  121.17400360    1.25000000    2.66000009
   18.51611137  117.65699768    1.25000000    2.66000009
   18.51944351  118.76100159    1.25000000    2.66000009
   18.52277756  122.76000214    1.25000000    2.67000008
   18.52583313  117.94499969    1.26999998    2.66000009
   18.52916718  123.23500061    1.25000000    2.66000009
   18.53222275  122.27799988    1.26999998    2.66000009
   18.53277779  118.76000214    1.26999998    2.66000009
   18.53583336  114.23100281    1.26999998    2.66000009
   18.53916550  117.18499756    1.26999998    2.66000009
   18.54249954  123.56300354    1.26999998    2.66000009
   18.54555511  113.91500092    1.25000000    2.66000009
   18.55166626  113.91500092    1.25000000    2.66000009
   18.55583191  118.37500000    1.25000000    2.66000009
   18.55916595  113.84500122    1.25000000    2.66000009
   18.56222153  110.40399933    1.26999998    2.66000009
   18.56555557  115.19499969    1.26999998    2.66000009
   18.56611061  114.40399933    1.26999998    2.66000009
   18.56916809  113.40699768    1.26999998    2.66000009
   18.57250023  111.88999939    1.28999996    2.66000009
   18.57555580  111.65499878    1.30999994    2.66000009
   18.57888985  111.25499725    1.30999994    2.66000009
   18.58222389  112.40799713    1.30999994    2.66000009
   18.58527756  112.67800140    1.30999994    2.66000009
   18.58861160  109.04000092    1.30999994    2.66000009
   18.59444427  109.04000092    1.28999996    2.66000009
   18.59861183  116.01899719    1.28999996    2.66000009
   18.59916687  117.40899658    1.28999996    2.66000009
   18.60250092  121.56199646    1.26999998    2.66000009
   18.60555649  113.15100098    1.26999998    2.66000009
   18.60888863  125.63300323    1.26999998    2.64000010
   18.61222267  120.74199677    1.26999998    2.64000010
   18.61527824  124.66000366    1.25000000    2.64000010
   18.61861038  113.61000061    1.26999998    2.64000010
   18.62194443  114.68299866    1.26999998    2.64000010
   18.62500000  116.17099762    1.26999998    2.64000010
   18.62833405  111.95600128    1.26999998    2.66000009
   18.63166618  117.85900116    1.26999998    2.64000010
   18.63249969  115.79100037    1.26999998    2.64000010
   18.63750076  115.79100037    1.28999996    2.66000009
   18.64138794  115.28099823    1.28999996    2.66000009
   18.64472198  114.03800201    1.28999996    2.66000009
   18.64805603  113.53399658    1.28999996    2.66000009
   18.65111160  114.15799713    1.28999996    2.64000010
   18.65444374  115.17500305    1.28999996    2.66000009
   18.65777779  113.65299988    1.28999996    2.66000009
   18.66083336  116.60299683    1.28999996    2.66000009
   18.66416550  119.36499786    1.28999996    2.66000009
   18.66583252  117.52200317    1.28999996    2.66000009
   18.66777802  112.05599976    1.30999994    2.64000010
   18.67083359  118.76799774    1.33000004    2.64000010
   18.67416573  122.95800018    1.33000004    2.64000010
   18.68027687  122.95800018    1.33000004    2.66000009
   18.68444443  115.05100250    1.33000004    2.66000009
   18.68750000  114.20200348    1.34000003    2.64000010
   18.69083214  115.94300079    1.36000001    2.64000010
   18.69416618  112.02200317    1.33000004    2.64000010
   18.69722176  121.19300079    1.33000004    2.64000010
   18.69916534  116.19899750    1.33000004    2.64000010
   18.70083427  112.56500244    1.33000004    2.64000010
   18.70388985  122.35900116    1.33000004    2.64000010
   18.70722389  110.55400085    1.34000003    2.64000010
   18.71055603  113.69000244    1.34000003    2.64000010
   18.71361160  113.31900024    1.34000003    2.66000009
   18.71694565  118.39700317    1.34000003    2.66000009
   18.72305679  118.39700317    1.30999994    2.64000010
   18.72722244  114.92900085    1.30999994    2.64000010
   18.73055649  125.28600311    1.28999996    2.64000010
   18.73250008  115.71700287    1.28999996    2.64000010
   18.73416710  121.87200165    1.28999996    2.64000010
   18.73750114  119.17800140    1.30999994    2.64000010
   18.74055672  111.64399719    1.28999996    2.64000010
   18.74388885  124.58200073    1.28999996    2.66000009
   18.74722290  116.96900177    1.30999994    2.64000010
   18.75027847  118.75800323    1.30999994    2.64000010
   18.75361061  116.53900146    1.30999994    2.64000010
   18.75694466  119.61599731    1.30999994    2.64000010
   18.76000023  119.50099945    1.30999994    2.64000010
   18.76583290  119.50099945    1.30999994    2.64000010
   18.77000046  116.53099823    1.30999994    2.61999989
   18.77333260  117.97899628    1.33000004    2.64000010
   18.77638817  119.66500092    1.34000003    2.64000010
   18.77972221  123.59899902    1.34000003    2.64000010
   18.78305435  114.46800232    1.33000004    2.64000010
   18.78610992  113.69899750    1.34000003    2.64000010
   18.78944397  121.35600281    1.34000003    2.64000010
   18.79277802  117.76200104    1.34000003    2.64000010
   18.79583359  125.79499817    1.36000001    2.64000010
   18.79916573  117.45300293    1.38000000    2.64000010
   18.79972076  114.38700104    1.38000000    2.61999989
   18.80277634  116.51100159    1.38000000    2.61999989
   18.80888748  116.51100159    1.36000001    2.64000010
   18.81277657  113.07800293    1.36000001    2.61999989
   18.81611061  115.05100250    1.36000001    2.61999989
   18.81944466  116.93000031    1.38000000    2.64000010
   18.82250023  120.27100372    1.38000000    2.61999989
   18.82583427  114.20899963    1.36000001    2.61999989
   18.82916832  122.09899902    1.38000000    2.64000010
   18.83222389  117.12400055    1.38000000    2.64000010
   18.83305550  119.46399689    1.38000000    2.64000010
   18.83583450  117.24800110    1.38000000    2.64000010
   18.83916664  115.30699921    1.38000000    2.61999989
   18.84250069  119.14199829    1.39999998    2.64000010
   18.84555626  114.16400146    1.41999996    2.61999989
   18.85166740  114.16400146    1.41999996    2.61999989
   18.85583305  119.30999756    1.41999996    2.61999989
   18.85888863  117.51000214    1.39999998    2.64000010
   18.86222267  113.39900208    1.39999998    2.61999989
   18.86527824  116.71499634    1.41999996    2.61999989
   18.86638832  119.77500153    1.41999996    2.61999989
   18.86888885  117.79699707    1.41999996    2.61999989
   18.87222290  122.15299988    1.44000006    2.64000010
   18.87555504  125.19799805    1.46000004    2.61999989
   18.87861061  119.11000061    1.44000006    2.61999989
   18.88194466  119.87799835    1.46000004    2.61999989
   18.88527679  128.70100403    1.44000006    2.61999989
   18.88833237  116.71800232    1.46000004    2.61999989
   18.89444351  116.71800232    1.44000006    2.61999989
   18.89861107  125.45300293    1.46000004    2.61999989
   18.89972115  122.14299774    1.46000004    2.64000010
   18.90250015  113.38899994    1.46000004    2.64000010
   18.90555573  120.72299957    1.46000004    2.64000010
   18.90888786  118.72699738    1.46000004    2.61999989
   18.91194344  117.16899872    1.46000004    2.61999989
   18.91527748  118.79199982    1.48000002    2.61999989
   18.91860962  111.34999847    1.48000002    2.61999989
   18.92194366  124.25099945    1.48000002    2.61999989
   18.92499924  111.68199921    1.48000002    2.64000010
   18.92833328  125.81600189    1.46000004    2.61999989
   18.93138885  115.25099945    1.46000004    2.61999989
   18.93305397  116.27899933    1.46000004    2.61999989
   18.93722153  116.27899933    1.46000004    2.61999989
   18.94138718  126.90000153    1.44000006    2.61999989
   18.94472122  126.10500336    1.44000006    2.61999989
   18.94777679  122.93399811    1.44000006    2.61999989
   18.95111275  115.88999939    1.44000006    2.59999990
   18.95444489  120.67800140    1.44000006    2.61999989
   18.95750046  112.32599640    1.44000006    2.61999989
   18.96083450  115.23899841    1.44000006    2.61999989
   18.96416664  123.87300110    1.46000004    2.61999989
   18.96638870  117.90799713    1.46000004    2.61999989
   18.96777916  129.48100281    1.46000004    2.61999989
   18.97111130  126.51300049    1.46000004    2.61999989
   18.97416687  115.01999664    1.44000006    2.59999990
   18.98027802  115.01999664    1.44000006    2.61999989
   18.98416710  116.78399658    1.44000006    2.61999989
   18.98750114  115.06999969    1.44000006    2.61999989
   18.99083328  121.56199646    1.46000004    2.61999989
   18.99388885  116.55999756    1.44000006    2.59999990
   18.99722290  128.46099854    1.44000006    2.59999990
   18.99972153  121.86000061    1.44000006    2.61999989
   19.00083351  121.05899811    1.44000006    2.61999989
   19.00416756  124.46700287    1.41999996    2.61999989
   19.00749969  121.64099884    1.41999996    2.59999990
   19.01055527  121.78099823    1.41999996    2.61999989
   19.01388931  128.17900085    1.41999996    2.61999989
   19.01722145  119.08200073    1.41999996    2.61999989
   19.02305603  119.08200073    1.44000006    2.61999989
   19.02722168  134.12600708    1.44000006    2.59999990
   19.03027725  124.93499756    1.44000006    2.61999989
   19.03305435  125.75299835    1.46000004    2.61999989
   19.03388786  125.41600037    1.46000004    2.61999989
   19.03722191  137.37600708    1.46000004    2.59999990
   19.04055595  119.39600372    1.46000004    2.59999990
   19.04361153  124.88800049    1.46000004    2.61999989
   19.04694366  126.60500336    1.48000002    2.59999990
   19.05027771  120.32199860    1.48000002    2.59999990
   19.05333328  123.41200256    1.48000002    2.59999990
   19.05666542  123.87899780    1.48000002    2.59999990
   19.05999947  127.26399994    1.50000000    2.59999990
   19.06583214  127.26399994    1.50000000    2.59999990
   19.08416748  119.19400024    1.51999998    2.57999992
   19.08750153  121.60199738    1.51999998    2.59999990
   19.09055710  114.67099762    1.51999998    2.59999990
   19.09388924  128.99899292    1.53999996    2.59999990
   19.09722328  130.82400513    1.55999994    2.59999990
   19.10027885  118.58899689    1.55999994    2.59999990
   19.10361099  125.37400055    1.55999994    2.59999990
   19.10861206  125.37400055    1.55999994    2.59999990
   19.11277771  123.42400360    1.58000004    2.59999990
   19.11611176  129.43499756    1.58000004    2.59999990
   19.11722183  130.02499390    1.58000004    2.59999990
   19.11972237  116.54799652    1.58000004    2.59999990
   19.12305641  122.03500366    1.58000004    2.59999990
   19.12611198  139.06500244    1.58000004    2.59999990
   19.12944412  116.71399689    1.60000002    2.59999990
   19.13249969  121.61900330    1.58000004    2.57999992
   19.13583374  110.92299652    1.58000004    2.57999992
   19.13916588  114.62100220    1.58000004    2.57999992
   19.14222145  124.93699646    1.58000004    2.57999992
   19.14555550  112.27100372    1.55999994    2.57999992
   19.15166664  112.27100372    1.55999994    2.59999990
   19.15555573  112.95500183    1.53999996    2.57999992
   19.15888786  122.58000183    1.55999994    2.57999992
   19.16222191  117.78700256    1.53999996    2.57999992
   19.16527748  117.00800323    1.55999994    2.57999992
   19.16860962  112.29199982    1.53999996    2.57999992
   19.17194366  116.73200226    1.55999994    2.57999992
   19.17499924  117.15699768    1.55999994    2.59999990
   19.17833328  121.12100220    1.55999994    2.59999990
   19.18138885  116.95400238    1.55999994    2.59999990
   19.18388748  118.98600006    1.53999996    2.59999990
   19.18527603  119.97499847    1.53999996    2.59999990
   19.18861008  121.61499786    1.55999994    2.57999992
   19.19444275  121.61499786    1.55999994    2.59999990
   19.19861031  124.17700195    1.55999994    2.57999992
   19.20166779  124.65100098    1.55999994    2.57999992
   19.20499992  114.18399811    1.55999994    2.57999992
   19.20833397  126.53700256    1.55999994    2.57999992
   19.21138954  130.14100647    1.55999994    2.57999992
   19.21472359  120.04799652    1.53999996    2.57999992
   19.21722221  127.11900330    1.53999996    2.57999992
   19.21833420  142.27099609    1.53999996    2.57999992
   19.22166634  127.73699951    1.53999996    2.57999992
   19.22472191  129.35400391    1.53999996    2.57999992
   19.22805595  120.48600006    1.55999994    2.57999992
   19.23139000  131.05099487    1.55999994    2.57999992
   19.23722267  131.05099487    1.58000004    2.57999992
   19.24138832  118.96299744    1.58000004    2.57999992
   19.24472237  118.14499664    1.60000002    2.57999992
   19.24777794  130.80299377    1.60000002    2.55999994
   19.25055504  123.15100098    1.58000004    2.57999992
   19.25138855  120.79000092    1.58000004    2.57999992
   19.25472260  123.48400116    1.58000004    2.57999992
   19.25777817  119.96700287    1.55999994    2.57999992
   19.26111031  124.82499695    1.55999994    2.57999992
   19.26444435  131.42799377    1.55999994    2.57999992
   19.26749992  133.91799927    1.55999994    2.57999992
   19.27083397  124.55100250    1.55999994    2.57999992
   19.27416611  139.54299927    1.55999994    2.57999992
   19.28000069  139.54299927    1.60000002    2.55999994
   19.28416634  125.82399750    1.61000001    2.57999992
   19.28750038  137.56599426    1.61000001    2.57999992
   19.29055595  120.41500092    1.61000001    2.55999994
   19.29388809  128.69700623    1.60000002    2.55999994
   19.29722214  131.08599854    1.61000001    2.57999992
   19.30027771  124.74400330    1.61000001    2.57999992
   19.30360985  123.91000366    1.63000000    2.55999994
   19.30694389  128.02799988    1.63000000    2.55999994
   19.30999947  138.17300415    1.63000000    2.55999994
   19.31333351  125.51999664    1.64999998    2.55999994
   19.31638718  127.52899933    1.64999998    2.55999994
   19.31722260  129.77099609    1.64999998    2.55999994
   19.32305717  129.77099609    1.64999998    2.55999994
   19.32694626  128.49899292    1.64999998    2.55999994
   19.33027840  137.69500732    1.64999998    2.55999994
   19.33361244  128.47700500    1.66999996    2.55999994
   19.33666801  136.50700378    1.66999996    2.55999994
   19.34000015  129.38900757    1.64999998    2.55999994
   19.34333420  127.97200012    1.64999998    2.55999994
   19.34638977  141.39900208    1.64999998    2.55999994
   19.34972191  131.71499634    1.64999998    2.55999994
   19.35055542  124.90799713    1.64999998    2.55999994
   19.35333443  135.08200073    1.64999998    2.55999994
   19.35666656  130.52799988    1.64999998    2.55999994
   19.35972214  124.18599701    1.64999998    2.55999994
   19.36583328  124.18599701    1.64999998    2.55999994
   19.37000084  128.56599426    1.64999998    2.55999994
   19.37305641  120.86499786    1.64999998    2.55999994
   19.37638855  124.67600250    1.64999998    2.53999996
   19.37944412  132.03300476    1.64999998    2.55999994
   19.38277817  134.85299683    1.64999998    2.55999994
   19.38388824  127.88700104    1.64999998    2.55999994
   19.38638878  137.47000122    1.64999998    2.55999994
   19.38972282  129.26199341    1.64999998    2.55999994
   19.39277840  130.00700378    1.66999996    2.53999996
   19.39611053  120.80500031    1.66999996    2.53999996
   19.39944458  117.26100159    1.66999996    2.55999994
   19.40250015  134.07000732    1.66999996    2.53999996
   19.40861130  134.07000732    1.64999998    2.55999994
   19.41277695  136.79200745    1.64999998    2.53999996
   19.41611099  127.85500336    1.64999998    2.55999994
   19.41722107  138.63699341    1.64999998    2.55999994
   19.41972160  132.27099609    1.63000000    2.55999994
   19.42305565  136.73500061    1.63000000    2.55999994
   19.42611122  135.69700623    1.63000000    2.55999994
   19.42944336  136.02699280    1.63000000    2.53999996
   19.43277740  131.32000732    1.61000001    2.53999996
   19.43583298  140.05999756    1.61000001    2.53999996
   19.43916512  129.99299622    1.61000001    2.53999996
   19.44249916  128.01199341    1.60000002    2.55999994
   19.44555473  130.61399841    1.58000004    2.53999996
   19.45138931  130.61399841    1.58000004    2.53999996
   19.45555687  128.84800720    1.60000002    2.53999996
   19.45888901  119.66600037    1.60000002    2.53999996
   19.46194458  141.46099854    1.60000002    2.55999994
   19.46527863  129.69799805    1.60000002    2.55999994
   19.46861076  131.04200745    1.60000002    2.53999996
   19.47166634  133.98800659    1.58000004    2.53999996
   19.47500038  138.71600342    1.58000004    2.53999996
   19.47833443  138.46099854    1.60000002    2.53999996
   19.48139000  141.88499451    1.60000002    2.53999996
   19.48388863  133.70799255    1.58000004    2.53999996
   19.48500061  137.46099854    1.60000002    2.53999996
   19.48833275  143.80700684    1.58000004    2.53999996
   19.49444389  143.80700684    1.60000002    2.53999996
   19.49833298  132.80900574    1.61000001    2.53999996
   19.50166702  137.46800232    1.61000001    2.51999998
   19.50499916  137.86999512    1.63000000    2.53999996
   19.50805473  133.37399292    1.61000001    2.51999998
   19.51138878  128.00399780    1.63000000    2.51999998
   19.51472282  142.69200134    1.63000000    2.51999998
   19.51722145  138.57200623    1.61000001    2.53999996
   19.51805496  141.26499939    1.61000001    2.53999996
   19.52138901  138.41000366    1.63000000    2.51999998
   19.52444458  133.66099548    1.61000001    2.53999996
   19.52777672  148.61300659    1.60000002    2.53999996
   19.53111076  146.85800171    1.61000001    2.53999996
   19.53722191  146.85800171    1.60000002    2.53999996
   19.54138756  138.07499695    1.60000002    2.51999998
   19.54444313  134.43499756    1.60000002    2.51999998
   19.54777718  130.64100647    1.58000004    2.53999996
   19.55083275  135.30000305    1.60000002    2.51999998
   19.55138779  139.61900330    1.60000002    2.51999998
   19.55472183  129.20100403    1.60000002    2.53999996
   19.55777740  131.81300354    1.60000002    2.51999998
   19.56110954  125.68499756    1.63000000    2.51999998
   19.56444359  116.53099823    1.61000001    2.51999998
   19.56750107  122.44100189    1.63000000    2.51999998
   19.57083511  113.30899811    1.63000000    2.51999998
   19.57416725  120.01699829    1.64999998    2.51999998
   19.58000183  120.01699829    1.64999998    2.51999998
   19.58416748  124.66000366    1.64999998    2.51999998
   19.58750153  120.55200195    1.66999996    2.51999998
   19.59055710  132.79299927    1.66999996    2.51999998
   19.59388924  127.58100128    1.66999996    2.51999998
   19.59694481  128.86399841    1.66999996    2.51999998
   19.60027885  127.18900299    1.66999996    2.50000000
   19.60361099  124.81999969    1.66999996    2.50000000
   19.60666656  133.69099426    1.66999996    2.51999998
   19.61000061  151.69799805    1.69000006    2.51999998
   19.61333466  151.94599915    1.69000006    2.51999998
   19.61638832  161.16700745    1.69000006    2.50000000
   19.61750031  172.54499817    1.69000006    2.50000000
   19.62277794  172.54499817    1.71000004    2.50000000
   19.62694550  224.65400696    1.71000004    2.50000000
   19.63027763  222.39900208    1.73000002    2.51999998
   19.63333321  241.20500183    1.75000000    2.51999998
   19.63666725  363.66900635    1.75000000    2.50000000
   19.63999939  109.39499664    1.75000000    2.50000000
   19.64305496   -1.00000000    1.76999998    2.50000000
   19.64638901   -1.00000000    1.76999998    2.50000000
   19.64944458   -1.00000000    1.78999996    2.50000000
   19.65305519   -1.00000000    1.78999996    2.50000000
   19.65611076   -1.00000000    1.78999996    2.50000000
   19.65944481   -1.00000000    1.80999994    2.50000000
   19.66972160   -1.00000000    1.80999994    2.50000000
   19.67305565   -1.00000000    1.83000004    2.50000000
   19.67611122   -1.00000000    1.83000004    2.51999998
   19.67944336   -1.00000000    1.83000004    2.51999998
   19.68249893   -1.00000000    1.83000004    2.50000000
   19.68610954   -1.00000000    1.83000004    2.50000000
   19.68916512   -1.00000000    1.85000002    2.50000000
   19.69249916   -1.00000000    1.85000002    2.50000000
   19.69583321   -1.00000000    1.83000004    2.50000000
   19.69888878   -1.00000000    1.83000004    2.50000000
   19.70222282   -1.00000000    1.83000004    2.50000000
   19.71250153   -1.00000000    1.78999996    2.48000002
   19.71583366   -1.00000000    1.78999996    2.48000002
   19.71944427   -1.00000000    1.76999998    2.50000000
   19.72249985   -1.00000000    1.78999996    2.48000002
   19.72583389   -1.00000000    1.78999996    2.50000000
   19.72916794   -1.00000000    1.78999996    2.48000002
   19.73222351   -1.00000000    1.76999998    2.48000002
   19.73555565   -1.00000000    1.75000000    2.48000002
   19.73888969   -1.00000000    1.75000000    2.48000002
   19.74222183   -1.00000000    1.75000000    2.50000000
   19.74527740   -1.00000000    1.75000000    2.50000000
   19.75527763   -1.00000000    1.75000000    2.48000002
   19.75861168   -1.00000000    1.75000000    2.48000002
   19.76194382   -1.00000000    1.75000000    2.48000002
   19.76499939   -1.00000000    1.76999998    2.46000004
   19.76833344   -1.00000000    1.76999998    2.46000004
   19.77166557   -1.00000000    1.76999998    2.48000002
   19.77472115   -1.00000000    1.76999998    2.48000002
   19.77805519   -1.00000000    1.78999996    2.48000002
   19.78111076   -1.00000000    1.78999996    2.48000002
   19.78472137   -1.00000000    1.80999994    2.46000004
   19.78777695   -1.00000000    1.80999994    2.48000002
   19.79833221   -1.00000000    1.83000004    2.48000002
   19.80138779   -1.00000000    1.83000004    2.46000004
   19.80472183   -1.00000000    1.85000002    2.48000002
   19.80805397   -1.00000000    1.85000002    2.48000002
   19.81110954   -1.00000000    1.85000002    2.48000002
   19.81444359   -1.00000000    1.85000002    2.46000004
   19.81805611   -1.00000000    1.85000002    2.46000004
   19.82111168   -1.00000000    1.86000001    2.46000004
   19.82444572   -1.00000000    1.86000001    2.46000004
   19.82777786   -1.00000000    1.86000001    2.46000004
   19.83083344   -1.00000000    1.86000001    2.46000004
   19.84111214   -1.00000000    1.86000001    2.46000004
   19.84444427   -1.00000000    1.86000001    2.46000004
   19.84749985   -1.00000000    1.86000001    2.46000004
   19.85111237   -1.00000000    1.88000000    2.46000004
   19.85416794   -1.00000000    1.88000000    2.46000004
   19.85750008   -1.00000000    1.88000000    2.46000004
   19.86083412   -1.00000000    1.88000000    2.46000004
   19.86388969   -1.00000000    1.88000000    2.46000004
   19.86722183   -1.00000000    1.88000000    2.46000004
   19.87055588   -1.00000000    1.88000000    2.46000004
   19.87361145   -1.00000000    1.88000000    2.46000004
   19.88388824   -1.00000000    1.88000000    2.46000004
   19.88750076   -1.00000000    1.88000000    2.46000004
   19.89083290   -1.00000000    1.89999998    2.46000004
   19.89416695   -1.00000000    1.89999998    2.46000004
   19.89722252   -1.00000000    1.89999998    2.46000004
   19.90083313   -1.00000000    1.89999998    2.46000004
   19.90388870   -1.00000000    1.89999998    2.46000004
   19.90722275   -1.00000000    1.89999998    2.46000004
   19.91027832   -1.00000000    1.89999998    2.46000004
   19.91361046   -1.00000000    1.89999998    2.44000006
   19.91694450   -1.00000000    1.89999998    2.46000004
   19.92666626   -1.00000000    1.91999996    2.44000006
   19.93000031   -1.00000000    1.94000006    2.44000006
   19.93333244   -1.00000000    1.96000004    2.44000006
   19.93638802   -1.00000000    1.96000004    2.44000006
   19.93972206   -1.00000000    1.96000004    2.44000006
   19.94305420   -1.00000000    1.96000004    2.44000006
   19.94610977   -1.00000000    1.96000004    2.44000006
   19.94944382   -1.00000000    1.96000004    2.44000006
   19.95277786   -1.00000000    1.96000004    2.44000006
   19.95611191   -1.00000000    1.96000004    2.42000008
   19.95944595   -1.00000000    1.96000004    2.42000008
   19.96972275   -1.00000000    1.98000002    2.42000008
   19.97277832   -1.00000000    1.98000002    2.42000008
   19.97611237   -1.00000000    2.00000000    2.42000008
   19.97916794   -1.00000000    2.01999998    2.42000008
   19.98250008   -1.00000000    2.03999996    2.42000008
   19.98583412   -1.00000000    2.03999996    2.42000008
   19.98916626   -1.00000000    2.03999996    2.42000008
   19.99250031   -1.00000000    2.05999994    2.42000008
   19.99555588   -1.00000000    2.07999992    2.42000008
   19.99888992   -1.00000000    2.07999992    2.40000010
   20.00222206   -1.00000000    2.07999992    2.42000008
   20.01250076   -1.00000000    2.09999990    2.40000010
   20.01555634   -1.00000000    2.11999989    2.40000010
   20.01916695   -1.00000000    2.11999989    2.42000008
   20.02249908   -1.00000000    2.11999989    2.42000008
   20.02583313   -1.00000000    2.11999989    2.40000010
   20.02888870   -1.00000000    2.11999989    2.40000010
   20.03222275   -1.00000000    2.09999990    2.40000010
   20.03555489   -1.00000000    2.11999989    2.40000010
   20.03861046   -1.00000000    2.11999989    2.40000010
   20.04194450   -1.00000000    2.11999989    2.40000010
   20.04500008   -1.00000000    2.11999989    2.40000010
   20.05527687   -1.00000000    2.13000011    2.40000010
   20.05861092   -1.00000000    2.13000011    2.40000010
   20.06166649   -1.00000000    2.13000011    2.40000010
   20.06499863   -1.00000000    2.13000011    2.39000010
   20.06833458   -1.00000000    2.13000011    2.40000010
   20.07139015   -1.00000000    2.13000011    2.40000010
   20.07472229   -1.00000000    2.13000011    2.40000010
   20.07805634   -1.00000000    2.13000011    2.39000010
   20.08111191   -1.00000000    2.13000011    2.39000010
   20.10055542   -1.00000000    2.17000008    2.39000010
   20.10916710   -1.00000000    2.15000010    2.39000010
   20.11250114   -1.00000000    2.15000010    2.39000010
   20.11583328   -1.00000000    2.15000010    2.39000010
   20.11888885   -1.00000000    2.15000010    2.39000010
   20.12222290   -1.00000000    2.15000010    2.39000010
   20.12527847   -1.00000000    2.15000010    2.39000010
   20.12861061   -1.00000000    2.15000010    2.39000010
   20.13194466   -1.00000000    2.17000008    2.39000010
   20.13527679   -1.00000000    2.17000008    2.39000010
   20.13861084   -1.00000000    2.19000006    2.36999989
   20.14194489   -1.00000000    2.19000006    2.36999989
   20.15222168   -1.00000000    2.23000002    2.36999989
   20.15527725   -1.00000000    2.25000000    2.36999989
   20.15861130   -1.00000000    2.25000000    2.36999989
   20.16166687   -1.00000000    2.25000000    2.36999989
   20.16499901   -1.00000000    2.25000000    2.36999989
   20.16833305   -1.00000000    2.25000000    2.36999989
   20.17166519   -1.00000000    2.26999998    2.36999989
   20.17499924   -1.00000000    2.28999996    2.36999989
   20.17805481   -1.00000000    2.39000010    2.36999989
   20.18138885   -1.00000000    2.40000010    2.34999990
   20.18472099   -1.00000000    2.51999998    2.34999990
   20.19499969   -1.00000000    2.40000010    2.34999990
   20.19805527   -1.00000000    2.46000004    2.34999990
   20.20166779   -1.00000000    2.51999998    2.34999990
   20.20499992   -1.00000000    2.51999998    2.34999990
   20.20833397   -1.00000000    2.48000002    2.34999990
   20.21138954   -1.00000000    2.44000006    2.34999990
   20.21472359   -1.00000000    2.40000010    2.34999990
   20.21805573   -1.00000000    2.39000010    2.34999990
   20.22111130   -1.00000000    2.39000010    2.34999990
   20.22444534   -1.00000000    2.39000010    2.34999990
   20.22750092   -1.00000000    2.39000010    2.32999992
   20.23777771   -1.00000000    2.39000010    2.32999992
   20.24111176   -1.00000000    2.40000010    2.32999992
   20.24416733   -1.00000000    2.40000010    2.32999992
   20.24749947   -1.00000000    2.40000010    2.32999992
   20.25083351   -1.00000000    2.42000008    2.32999992
   20.25388908   -1.00000000    2.42000008    2.32999992
   20.25722313   -1.00000000    2.44000006    2.32999992
   20.26027870   -1.00000000    2.46000004    2.32999992
   20.26361084   -1.00000000    2.46000004    2.32999992
   20.26694489   -1.00000000    2.46000004    2.32999992
   20.27055550   -1.00000000    2.48000002    2.32999992
   20.28055573   -1.00000000    2.50000000    2.30999994
   20.28388786   -1.00000000    2.51999998    2.30999994
   20.28722191   -1.00000000    2.51999998    2.30999994
   20.29027748   -1.00000000    2.53999996    2.32999992
   20.29361153   -1.00000000    2.53999996    2.30999994
   20.29666710   -1.00000000    2.55999994    2.30999994
   20.29999924   -1.00000000    2.57999992    2.30999994
   20.30360985   -1.00000000    2.59999990    2.30999994
   20.30666542   -1.00000000    2.61999989    2.30999994
   20.30999947   -1.00000000    2.64000010    2.30999994
   20.31333351   -1.00000000    2.64000010    2.28999996
   20.32361221   -1.00000000    2.69000006    2.28999996
   20.32666779   -1.00000000    2.69000006    2.30999994
   20.33000183   -1.00000000    2.73000002    2.30999994
   20.33305550   -1.00000000    2.75000000    2.30999994
   20.33666801   -1.00000000    2.75000000    2.28999996
   20.34000015   -1.00000000    2.76999998    2.28999996
   20.34333420   -1.00000000    2.76999998    2.28999996
   20.34638977   -1.00000000    2.80999994    2.28999996
   20.34972191   -1.00000000    2.82999992    2.28999996
   20.35277748   -1.00000000    2.82999992    2.28999996
   20.35611153   -1.00000000    2.80999994    2.28999996
   20.36638832   -1.00000000    2.82999992    2.28999996
   20.36972237   -1.00000000    2.82999992    2.28999996
   20.37305641   -1.00000000    2.84999990    2.26999998
   20.37638855   -1.00000000    2.82999992    2.26999998
   20.37944412   -1.00000000    2.84999990    2.26999998
   20.38277817   -1.00000000    2.86999989    2.26999998
   20.38583374   -1.00000000    2.86999989    2.26999998
   20.38916588   -1.00000000    2.86999989    2.26999998
   20.39249992   -1.00000000    2.86999989    2.26999998
   20.39555550   -1.00000000    2.84999990    2.25000000
   20.39888954   -1.00000000    2.84999990    2.26999998
   20.40916634   -1.00000000    2.84999990    2.26999998
   20.41250038   -1.00000000    2.84999990    2.26999998
   20.41555595   -1.00000000    2.84999990    2.25000000
   20.41888809   -1.00000000    2.86999989    2.25000000
   20.42222214   -1.00000000    2.84999990    2.25000000
   20.42527771   -1.00000000    2.84999990    2.25000000
   20.42860985   -1.00000000    2.84999990    2.25000000
   20.43166542   -1.00000000    2.86999989    2.25000000
   20.43499947   -1.00000000    2.86999989    2.25000000
   20.43861008   -1.00000000    2.89000010    2.25000000
   20.44194412   -1.00000000    2.91000009    2.25000000
   20.45194435   -1.00000000    2.91000009    2.23000002
   20.45527840   -1.00000000    2.89000010    2.23000002
   20.45861244   -1.00000000    2.89000010    2.23000002
   20.46166801   -1.00000000    2.89000010    2.23000002
   20.46500015   -1.00000000    2.89000010    2.23000002
   20.46805573   -1.00000000    2.89000010    2.23000002
   20.47166634   -1.00000000    2.91000009    2.25000000
   20.47500038   -1.00000000    2.93000007    2.23000002
   20.47805595   -1.00000000    2.93000007    2.23000002
   20.48139000   -1.00000000    2.94000006    2.23000002
   20.48472214   -1.00000000    2.94000006    2.23000002
   20.49500084   -1.00000000    2.91000009    2.21000004
   20.49805641   -1.00000000    2.93000007    2.21000004
   20.50138855   -1.00000000    2.93000007    2.21000004
   20.50499916   -1.00000000    2.93000007    2.21000004
   20.50805473   -1.00000000    2.93000007    2.21000004
   20.51138878   -1.00000000    2.93000007    2.21000004
   20.51472282   -1.00000000    2.93000007    2.21000004
   20.51777840   -1.00000000    2.93000007    2.21000004
   20.52111053   -1.00000000    2.93000007    2.21000004
   20.52444458   -1.00000000    2.93000007    2.21000004
   20.52750015   -1.00000000    2.93000007    2.21000004
   20.53777695   -1.00000000    2.94000006    2.19000006
   20.54083252   -1.00000000    2.94000006    2.19000006
   20.54416656   -1.00000000    2.94000006    2.19000006
   20.54749870   -1.00000000    2.94000006    2.19000006
   20.55055428   -1.00000000    2.94000006    2.17000008
   20.55388832   -1.00000000    2.94000006    2.19000006
   20.55722237   -1.00000000    2.94000006    2.19000006
   20.56027794   -1.00000000    2.94000006    2.19000006
   20.56361008   -1.00000000    2.96000004    2.17000008
   20.56666756   -1.00000000    2.96000004    2.17000008
   20.57027817   -1.00000000    2.96000004    2.17000008
   20.58055687   -1.00000000    2.98000002    2.17000008
   20.58388901   -1.00000000    2.98000002    2.17000008
   20.58694458   -1.00000000    3.00000000    2.17000008
   20.59027863   -1.00000000    3.00000000    2.15000010
   20.59361267   -1.00000000    3.01999998    2.15000010
   20.59666824   -1.00000000    3.01999998    2.15000010
   20.60000038   -1.00000000    3.03999996    2.15000010
   20.60361099   -1.00000000    3.03999996    2.15000010
   20.60666656   -1.00000000    3.03999996    2.15000010
   20.61000061   -1.00000000    3.05999994    2.15000010
   20.61333466   -1.00000000    3.05999994    2.15000010
   20.62333298   -1.00000000    3.05999994    2.13000011
   20.62666702   -1.00000000    3.07999992    2.13000011
   20.63000107   -1.00000000    3.05999994    2.13000011
   20.63305473   -1.00000000    3.05999994    2.13000011
   20.63666725   -1.00000000    3.05999994    2.13000011
   20.63972282   -1.00000000    3.05999994    2.13000011
   20.64305496   -1.00000000    3.05999994    2.13000011
   20.64638901   -1.00000000    3.05999994    2.09999990
   20.64944458   -1.00000000    3.05999994    2.03999996
   20.65277672   -1.00000000    3.05999994    1.89999998
   20.65611076   -1.00000000    3.05999994    1.78999996
   20.66611099   -1.00000000    3.05999994    1.36000001
   20.66944313   -1.00000000    3.05999994    1.26999998
   20.67305565   -1.00000000    3.05999994    1.25000000
   20.67638779   -1.00000000    3.03999996    1.26999998
   20.67972183   -1.00000000    3.03999996    1.36000001
   20.68277740   -1.00000000    3.05999994    1.50000000
   20.68610954   -1.00000000    3.05999994    1.64999998
   20.68916512   -1.00000000    3.05999994    1.80999994
   20.69249916   -1.00000000    3.05999994    1.94000006
   20.69583321   -1.00000000    3.07999992    2.05999994
   20.69888878   -1.00000000    3.07999992    2.09999990
   20.70916748   -1.00000000    3.11999989    2.09999990
   20.71222305   -1.00000000    3.14000010    2.07999992
   20.71555710   -1.00000000    3.16000009    2.07999992
   20.71888924   -1.00000000    3.25000000    2.07999992
   20.72194481   -1.00000000    3.39000010    2.07999992
   20.72527885   -1.00000000    3.45000005    2.09999990
   20.72833443   -1.00000000    3.48000002    2.09999990
   20.73166656   -1.00000000    3.45000005    2.09999990
   20.73500061   -1.00000000    3.43000007    2.07999992
   20.73833275   -1.00000000    3.43000007    2.07999992
   20.74166679   -1.00000000    3.39000010    2.09999990
   20.75194359   -1.00000000    3.34999990    2.07999992
   20.75527763   -1.00000000    3.43000007    2.05999994
   20.75833321   -1.00000000    3.50000000    2.05999994
   20.76166725   -1.00000000    3.53999996    2.05999994
   20.76472282   -1.00000000    3.51999998    2.05999994
   20.76805496   -1.00000000    3.46000004    2.05999994
   20.77166557   -1.00000000    3.39000010    2.05999994
   20.77499962   -1.00000000    3.34999990    2.05999994
   20.77833366   -1.00000000    3.32999992    2.05999994
   20.78138924   -1.00000000    3.32999992    2.05999994
   20.78472137   -1.00000000    3.30999994    2.03999996
   20.79472160   -1.00000000    3.32999992    2.03999996
   20.79805565   -1.00000000    3.32999992    2.03999996
   20.80111122   -1.00000000    3.36999989    2.03999996
   20.80499840   -1.00000000    3.36999989    2.03999996
   20.80805397   -1.00000000    3.39000010    2.01999998
   20.81138802   -1.00000000    3.45000005    2.01999998
   20.81472206   -1.00000000    3.51999998    2.01999998
   20.81777954   -1.00000000    3.51999998    2.01999998
   20.82111168   -1.00000000    3.51999998    2.01999998
   20.82416725   -1.00000000    4.90999985    2.05999994
   20.82750130   -1.00000000    0.34000000    0.51999998
   20.83750153   -1.00000000    0.13000000    0.15000001
   20.84083366   -1.00000000    0.13000000    0.15000001
   20.84416771   -1.00000000    0.13000000    0.15000001
   20.84722328   -1.00000000    0.13000000    0.15000001
   20.85055542   -1.00000000    0.13000000    0.15000001
   20.85388947   -1.00000000    0.13000000    0.15000001
   20.85694504   -1.00000000    0.13000000    0.15000001
   20.86027908   -1.00000000    0.13000000    0.15000001
