    HOUR (UT)   FLARE FACTOR    SKY TESTER    SUN TESTER
   12.07277775   -1.00000000   -1.00000000   -1.00000000
   12.09249973  283.03298950    0.92000002    1.83000004
   12.09777737   -1.00000000    0.92000002    1.83000004
   12.10111141  223.64900208    0.92000002    1.85000002
   12.10416698  244.56599426    0.94000000    1.85000002
   12.10750008  243.36000061    0.94000000    1.85000002
   12.11083412  229.50100708    0.94000000    1.85000002
   12.11388969  245.55499268    0.94000000    1.85000002
   12.11722279  227.28500366    0.94000000    1.86000001
   12.12027836  232.87199402    0.94000000    1.86000001
   12.12361145  219.94400024    0.94000000    1.86000001
   12.12583351  227.32400513    0.94000000    1.86000001
   12.12722206  218.25300598    0.94000000    1.86000001
   12.13055611  217.86599731    0.94000000    1.86000001
   12.13388920  239.87300110    0.94000000    1.88000000
   12.13694477  216.92300415    0.94000000    1.88000000
   12.14027786  204.64900208    0.94000000    1.88000000
   12.14361095  241.13699341    0.94000000    1.89999998
   12.14666653  220.11500549    0.94000000    1.89999998
   12.14999962  209.39300537    0.94000000    1.89999998
   12.15305519  219.55400085    0.94000000    1.89999998
   12.15638828  189.81300354    0.94000000    1.91999996
   12.15916634  204.79200745    0.94000000    1.89999998
   12.16027737  216.69500732    0.94000000    1.89999998
   12.16333294  191.44400024    0.94000000    1.89999998
   12.16666698  197.80700684    0.94000000    1.91999996
   12.16972256  194.36999512    0.92000002    1.91999996
   12.17305565  193.92799377    0.94000000    1.91999996
   12.17638874  191.90299988    0.92000002    1.91999996
   12.17944431  196.09700012    0.92000002    1.91999996
   12.18277836  187.13200378    0.92000002    1.91999996
   12.18611145  195.25799561    0.92000002    1.94000006
   12.18916702  197.49200439    0.92000002    1.94000006
   12.19250011  188.15299988    0.92000002    1.94000006
   12.19277763  194.83599854    0.92000002    1.94000006
   12.19611073  201.12100220    0.92000002    1.94000006
   12.19944477  198.61500549    0.92000002    1.94000006
   12.20249939  190.91700745    0.92000002    1.94000006
   12.20583344  191.78399658    0.92000002    1.94000006
   12.20916653  197.16799927    0.92000002    1.96000004
   12.21222210  197.25100708    0.89999998    1.96000004
   12.21555519  197.57000732    0.89999998    1.96000004
   12.21888828  196.18600464    0.89999998    1.96000004
   12.22222137  194.75399780    0.89999998    1.96000004
   12.22527695  180.94099426    0.89999998    1.96000004
   12.22583294  172.41000366    0.89999998    1.96000004
   12.22888851  180.15800476    0.89999998    1.96000004
   12.23222160  174.44299316    0.88000000    1.98000002
   12.23527813  204.31700134    0.88000000    1.98000002
   12.23888874  179.65400696    0.88000000    1.98000002
   12.24222279  177.76800537    0.88000000    1.98000002
   12.24527836  175.88999939    0.88000000    2.00000000
   12.24861145  171.36599731    0.88000000    2.00000000
   12.25166702  168.54200745    0.88000000    2.00000000
   12.25500011  177.80499268    0.86000001    2.00000000
   12.25833321  159.24499512    0.86000001    2.01999998
   12.25916672  170.10200500    0.86000001    2.00000000
   12.26194477  166.50900269    0.86000001    2.00000000
   12.26527786  147.26899719    0.86000001    2.01999998
   12.26833344  162.92999268    0.86000001    2.00000000
   12.27166653  155.08700562    0.86000001    2.01999998
   12.27472210  180.69000244    0.86000001    2.01999998
   12.27805519  173.12800598    0.86000001    2.01999998
   12.28138828  173.35299683    0.86000001    2.01999998
   12.28444481  155.14900208    0.86000001    2.01999998
   12.28777790  167.22599792    0.86000001    2.01999998
   12.29111195  182.72999573    0.86000001    2.01999998
   12.29250050  164.85299683    0.86000001    2.00000000
   12.29472256  172.95300293    0.86000001    2.00000000
   12.29805565  182.35800171    0.83999997    2.01999998
   12.30111122  178.77299500    0.86000001    2.01999998
   12.30444431  164.84500122    0.83999997    2.01999998
   12.30777836  171.70599365    0.83999997    2.03999996
   12.31083393  174.40699768    0.83999997    2.03999996
   12.31416702  172.85600281    0.83999997    2.03999996
   12.31722260  177.63600159    0.83999997    2.03999996
   12.32055569  172.73399353    0.83999997    2.05999994
   12.32388878  178.57099915    0.83999997    2.03999996
   12.32583332  178.90800476    0.83999997    2.05999994
   12.32750034  171.82899475    0.81999999    2.05999994
   12.33083344  186.84700012    0.81999999    2.05999994
   12.33388901  173.96400452    0.83999997    2.05999994
   12.33722210  162.64599609    0.81999999    2.07999992
   12.34055519  159.31300354    0.81999999    2.07999992
   12.34361076  168.77000427    0.81999999    2.07999992
   12.34694386  165.74499512    0.81999999    2.05999994
   12.35000038  174.18800354    0.81999999    2.07999992
   12.35333347  157.32400513    0.81999999    2.07999992
   12.35666752  149.76699829    0.83999997    2.07999992
   12.35916710  169.68400574    0.81999999    2.07999992
   12.36027813  170.53300476    0.81999999    2.07999992
   12.36361122  159.84199524    0.81999999    2.07999992
   12.36666679  168.50399780    0.81999999    2.07999992
   12.36999989  174.47700500    0.80000001    2.07999992
   12.37305546  166.39999390    0.80000001    2.09999990
   12.37638855  177.68200684    0.81999999    2.09999990
   12.37972260  179.69900513    0.80000001    2.09999990
   12.38277817  171.46499634    0.80000001    2.09999990
   12.38611126  165.49499512    0.80000001    2.09999990
   12.38944435  162.87699890    0.80000001    2.11999989
   12.39249992  156.07000732    0.80000001    2.09999990
   12.39305496  171.97099304    0.79000002    2.09999990
   12.39638901  175.05999756    0.80000001    2.11999989
   12.39944458  155.03100586    0.79000002    2.11999989
   12.40277767  165.23500061    0.79000002    2.11999989
   12.40583324  170.34100342    0.79000002    2.11999989
   12.40916634  178.47900391    0.79000002    2.11999989
   12.41249943  164.26600647    0.79000002    2.11999989
   12.41555500  162.94999695    0.79000002    2.11999989
   12.41888905  174.01300049    0.79000002    2.11999989
   12.42222214  170.09700012    0.79000002    2.11999989
   12.42527771  174.02699280    0.79000002    2.11999989
   12.42583370  169.49600220    0.79000002    2.11999989
   12.42888927  174.08599854    0.79000002    2.13000011
   12.43222237  173.65100098    0.76999998    2.13000011
   12.43527794  181.10899353    0.76999998    2.11999989
   12.43861103  170.08099365    0.76999998    2.11999989
   12.44166660  169.91799927    0.76999998    2.11999989
   12.44499969  172.16999817    0.76999998    2.13000011
   12.44833374  176.08399963    0.76999998    2.13000011
   12.45138836  181.81799316    0.75000000    2.15000010
   12.45472240  173.08099365    0.75000000    2.13000011
   12.45805550  170.63099670    0.75000000    2.15000010
   12.45916653  172.10600281    0.75000000    2.15000010
   12.46166611  174.77799988    0.75000000    2.15000010
   12.46500015  169.15699768    0.75000000    2.15000010
   12.46805477  175.99000549    0.75000000    2.17000008
   12.47138882  176.07400513    0.75000000    2.15000010
   12.47444439  163.31300354    0.75000000    2.15000010
   12.47777748  171.85499573    0.73000002    2.15000010
   12.48111057  171.06399536    0.73000002    2.15000010
   12.48416710  179.83700562    0.73000002    2.15000010
   12.48750019  180.19799805    0.73000002    2.15000010
   12.49083328  168.07299805    0.73000002    2.15000010
   12.49250031  172.11000061    0.73000002    2.17000008
   12.49444485  153.98100281    0.73000002    2.17000008
   12.49777794  169.81599426    0.73000002    2.17000008
   12.50083351  168.19099426    0.73000002    2.17000008
   12.50416660  167.14500427    0.73000002    2.17000008
   12.50722218  160.70100403    0.73000002    2.17000008
   12.51055527  184.75999451    0.73000002    2.17000008
   12.51388931  167.96600342    0.73000002    2.17000008
   12.51694393  172.46200562    0.70999998    2.17000008
   12.52027798  171.94500732    0.70999998    2.17000008
   12.52361107  169.17199707    0.70999998    2.17000008
   12.52583313  177.18899536    0.70999998    2.19000006
   12.52722168  172.42900085    0.70999998    2.19000006
   12.53055573  173.25100708    0.70999998    2.17000008
   12.53361130  169.10499573    0.70999998    2.19000006
   12.53694534  175.27900696    0.70999998    2.19000006
   12.54027843  158.18699646    0.69000000    2.19000006
   12.54333401  161.20399475    0.69000000    2.19000006
   12.54666710  162.79200745    0.69000000    2.21000004
   12.54972267  154.22999573    0.67000002    2.19000006
   12.55305576  154.69200134    0.69000000    2.21000004
   12.55638885  168.55200195    0.67000002    2.21000004
   12.55916691  167.89100647    0.69000000    2.21000004
   12.56000042  152.24299622    0.69000000    2.21000004
   12.56333351  160.02900696    0.67000002    2.21000004
   12.56638908  165.52900696    0.67000002    2.21000004
   12.56972218  157.42199707    0.67000002    2.23000002
   12.57277775  168.01600647    0.67000002    2.21000004
   12.57611084  153.59100342    0.67000002    2.21000004
   12.57944393  152.82800293    0.67000002    2.21000004
   12.58249950  160.51600647    0.64999998    2.23000002
   12.58583260  155.86300659    0.64999998    2.23000002
   12.58916664  155.00599670    0.64999998    2.23000002
   12.59249973  160.35800171    0.64999998    2.23000002
   12.59277725  166.27999878    0.64999998    2.23000002
   12.59611034  157.92700195    0.64999998    2.23000002
   12.59944439  154.13000488    0.64999998    2.23000002
   12.60249996  162.18899536    0.64999998    2.23000002
   12.60583401  159.00900269    0.64999998    2.23000002
   12.60916710  159.60000610    0.64999998    2.23000002
   12.61222267  171.96400452    0.64999998    2.23000002
   12.61555576  172.12800598    0.64999998    2.23000002
   12.61861134  154.01699829    0.64999998    2.25000000
   12.62194443  165.23300171    0.64999998    2.23000002
   12.62527752  164.39599609    0.63000000    2.25000000
   12.62611103  163.10099792    0.63000000    2.25000000
   12.62888908  162.78399658    0.64999998    2.25000000
   12.63222218  170.23800659    0.64999998    2.25000000
   12.63527775  166.26899719    0.64999998    2.25000000
   12.63861084  179.77900696    0.64999998    2.25000000
   12.64194393  165.50399780    0.64999998    2.25000000
   12.64499950  166.39900208    0.64999998    2.25000000
   12.64833355  156.99499512    0.64999998    2.25000000
   12.65138817  165.48699951    0.64999998    2.25000000
   12.65472221  154.95500183    0.64999998    2.25000000
   12.65805531  156.77099609    0.63000000    2.25000000
   12.65944386  160.99299622    0.63000000    2.25000000
   12.66166592  152.64900208    0.61000001    2.25000000
   12.66499996  159.14399719    0.61000001    2.25000000
   12.66805553  158.47000122    0.63000000    2.26999998
   12.67138958  161.69299316    0.63000000    2.26999998
   12.67472267  171.16200256    0.61000001    2.26999998
   12.67777824  169.50000000    0.61000001    2.26999998
   12.68111134  167.55900574    0.61000001    2.26999998
   12.68444443  164.65600586    0.61000001    2.26999998
   12.68750000  170.19999695    0.61000001    2.26999998
   12.69083309  165.16700745    0.58999997    2.26999998
   12.69277763  161.87899780    0.58999997    2.26999998
   12.69444466  157.34300232    0.58999997    2.26999998
   12.69777775  181.41999817    0.58999997    2.26999998
   12.70083332  159.31599426    0.58999997    2.28999996
   12.70416641  175.03900146    0.61000001    2.28999996
   12.70749950  167.56100464    0.61000001    2.28999996
   12.71055508  173.48100281    0.58999997    2.28999996
   12.71388912  171.93299866    0.58999997    2.28999996
   12.71722221  178.21099854    0.58999997    2.28999996
   12.72027779  163.41700745    0.56999999    2.28999996
   12.72361088  170.36599731    0.56999999    2.28999996
   12.72611046  171.86799622    0.58999997    2.28999996
   12.72722149  159.52200317    0.56999999    2.28999996
   12.73055553  173.17799377    0.56999999    2.30999994
   12.73361111  159.79699707    0.58999997    2.28999996
   12.73694515  167.84800720    0.58999997    2.30999994
   12.74027824  152.46600342    0.58999997    2.28999996
   12.74333382  164.79600525    0.56999999    2.28999996
   12.74666691  160.75999451    0.56999999    2.30999994
   12.74972248  153.76499939    0.56999999    2.30999994
   12.75305557  152.41499329    0.56999999    2.30999994
   12.75638866  159.19999695    0.56999999    2.30999994
   12.75944424  169.49400330    0.56999999    2.30999994
   12.76000023  161.53500366    0.56999999    2.30999994
   12.76333332  173.02200317    0.56999999    2.30999994
   12.76638889  154.68899536    0.56999999    2.30999994
   12.76972198  170.66499329    0.56999999    2.30999994
   12.77305508  157.63600159    0.55000001    2.32999992
   12.77611065  175.55700684    0.55000001    2.32999992
   12.77944374  168.67799377    0.55000001    2.30999994
   12.78249931  169.67199707    0.55000001    2.30999994
   12.78583336  187.52499390    0.55000001    2.32999992
   12.78916740  165.90899658    0.55000001    2.32999992
   12.79222298  184.96299744    0.55000001    2.32999992
   12.79305553  169.54299927    0.55000001    2.32999992
   12.79583359  191.89500427    0.55000001    2.32999992
   12.79916668  178.95199585    0.55000001    2.32999992
   12.80222225  195.42399597    0.55000001    2.34999990
   12.80555534  194.73599243    0.55000001    2.32999992
   12.80888939  182.03700256    0.55000001    2.32999992
   12.81194496  199.05000305    0.55000001    2.34999990
   12.81527805  178.95199585    0.55000001    2.32999992
   12.81861115  189.53300476    0.55000001    2.32999992
   12.82166672  183.94599915    0.55000001    2.32999992
   12.82499981  213.91400146    0.55000001    2.32999992
   12.82638836  194.61500549    0.55000001    2.32999992
   12.82861137  197.52600098    0.55000001    2.32999992
   12.83194447  185.92399597    0.55000001    2.34999990
   12.83500004  181.71899414    0.55000001    2.34999990
   12.83833313  179.95300293    0.55000001    2.32999992
   12.84166622  180.94999695    0.55000001    2.34999990
   12.84472179  171.95100403    0.55000001    2.34999990
   12.84805489  171.89500427    0.55000001    2.34999990
   12.85138893  176.27000427    0.55000001    2.34999990
   12.85444450  166.74699402    0.55000001    2.34999990
   12.85777855  161.13600159    0.55000001    2.34999990
   12.85972214  162.58599854    0.55000001    2.34999990
   12.86138916  169.41700745    0.55000001    2.34999990
   12.86472225  170.45899963    0.55000001    2.34999990
   12.86805534  156.65600586    0.55000001    2.34999990
   12.87111092  158.00799561    0.55000001    2.34999990
   12.87444496  161.69500732    0.55000001    2.34999990
   12.87750053  165.08999634    0.55000001    2.34999990
   12.88083363  174.34899902    0.52999997    2.34999990
   12.88416672  159.30400085    0.55000001    2.34999990
   12.88722229  167.34399414    0.52999997    2.34999990
   12.89055538  164.08900452    0.52999997    2.34999990
   12.89305496  165.36599731    0.55000001    2.36999989
   12.89416695  168.47300720    0.52999997    2.34999990
   12.89750004  167.85400391    0.52999997    2.36999989
   12.90055561  160.63699341    0.52999997    2.36999989
   12.90388870  157.26199341    0.52999997    2.36999989
   12.90722179  156.80000305    0.52999997    2.36999989
   12.91027737  158.62300110    0.52999997    2.36999989
   12.91361046  165.96200562    0.52999997    2.36999989
   12.91694450  159.44799805    0.52999997    2.36999989
   12.92000008  171.33000183    0.55000001    2.36999989
   12.92333412  168.12300110    0.52999997    2.36999989
   12.92638874  168.82000732    0.55000001    2.36999989
   12.92694473  175.12300110    0.55000001    2.36999989
   12.93027782  152.75300598    0.52999997    2.36999989
   12.93333340  160.14799500    0.52999997    2.39000010
   12.93666649  159.66299438    0.52999997    2.36999989
   12.94000053  153.83799744    0.52999997    2.36999989
   12.94305515  173.39599609    0.52999997    2.36999989
   12.94638920  160.45300293    0.52999997    2.39000010
   12.94972229  163.50100708    0.52999997    2.39000010
   12.95277786  160.97500610    0.51999998    2.39000010
   12.95611095  169.28999329    0.51999998    2.39000010
   12.95916653  150.98300171    0.51999998    2.39000010
   12.95972157  160.91299438    0.51999998    2.39000010
   12.96305561  158.42399597    0.51999998    2.36999989
   12.96638870  157.67799377    0.51999998    2.39000010
   12.96944427  160.71800232    0.51999998    2.39000010
   12.97277737  164.55599976    0.51999998    2.39000010
   12.97611046  171.35699463    0.51999998    2.40000010
   12.97916603  157.64199829    0.51999998    2.39000010
   12.98249912  159.53799438    0.51999998    2.40000010
   12.98555565  149.84100342    0.51999998    2.40000010
   12.98888874  162.84599304    0.51999998    2.39000010
   12.99222279  163.39300537    0.51999998    2.40000010
   12.99305534  157.56300354    0.51999998    2.40000010
   12.99583340  179.90199280    0.51999998    2.39000010
   12.99916649  170.19299316    0.51999998    2.39000010
   13.00222206  162.21400452    0.51999998    2.40000010
   13.00555515  154.95399475    0.51999998    2.39000010
   13.00888920  168.88900757    0.51999998    2.40000010
   13.01194477  170.78700256    0.51999998    2.39000010
   13.01527786  158.16099548    0.51999998    2.40000010
   13.01833344  179.05700684    0.51999998    2.40000010
   13.02166653  163.27999878    0.51999998    2.40000010
   13.02499962  167.86799622    0.51999998    2.40000010
   13.02638817  161.39599609    0.51999998    2.40000010
   13.02861118  166.91000366    0.51999998    2.40000010
   13.03194427  167.08000183    0.50000000    2.40000010
   13.03500080  165.87699890    0.50000000    2.40000010
   13.03833389  169.93400574    0.50000000    2.40000010
   13.04166698  163.27799988    0.50000000    2.40000010
   13.04472256  153.94099426    0.51999998    2.40000010
   13.04805565  158.03599548    0.51999998    2.40000010
   13.05111122  167.64799500    0.50000000    2.42000008
   13.05444431  160.58200073    0.50000000    2.40000010
   13.05777836  163.24600220    0.50000000    2.40000010
   13.05972195  158.73199463    0.50000000    2.40000010
   13.06138897  169.25799561    0.50000000    2.42000008
   13.06472206  164.87699890    0.50000000    2.42000008
   13.06777763  155.38999939    0.50000000    2.42000008
   13.07111073  158.98100281    0.50000000    2.42000008
   13.07444477  163.33200073    0.50000000    2.42000008
   13.07750034  160.68099976    0.50000000    2.42000008
   13.08083344  157.43699646    0.50000000    2.42000008
   13.08388901  171.72799683    0.50000000    2.42000008
   13.08722210  159.13000488    0.50000000    2.42000008
   13.09055519  171.67799377    0.50000000    2.42000008
   13.10916710  156.84500122    0.47999999    2.42000008
   13.11027813  154.70500183    0.47999999    2.42000008
   13.11361122  155.94299316    0.50000000    2.42000008
   13.11694431  153.60000610    0.50000000    2.42000008
   13.11999989  156.87899780    0.47999999    2.42000008
   13.12333393  145.42999268    0.50000000    2.44000006
   13.12666702  149.52099609    0.50000000    2.44000006
   13.12972260  159.09700012    0.50000000    2.44000006
   13.13305569  156.93400574    0.50000000    2.44000006
   13.13611126  160.64500427    0.47999999    2.44000006
   13.13944435  161.50300598    0.50000000    2.44000006
   13.14222240  143.30400085    0.47999999    2.44000006
   13.14305496  156.40100098    0.47999999    2.44000006
   13.14638901  154.62100220    0.47999999    2.44000006
   13.14944458  162.61500549    0.47999999    2.44000006
   13.15277767  153.58500671    0.47999999    2.44000006
   13.15611076  157.47000122    0.47999999    2.44000006
   13.15916634  163.85200500    0.47999999    2.46000004
   13.16249943  155.71699524    0.47999999    2.46000004
   13.16555500  155.88999939    0.47999999    2.46000004
   13.16888905  161.87800598    0.47999999    2.44000006
   13.17222214  150.33299255    0.47999999    2.46000004
   13.29861164   -1.00000000   -1.00000000   -1.00000000
   13.45527744   -1.00000000   -1.00000000   -1.00000000
   13.56833363   -1.00000000   -1.00000000   -1.00000000
   13.66527748   -1.00000000   -1.00000000   -1.00000000
   13.76222229   -1.00000000   -1.00000000   -1.00000000
   13.86388969   -1.00000000   -1.00000000   -1.00000000
   13.96055508   -1.00000000   -1.00000000   -1.00000000
   14.05722237   -1.00000000   -1.00000000   -1.00000000
   14.15694427   -1.00000000   -1.00000000   -1.00000000
   14.28249931   81.59559631    0.41999999    2.66000009
   14.28583336  140.25700378    0.41999999    2.64000010
   14.28888893  130.37699890    0.41999999    2.64000010
   14.29222298  141.84500122    0.41999999    2.64000010
   14.29555607  138.25799561    0.41999999    2.64000010
   14.29861164  122.99199677    0.41999999    2.64000010
   14.30277824  122.99199677    0.40000001    2.66000009
   14.30694485  133.74800110    0.41999999    2.66000009
   14.31027794  135.50700378    0.40000001    2.66000009
   14.31333351  131.42799377    0.40000001    2.66000009
   14.31583309  143.25000000    0.40000001    2.64000010
   14.31722260  138.46899414    0.40000001    2.64000010
   14.32027817  141.78799438    0.40000001    2.64000010
   14.32361126  138.18699646    0.40000001    2.67000008
   14.32694435  134.06500244    0.40000001    2.67000008
   14.32999992  126.72100067    0.40000001    2.66000009
   14.33333302  132.72300720    0.40000001    2.66000009
   14.33666611  141.22700500    0.40000001    2.66000009
   14.33972168  130.91900635    0.40000001    2.66000009
   14.34555531  130.91900635    0.40000001    2.66000009
   14.34972191  132.83200073    0.38000000    2.66000009
   14.35305595  135.48399353    0.40000001    2.66000009
   14.35638905  131.63499451    0.40000001    2.66000009
   14.35944462  134.25799561    0.38000000    2.66000009
   14.36277771  130.49899292    0.38000000    2.66000009
   14.36611176  133.80400085    0.36000001    2.66000009
   14.36916637  138.97700500    0.36000001    2.64000010
   14.37250042  138.52299500    0.36000001    2.66000009
   14.37555599  135.95899963    0.36000001    2.66000009
   14.37888908  128.67199707    0.36000001    2.66000009
   14.38222218  133.75999451    0.36000001    2.64000010
   14.38277817  134.27200317    0.36000001    2.64000010
   14.38861084  134.27200317    0.36000001    2.66000009
   14.39277744  138.55799866    0.36000001    2.66000009
   14.39583302  142.51199341    0.36000001    2.66000009
   14.39916611  144.64799500    0.36000001    2.67000008
   14.40222168  139.16999817    0.36000001    2.67000008
   14.40555477  133.75300598    0.36000001    2.64000010
   14.40888882  140.66099548    0.36000001    2.66000009
   14.41194439  147.02900696    0.36000001    2.67000008
   14.41527748  141.77000427    0.36000001    2.66000009
   14.41611099  131.03500366    0.36000001    2.66000009
   14.41888905  144.41999817    0.36000001    2.66000009
   14.42222214  147.24299622    0.36000001    2.66000009
   14.42555618  129.41499329    0.36000001    2.66000009
   14.43138885  129.41499329    0.34000000    2.66000009
   14.43555546  133.95500183    0.34000000    2.66000009
   14.43888855  131.48199463    0.36000001    2.66000009
   14.44194412  130.44099426    0.36000001    2.67000008
   14.44527817  134.50500488    0.34000000    2.66000009
   14.44833374  135.61999512    0.34000000    2.66000009
   14.44944477  121.95200348    0.34000000    2.66000009
   14.45194435  140.24699402    0.34000000    2.66000009
   14.45527744  131.93200684    0.34000000    2.67000008
   14.45861053  141.35200500    0.36000001    2.66000009
   14.46166611  144.51499939    0.34000000    2.66000009
   14.46500015  140.91600037    0.34000000    2.66000009
   14.46833324  136.34599304    0.34000000    2.66000009
   14.47416592  136.34599304    0.34000000    2.67000008
   14.47833252  137.47700500    0.34000000    2.67000008
   14.48166656  136.57200623    0.34000000    2.67000008
   14.48277760  133.52000427    0.34000000    2.67000008
   14.48527813  133.40600586    0.34000000    2.64000010
   14.48861122  137.86500549    0.34000000    2.67000008
   14.49194431  133.42599487    0.36000001    2.66000009
   14.49499989  145.96899414    0.34000000    2.67000008
   14.49833393  136.56799316    0.34000000    2.66000009
   14.50138855  135.88900757    0.34000000    2.66000009
   14.50472260  145.73500061    0.34000000    2.67000008
   14.50805569  132.67500305    0.34000000    2.67000008
   14.51111126  132.68099976    0.34000000    2.67000008
   14.51694393  132.68099976    0.34000000    2.67000008
   14.52111053  145.34500122    0.34000000    2.67000008
   14.52444458  136.64999390    0.34000000    2.67000008
   14.52777767  141.13200378    0.34000000    2.67000008
   14.53083324  132.40699768    0.34000000    2.67000008
   14.53416729  128.74600220    0.34000000    2.67000008
   14.53722286  135.84899902    0.31999999    2.69000006
   14.54055595  138.37500000    0.31999999    2.66000009
   14.54388905  133.17399597    0.31999999    2.67000008
   14.54694462  126.08300018    0.31999999    2.67000008
   14.54944515  130.99499512    0.31999999    2.67000008
   14.55055618  129.30700684    0.34000000    2.67000008
   14.55388927  131.36599731    0.31999999    2.67000008
   14.56000042  131.36599731    0.31999999    2.67000008
   14.56416702  132.57099915    0.31999999    2.66000009
   14.56722260  129.89399719    0.31999999    2.67000008
   14.57055569  139.21000671    0.34000000    2.66000009
   14.57361126  128.67100525    0.34000000    2.66000009
   14.57694435  131.48500061    0.34000000    2.66000009
   14.58027744  133.64900208    0.31999999    2.67000008
   14.58277798  129.46400452    0.34000000    2.67000008
   14.58361053  133.63000488    0.34000000    2.67000008
   14.58694458  135.54600525    0.34000000    2.67000008
   14.59027767  126.99700165    0.34000000    2.67000008
   14.59333324  133.22000122    0.34000000    2.67000008
   14.59666634  127.07399750    0.34000000    2.67000008
   14.60277843  127.07399750    0.34000000    2.67000008
   14.60694504  130.02499390    0.34000000    2.67000008
   14.61000061  129.23500061    0.34000000    2.67000008
   14.61333370  117.85900116    0.34000000    2.67000008
   14.61611176  126.38200378    0.34000000    2.67000008
   14.61694431  128.89700317    0.34000000    2.67000008
   14.62027836  131.11599731    0.34000000    2.67000008
   14.62361145  123.40100098    0.31999999    2.66000009
   14.62666702  134.93400574    0.31999999    2.67000008
   14.63000011  134.02000427    0.31999999    2.69000006
   14.63305569  117.66100311    0.34000000    2.67000008
   14.63638878  131.42100525    0.31999999    2.67000008
   14.63972187  129.83799744    0.34000000    2.67000008
   14.64555550  129.83799744    0.34000000    2.67000008
   14.64972210  133.60200500    0.34000000    2.67000008
   14.65305519  134.87300110    0.34000000    2.67000008
   14.65611076  130.67500305    0.34000000    2.67000008
   14.65944386  134.30499268    0.34000000    2.67000008
   14.66277695  132.79499817    0.34000000    2.67000008
   14.66583252  124.52700043    0.34000000    2.67000008
   14.66916656  130.55799866    0.34000000    2.67000008
   14.67222214  138.26400757    0.34000000    2.67000008
   14.67555618  130.70500183    0.34000000    2.69000006
   14.67888927  125.17800140    0.34000000    2.67000008
   14.68194485  128.71800232    0.34000000    2.69000006
   14.68277836  136.79699707    0.34000000    2.67000008
   14.68861103  136.79699707    0.34000000    2.67000008
   14.69277763  129.64199829    0.34000000    2.67000008
   14.69611073  129.80599976    0.34000000    2.67000008
   14.69916630  137.45799255    0.34000000    2.67000008
   14.70249939  140.04699707    0.34000000    2.67000008
   14.70555496  144.06500244    0.34000000    2.67000008
   14.70888901  132.85899353    0.34000000    2.67000008
   14.71222210  141.31700134    0.31999999    2.67000008
   14.71555519  132.12100220    0.34000000    2.69000006
   14.71611118  135.45899963    0.34000000    2.69000006
   14.71888828  138.15600586    0.34000000    2.69000006
   14.72222137  135.26100159    0.31999999    2.67000008
   14.72555542  132.42100525    0.31999999    2.69000006
   14.73138809  132.42100525    0.31999999    2.69000006
   14.73555565  138.11399841    0.31999999    2.69000006
   14.73861122  144.96899414    0.31999999    2.69000006
   14.74194431  135.81700134    0.31999999    2.67000008
   14.74499989  134.21000671    0.31999999    2.69000006
   14.74833393  125.68900299    0.31999999    2.69000006
   14.74944496  135.53199768    0.31999999    2.69000006
   14.75194454  130.59599304    0.31999999    2.69000006
   14.75527763  133.84399414    0.31999999    2.69000006
   14.75861073  132.76699829    0.31999999    2.69000006
   14.76166630  131.83299255    0.31999999    2.69000006
   14.76500034  134.72000122    0.31999999    2.69000006
   14.76833344  130.56500244    0.31999999    2.69000006
   14.77416611  130.56500244    0.31999999    2.69000006
   14.77833271  140.29899597    0.31999999    2.69000006
   14.78138828  132.26499939    0.31999999    2.69000006
   14.78277779  132.28300476    0.31999999    2.67000008
   14.78500080  134.56100464    0.31999999    2.67000008
   14.78833389  127.39800262    0.31999999    2.69000006
   14.79166698  133.08900452    0.31999999    2.69000006
   14.79472256  129.64199829    0.31999999    2.69000006
   14.79805565  132.52699280    0.31999999    2.69000006
   14.80138874  132.51699829    0.31999999    2.69000006
   14.80444431  135.62800598    0.31999999    2.69000006
   14.80777836  131.31300354    0.31999999    2.69000006
   14.81111145  128.92100525    0.31999999    2.69000006
   14.81694412  128.92100525    0.31999999    2.69000006
   14.82111073  132.41400146    0.31999999    2.69000006
   14.82444477  131.36300659    0.31999999    2.69000006
   14.82750034  136.19599915    0.31999999    2.69000006
   14.83083344  122.40399933    0.31999999    2.69000006
   14.83388901  124.06099701    0.31999999    2.69000006
   14.83722210  131.50700378    0.31999999    2.69000006
   14.84055519  122.44100189    0.31999999    2.69000006
   14.84361076  127.26100159    0.31999999    2.69000006
   14.84694386  119.36799622    0.31999999    2.69000006
   14.84944439  123.20200348    0.31999999    2.69000006
   14.85055637  125.26699829    0.31999999    2.69000006
   14.85388947  127.17900085    0.31999999    2.69000006
   14.85972214  127.17900085    0.31999999    2.69000006
   14.86388969  127.26799774    0.31999999    2.71000004
   14.86722279  122.41300201    0.31999999    2.69000006
   14.87027836  109.40599823    0.31999999    2.69000006
   14.87361145  130.61399841    0.31999999    2.69000006
   14.87694454  124.35299683    0.31999999    2.69000006
   14.88000011  122.11900330    0.31999999    2.71000004
   14.88277817  130.26400757    0.31999999    2.69000006
   14.88361073  113.92800140    0.31999999    2.69000006
   14.88694477  122.66899872    0.31999999    2.69000006
   14.89027786  131.47000122    0.31999999    2.71000004
   14.89333344  122.49400330    0.31999999    2.71000004
   14.89666653  126.29799652    0.31999999    2.71000004
   14.90277767  126.29799652    0.30000001    2.71000004
   14.90694427  130.22000122    0.31999999    2.69000006
   14.90999985  125.41699982    0.30000001    2.71000004
   14.91333294  127.01999664    0.30000001    2.71000004
   14.91611099  116.29100037    0.31999999    2.69000006
   14.91666698  112.23200226    0.31999999    2.69000006
   14.92000008  125.41400146    0.31999999    2.69000006
   14.92333412  119.27400208    0.31999999    2.69000006
   14.92638874  116.33599854    0.31999999    2.71000004
   14.92972279  119.75299835    0.31999999    2.69000006
   14.93305588  127.48400116    0.31999999    2.71000004
   14.93611145  119.73000336    0.31999999    2.71000004
   14.93944454  127.23200226    0.31999999    2.71000004
   14.94555569  127.23200226    0.30000001    2.69000006
   14.94972229  131.59899902    0.31999999    2.69000006
   14.95277786  125.08100128    0.31999999    2.71000004
   14.95611095  123.00700378    0.31999999    2.69000006
   14.95944405  116.82199860    0.31999999    2.67000008
   14.96249962  131.83299255    0.31999999    2.71000004
   14.96583271  121.87300110    0.31999999    2.69000006
   14.96916580  102.65399933    0.31999999    2.71000004
   14.97222137  118.30500031    0.31999999    2.69000006
   14.97555542  128.64700317    0.31999999    2.69000006
   14.97861099  128.26499939    0.31999999    2.69000006
   14.98194408  130.11099243    0.31999999    2.71000004
   14.98277760  128.98699951    0.31999999    2.71000004
   14.98833370  128.98699951    0.31999999    2.71000004
   14.99250031  125.23200226    0.31999999    2.71000004
   14.99583340  115.13099670    0.31999999    2.71000004
   14.99888897  125.73500061    0.30000001    2.71000004
   15.00222206  123.67800140    0.30000001    2.71000004
   15.00527763  128.88099670    0.30000001    2.71000004
   15.00861073  127.68399811    0.30000001    2.69000006
   15.01194477  133.22799683    0.30000001    2.69000006
   15.01500034  128.40899658    0.30000001    2.71000004
   15.01611137  125.72200012    0.30000001    2.71000004
   15.01861095  127.90100098    0.30000001    2.69000006
   15.02194405  126.04900360    0.31999999    2.69000006
   15.02527714  131.47799683    0.31999999    2.71000004
   15.03111076  131.47799683    0.31999999    2.71000004
   15.03527832  121.03600311    0.31999999    2.69000006
   15.03861141  120.05400085    0.31999999    2.69000006
   15.04166698  130.90199280    0.31999999    2.71000004
   15.04500008  121.48400116    0.31999999    2.71000004
   15.04833412  115.02700043    0.31999999    2.69000006
   15.04944515  112.58300018    0.31999999    2.69000006
   15.05194473  129.54499817    0.31999999    2.71000004
   15.05500031  128.41299438    0.31999999    2.71000004
   15.05833340  119.01200104    0.31999999    2.71000004
   15.06166649  137.83700562    0.31999999    2.71000004
   15.06472206  128.69700623    0.31999999    2.71000004
   15.06805515  127.26899719    0.31999999    2.69000006
   15.07416630  127.26899719    0.31999999    2.71000004
   15.07805538  130.48500061    0.31999999    2.71000004
   15.08138847  128.75900269    0.31999999    2.71000004
   15.08277798  127.91999817    0.31999999    2.71000004
   15.08500004  122.37799835    0.31999999    2.71000004
   15.08833313  127.27899933    0.31999999    2.71000004
   15.09166622  122.76999664    0.31999999    2.69000006
   15.09472179  131.91099548    0.31999999    2.69000006
   15.09805489  118.25099945    0.31999999    2.71000004
   15.10138893  125.80500031    0.31999999    2.69000006
   15.10444450  125.81199646    0.31999999    2.71000004
   15.10777855  128.70500183    0.31999999    2.71000004
   15.11111164  129.06700134    0.31999999    2.71000004
   15.11694431  129.06700134    0.31999999    2.71000004
   15.12111092  119.46800232    0.31999999    2.71000004
   15.12416649  127.16500092    0.31999999    2.71000004
   15.12750053  119.74700165    0.31999999    2.71000004
   15.13083363  122.44899750    0.31999999    2.69000006
   15.13388920  127.61699677    0.31999999    2.69000006
   15.13722229  125.81999969    0.31999999    2.71000004
   15.14055538  122.73100281    0.30000001    2.71000004
   15.14361095  122.76799774    0.30000001    2.71000004
   15.14694405  126.47599792    0.30000001    2.71000004
   15.14944458  121.20099640    0.31999999    2.71000004
   15.15055561  126.04199982    0.31999999    2.71000004
   15.15361118  133.73599243    0.30000001    2.71000004
   15.15972137  133.73599243    0.30000001    2.71000004
   15.16388893  113.82800293    0.30000001    2.71000004
   15.16722298  114.88899994    0.30000001    2.71000004
   15.17027855  122.46600342    0.30000001    2.71000004
   15.17361164  119.15200043    0.30000001    2.71000004
   15.17666721  119.94400024    0.30000001    2.73000002
   15.18000031  124.68499756    0.30000001    2.71000004
   15.18277836  127.21800232    0.31999999    2.71000004
   15.18388939  122.90799713    0.30000001    2.71000004
   15.18694496  118.24900055    0.30000001    2.71000004
   15.19027805  125.77999878    0.30000001    2.71000004
   15.19361115  132.07200623    0.31999999    2.71000004
   15.19666672  121.67099762    0.30000001    2.71000004
   15.20249939  121.67099762    0.30000001    2.71000004
   15.20666695  120.66600037    0.31999999    2.71000004
   15.21000004  125.24700165    0.30000001    2.71000004
   15.21305561  119.22599792    0.30000001    2.71000004
   15.21611118  127.22100067    0.30000001    2.71000004
   15.21694374  124.97200012    0.30000001    2.71000004
   15.21999931  118.28299713    0.30000001    2.71000004
   15.22333336  123.66899872    0.30000001    2.71000004
   15.22638798  125.46399689    0.30000001    2.71000004
   15.22972202  137.72000122    0.30000001    2.71000004
   15.23305511  130.97300720    0.31999999    2.71000004
   15.23611164  125.62799835    0.30000001    2.71000004
   15.23944473  127.16899872    0.30000001    2.71000004
   15.24555588  127.16899872    0.31999999    2.71000004
   15.24944496  130.79899597    0.31999999    2.71000004
   15.25277805  129.36199951    0.31999999    2.71000004
   15.25611115  127.66500092    0.30000001    2.71000004
   15.25916672  128.09399414    0.30000001    2.71000004
   15.26249981  130.78100586    0.30000001    2.71000004
   15.26555538  127.42500305    0.30000001    2.71000004
   15.26888847  128.96200562    0.30000001    2.71000004
   15.27222157  129.81500244    0.30000001    2.71000004
   15.27527714  125.11000061    0.30000001    2.71000004
   15.27861118  130.30099487    0.30000001    2.71000004
   15.28194427  126.56199646    0.30000001    2.71000004
   15.28277779  114.35800171    0.30000001    2.71000004
   15.30333328  114.35800171    0.30000001    2.71000004
   15.30749989  111.66100311    0.30000001    2.71000004
   15.31083393  118.16799927    0.30000001    2.71000004
   15.31388950  120.69899750    0.30000001    2.71000004
   15.31611156  118.68000031    0.30000001    2.71000004
   15.31777763  124.23500061    0.30000001    2.71000004
   15.32111073  127.99800110    0.30000001    2.71000004
   15.32416630  126.68199921    0.30000001    2.71000004
   15.32750034  123.54499817    0.31999999    2.71000004
   15.33055592  133.66000366    0.31999999    2.71000004
   15.33388901  128.15699768    0.30000001    2.71000004
   15.33722210  121.44499969    0.30000001    2.73000002
   15.34027767  128.64500427    0.31999999    2.73000002
   15.34611034  128.64500427    0.31999999    2.71000004
   15.35027790  121.99299622    0.30000001    2.71000004
   15.35361195  130.56799316    0.30000001    2.71000004
   15.35666752  137.92500305    0.30000001    2.71000004
   15.36000061  129.25700378    0.30000001    2.71000004
   15.36333370  132.49699402    0.30000001    2.73000002
   15.36638927  122.53800201    0.31999999    2.71000004
   15.36972237  133.08099365    0.30000001    2.71000004
   15.37277794  116.04000092    0.31999999    2.73000002
   15.37611103  135.04800415    0.30000001    2.73000002
   15.37944412  122.77300262    0.31999999    2.73000002
   15.38249969  130.58500671    0.30000001    2.71000004
   15.38305569  125.92600250    0.30000001    2.71000004
   15.38888836  125.92600250    0.30000001    2.71000004
   15.39305496  126.33999634    0.31999999    2.71000004
   15.39638901  121.39600372    0.30000001    2.73000002
   15.39944458  129.66999817    0.30000001    2.71000004
   15.40277767  132.32899475    0.30000001    2.71000004
   15.40611076  121.34100342    0.30000001    2.71000004
   15.40916634  126.20099640    0.30000001    2.71000004
   15.41249943  121.39900208    0.30000001    2.71000004
   15.41583252  113.84200287    0.31999999    2.71000004
   15.41638851  112.03700256    0.30000001    2.71000004
   15.41944504  127.22299957    0.30000001    2.71000004
   15.42250061  132.03199768    0.30000001    2.73000002
   15.42583370  129.16299438    0.30000001    2.73000002
   15.43194485  129.16299438    0.30000001    2.71000004
   15.43583298  130.07000732    0.30000001    2.73000002
   15.43916702  140.52499390    0.30000001    2.71000004
   15.44250011  125.97899628    0.30000001    2.73000002
   15.44555569  120.99900055    0.30000001    2.73000002
   15.44888878  128.75300598    0.30000001    2.71000004
   15.44972229  133.10800171    0.30000001    2.71000004
   15.45249939  126.32199860    0.30000001    2.71000004
   15.45555496  118.92299652    0.30000001    2.73000002
   15.45888901  129.75100708    0.30000001    2.73000002
   15.46222210  125.99700165    0.30000001    2.73000002
   15.46527767  125.60399628    0.30000001    2.73000002
   15.46861076  128.68600464    0.30000001    2.73000002
   15.47472191  128.68600464    0.31999999    2.73000002
   15.47888851  123.23999786    0.31999999    2.73000002
   15.48194408  132.89900208    0.30000001    2.73000002
   15.48305511  132.65299988    0.30000001    2.73000002
   15.48583317  130.01499939    0.31999999    2.73000002
   15.48888874  128.17599487    0.31999999    2.73000002
   15.49222279  140.72799683    0.30000001    2.75000000
   15.49555588  121.76599884    0.30000001    2.71000004
   15.49861145  133.31900024    0.30000001    2.73000002
   15.50194454  138.14300537    0.30000001    2.71000004
   15.50527763  129.48899841    0.31999999    2.73000002
   15.50833321  123.22200012    0.30000001    2.73000002
   15.51166630  129.53999329    0.31999999    2.71000004
   15.51749992  129.53999329    0.31999999    2.71000004
   15.52166653  126.30300140    0.30000001    2.73000002
   15.52499962  128.91400146    0.30000001    2.73000002
   15.52833271  134.52600098    0.31999999    2.73000002
   15.53138828  136.36099243    0.30000001    2.71000004
   15.53472233  142.11500549    0.30000001    2.71000004
   15.53805637  131.28599548    0.31999999    2.71000004
   15.54111195  126.02799988    0.30000001    2.71000004
   15.54444504  131.13699341    0.31999999    2.73000002
   15.54777813  135.67300415    0.30000001    2.73000002
   15.54972267  132.58200073    0.30000001    2.73000002
   15.55138874  130.26800537    0.30000001    2.73000002
   15.55472279  132.18499756    0.31999999    2.73000002
   15.56027794  132.18499756    0.30000001    2.71000004
   15.56444454  140.99299622    0.31999999    2.71000004
   15.56777763  123.23100281    0.31999999    2.71000004
   15.57083321  139.31100464    0.31999999    2.71000004
   15.57416630  136.09500122    0.31999999    2.73000002
   15.57750034  137.11900330    0.30000001    2.73000002
   15.58055592  119.08399963    0.30000001    2.73000002
   15.58305550  118.56400299    0.30000001    2.73000002
   15.58444405  127.40000153    0.30000001    2.73000002
   15.58749962  137.51699829    0.30000001    2.73000002
   15.59083271  128.45899963    0.30000001    2.73000002
   15.59416676  136.76100159    0.30000001    2.73000002
   15.59722233  145.87600708    0.30000001    2.73000002
   15.60333347  145.87600708    0.30000001    2.73000002
   15.60722256  125.47100067    0.30000001    2.71000004
   15.61055565  138.84800720    0.30000001    2.73000002
   15.61388969  127.51000214    0.30000001    2.73000002
   15.61638927  123.91400146    0.31999999    2.73000002
   15.61750031  128.72500610    0.31999999    2.73000002
   15.62055588  121.23799896    0.30000001    2.73000002
   15.62388897  139.40499878    0.30000001    2.73000002
   15.62722206  133.86999512    0.30000001    2.73000002
   15.63027763  132.54499817    0.30000001    2.73000002
   15.63361073  125.56400299    0.31999999    2.73000002
   15.63694477  124.88999939    0.31999999    2.73000002
   15.64000034  132.11999512    0.31999999    2.73000002
   15.64611053  132.11999512    0.31999999    2.73000002
   15.65027714  133.09199524    0.31999999    2.73000002
   15.65333271  126.64600372    0.31999999    2.73000002
   15.65666676  131.89300537    0.31999999    2.73000002
   15.65999985  132.48100281    0.30000001    2.73000002
   15.66305542  125.67600250    0.30000001    2.73000002
   15.66638851  131.16000366    0.30000001    2.71000004
   15.66944504  131.54600525    0.30000001    2.73000002
   15.67277813  145.11000061    0.30000001    2.73000002
   15.67611122  139.37699890    0.31999999    2.73000002
   15.67916679  126.51100159    0.30000001    2.71000004
   15.68249989  129.52600098    0.30000001    2.73000002
   15.68305588  127.51799774    0.30000001    2.73000002
   15.68888855  127.51799774    0.30000001    2.73000002
   15.69305515  125.64299774    0.30000001    2.73000002
   15.69638920  141.32699585    0.30000001    2.75000000
   15.69944477  136.13299561    0.30000001    2.73000002
   15.70277786  128.02699280    0.31999999    2.73000002
   15.70583344  120.82700348    0.30000001    2.73000002
   15.70916653  126.80699921    0.30000001    2.73000002
   15.71249962  128.19200134    0.30000001    2.71000004
   15.71555519  124.15799713    0.30000001    2.73000002
   15.71638870  133.08399963    0.30000001    2.73000002
   15.71916580  139.71299744    0.30000001    2.73000002
   15.72249985  129.06500244    0.30000001    2.73000002
   15.72555542  144.79100037    0.30000001    2.73000002
   15.73166656  144.79100037    0.30000001    2.73000002
   15.73583317  141.75300598    0.31999999    2.73000002
   15.73916721  134.16099548    0.30000001    2.73000002
   15.74250031  121.06199646    0.30000001    2.73000002
   15.74555588  123.76699829    0.30000001    2.73000002
   15.74888897  129.18800354    0.30000001    2.73000002
   15.74972248  130.48800659    0.30000001    2.73000002
   15.75249958  133.23699951    0.30000001    2.73000002
   15.75583363  134.80700684    0.31999999    2.73000002
   15.75888920  126.03900146    0.31999999    2.73000002
   15.76222229  128.91499329    0.30000001    2.75000000
   15.76527786  131.60200500    0.30000001    2.75000000
   15.76861095  135.98800659    0.31999999    2.73000002
   15.77472210  135.98800659    0.30000001    2.73000002
   15.77888870  118.51699829    0.30000001    2.73000002
   15.78194427  121.53500366    0.30000001    2.73000002
   15.78305531  127.12000275    0.30000001    2.73000002
   15.78555584  124.46399689    0.30000001    2.73000002
   15.78888893  119.77500153    0.31999999    2.73000002
   15.79194450  128.80999756    0.31999999    2.75000000
   15.79527855  130.50799561    0.31999999    2.73000002
   15.79833412  130.33799744    0.30000001    2.73000002
   15.80166721  121.12799835    0.31999999    2.75000000
   15.80500031  117.57800293    0.31999999    2.73000002
   15.80805588  130.21499634    0.30000001    2.73000002
   15.81138897  123.51599884    0.30000001    2.73000002
   15.81750011  123.51599884    0.30000001    2.75000000
   15.82166672  128.61900330    0.30000001    2.73000002
   15.82472229  132.45100403    0.30000001    2.73000002
   15.82805538  124.43499756    0.30000001    2.73000002
   15.83138847  120.70800018    0.30000001    2.73000002
   15.83444405  129.53199768    0.30000001    2.73000002
   15.83777714  122.50199890    0.30000001    2.73000002
   15.84083271  125.80899811    0.30000001    2.75000000
   15.84416676  133.11399841    0.30000001    2.73000002
   15.84749985  129.62800598    0.30000001    2.73000002
   15.84972191  124.53299713    0.30000001    2.73000002
   15.85111141  123.64399719    0.30000001    2.73000002
   15.85444450  131.63499451    0.30000001    2.73000002
   15.86055565  131.63499451    0.30000001    2.73000002
   15.86472225  132.93600464    0.30000001    2.75000000
   15.86777782  115.56500244    0.30000001    2.75000000
   15.87111092  126.01899719    0.30000001    2.73000002
   15.87416649  121.78900146    0.30000001    2.73000002
   15.87750053  122.45800018    0.30000001    2.73000002
   15.88083363  127.88099670    0.30000001    2.73000002
   15.88305569  118.16699982    0.30000001    2.73000002
   15.88444424  122.39299774    0.30000001    2.73000002
   15.88777733  117.87899780    0.30000001    2.73000002
   15.89083290  126.81300354    0.30000001    2.73000002
   15.89416695  123.27400208    0.30000001    2.75000000
   15.89722252  120.36599731    0.30000001    2.75000000
   15.90305519  120.36599731    0.30000001    2.75000000
   15.90722179  120.40399933    0.30000001    2.75000000
   15.91055489  107.06500244    0.30000001    2.75000000
   15.91361046  119.73000336    0.30000001    2.73000002
   15.91638851  129.49099731    0.30000001    2.73000002
   15.91750050  119.64800262    0.30000001    2.73000002
   15.92083359  128.79899597    0.30000001    2.73000002
   15.92388916  120.31400299    0.46000001    2.75000000
   15.92722225  130.85600281    0.38000000    2.73000002
   15.93027782  111.02100372    0.38000000    2.73000002
   15.93361092  137.98699951    0.36000001    2.73000002
   15.93694496  129.75999451    0.41999999    2.73000002
   15.94000053  120.73899841    0.41999999    2.73000002
   15.94611073  120.73899841    0.34000000    2.75000000
   15.94999981  120.63600159    0.31999999    2.75000000
   15.95333290  122.85099792    0.31999999    2.73000002
   15.95666695  135.26499939    0.31999999    2.73000002
   15.95972157  123.27200317    0.31999999    2.73000002
   15.96305561  127.32800293    0.31999999    2.73000002
   15.96638870  126.56500244    0.31999999    2.75000000
   15.96944427  124.48699951    0.31999999    2.75000000
   15.97277737  122.79199982    0.31999999    2.75000000
   15.97583294  118.16999817    0.31999999    2.75000000
   15.97916603  118.14800262    0.31999999    2.73000002
   15.98249912  124.41300201    0.34000000    2.75000000
   15.98305511  118.96499634    0.34000000    2.75000000
   15.98888874  118.96499634    0.31999999    2.73000002
   15.99305534  113.32299805    0.30000001    2.73000002
   15.99611092  135.88900757    0.31999999    2.73000002
   15.99944496  116.29399872    0.31999999    2.73000002
   16.00277710  129.34500122    0.30000001    2.75000000
   16.00583267  128.53199768    0.30000001    2.75000000
   16.00916672  115.07900238    0.28000000    2.75000000
   16.01250076  115.39800262    0.30000001    2.73000002
   16.01555634  140.83099365    0.30000001    2.75000000
   16.01638794  125.01599884    0.30000001    2.75000000
   16.01916695  150.85899353    0.30000001    2.75000000
   16.02249908  110.02999878    0.30000001    2.73000002
   16.02583313  110.62899780    0.30000001    2.73000002
   16.03166580  110.62899780    0.30000001    2.75000000
   16.03583336  123.19999695    0.28000000    2.73000002
   16.03916550  125.39399719    0.28000000    2.75000000
   16.04222107  120.04699707    0.28000000    2.75000000
   16.04555511  119.30200195    0.28000000    2.75000000
   16.04861069  123.30999756    0.30000001    2.75000000
   16.04972076  124.64099884    0.30000001    2.75000000
   16.05222130  135.22399902    0.30000001    2.75000000
   16.05555534  121.48899841    0.28000000    2.73000002
   16.05861092  125.22200012    0.28000000    2.73000002
   16.06194305  115.90499878    0.30000001    2.73000002
   16.06527710  129.39300537    0.30000001    2.73000002
   16.06833458  122.50900269    0.30000001    2.73000002
   16.07444572  122.50900269    0.30000001    2.75000000
   16.07861137  121.45099640    0.30000001    2.75000000
   16.08194542  118.44300079    0.30000001    2.73000002
   16.08305550  116.32700348    0.30000001    2.73000002
   16.08555603  114.70999908    0.30000001    2.75000000
   16.08889008  129.02999878    0.30000001    2.75000000
   16.09194565  112.00499725    0.30000001    2.73000002
   16.09527779  122.19400024    0.30000001    2.73000002
   16.09861183  125.25000000    0.30000001    2.75000000
   16.10166740  115.72599792    0.28000000    2.75000000
   16.10499954  120.55100250    0.30000001    2.75000000
   16.10805511  120.57099915    0.30000001    2.75000000
   16.11138916  125.08100128    0.30000001    2.73000002
   16.11750031  125.08100128    0.28000000    2.75000000
   16.12166595  133.83099365    0.28000000    2.75000000
   16.12472153  108.65000153    0.28000000    2.75000000
   16.12805557  109.73699951    0.30000001    2.73000002
   16.13111115  113.16699982    0.30000001    2.75000000
   16.13444519  119.26499939    0.30000001    2.75000000
   16.13777733  123.29399872    0.30000001    2.75000000
   16.14083290  120.08999634    0.30000001    2.75000000
   16.14416695  129.06300354    0.30000001    2.75000000
   16.14749908  126.23799896    0.30000001    2.75000000
   16.14999962  124.44100189    0.30000001    2.75000000
   16.15111160  126.77700043    0.30000001    2.75000000
   16.15444374  119.46900177    0.30000001    2.75000000
   16.16027832  119.46900177    0.30000001    2.75000000
   16.16444397  114.95099640    0.28000000    2.75000000
   16.16749954  109.49900055    0.30000001    2.75000000
   16.17083359  120.03399658    0.30000001    2.75000000
   16.17416573  118.16799927    0.30000001    2.73000002
   16.17722130  120.16300201    0.30000001    2.75000000
   16.18055534  119.16500092    0.30000001    2.73000002
   16.18305397  121.37500000    0.30000001    2.75000000
   16.18416595  110.17400360    0.28000000    2.75000000
   16.18750000  115.33999634    0.28000000    2.73000002
   16.19055557  118.22100067    0.28000000    2.75000000
   16.19388771  121.96700287    0.28000000    2.75000000
   16.19722176  128.36099243    0.28000000    2.73000002
   16.20305634  128.36099243    0.28000000    2.73000002
   16.20722389  119.97699738    0.28000000    2.73000002
   16.21055603  116.46800232    0.30000001    2.73000002
   16.21361160  128.67300415    0.28000000    2.73000002
   16.21666718  118.00700378    0.28000000    2.75000000
   16.21722221  123.84999847    0.30000001    2.75000000
   16.22055626  119.50900269    0.28000000    2.75000000
   16.22361183  122.06099701    0.28000000    2.73000002
   16.22694588  125.36699677    0.28000000    2.73000002
   16.23027802  112.83100128    0.28000000    2.75000000
   16.23333359  117.00000000    0.28000000    2.75000000
   16.23666763  128.88600159    0.28000000    2.75000000
   16.23999977  118.76899719    0.30000001    2.75000000
   16.24583435  118.76899719    0.28000000    2.75000000
   16.25000000  119.22699738    0.30000001    2.73000002
   16.25333405  122.36900330    0.30000001    2.75000000
   16.25666618  112.30300140    0.28000000    2.73000002
   16.25972176  124.83599854    0.28000000    2.73000002
   16.26305580  120.59100342    0.28000000    2.73000002
   16.26611137  113.78099823    0.28000000    2.73000002
   16.26944351  110.45700073    0.30000001    2.73000002
   16.27277756  113.06999969    0.30000001    2.73000002
   16.27583313  114.73300171    0.30000001    2.75000000
   16.27916718  113.15000153    0.30000001    2.73000002
   16.28249931  116.97000122    0.30000001    2.73000002
   16.28333282  112.11000061    0.30000001    2.73000002
   16.28888893  112.11000061    0.30000001    2.75000000
   16.29277802  114.58699799    0.30000001    2.75000000
   16.29611015  113.37400055    0.28000000    2.75000000
   16.29944420  125.46099854    0.30000001    2.73000002
   16.31694603  120.78399658    0.28000000    2.75000000
   16.31944466  121.98200226    0.28000000    2.75000000
   16.32250023  119.86900330    0.28000000    2.75000000
   16.32583427  107.72499847    0.28000000    2.75000000
   16.33194542  107.72499847    0.28000000    2.75000000
   16.33583450  113.97499847    0.28000000    2.75000000
   16.33944511  118.43800354    0.30000001    2.75000000
   16.34250069  113.31900024    0.30000001    2.75000000
   16.34583473  118.09100342    0.30000001    2.75000000
   16.34916687  116.62400055    0.30000001    2.75000000
   16.35027885  115.24600220    0.30000001    2.75000000
   16.35250092  121.21499634    0.30000001    2.73000002
   16.35583305  121.59999847    0.30000001    2.75000000
   16.35916710  111.40000153    0.30000001    2.75000000
   16.36222267  113.33200073    0.30000001    2.75000000
   16.36555672  115.52200317    0.30000001    2.73000002
   16.36888885  115.97699738    0.28000000    2.73000002
   16.37472153  115.97699738    0.30000001    2.75000000
   16.37888908  119.87899780    0.30000001    2.75000000
   16.38194466  117.50000000    0.30000001    2.75000000
   16.38361168  122.68900299    0.28000000    2.75000000
   16.38555527  126.70400238    0.30000001    2.75000000
   16.38888931  119.37599945    0.30000001    2.75000000
   16.39222145  114.87300110    0.30000001    2.75000000
   16.39527702  115.43599701    0.30000001    2.75000000
   16.39861107  110.31700134    0.30000001    2.75000000
   16.40166664  114.08300018    0.30000001    2.75000000
   16.40499878  124.86499786    0.30000001    2.75000000
   16.40833282  113.67099762    0.30000001    2.73000002
   16.41138840  118.25900269    0.30000001    2.73000002
   16.41749954  118.25900269    0.30000001    2.75000000
   16.42166519  115.15699768    0.30000001    2.75000000
   16.42499924  116.42600250    0.30000001    2.75000000
   16.42805481  109.63200378    0.30000001    2.73000002
   16.43138885  113.98799896    0.30000001    2.75000000
   16.43472099  108.91799927    0.30000001    2.73000002
   16.43777657  131.42300415    0.30000001    2.75000000
   16.44111061  115.84400177    0.30000001    2.75000000
   16.44444275  115.03500366    0.28000000    2.73000002
   16.44777679  114.10299683    0.28000000    2.73000002
   16.45027924  117.79699707    0.30000001    2.75000000
   16.45138931  118.70800018    0.30000001    2.75000000
   16.45472336  123.29499817    0.30000001    2.75000000
   16.46027946  123.29499817    0.30000001    2.75000000
   16.46444511  115.50199890    0.30000001    2.75000000
   16.46777916  112.19300079    0.30000001    2.75000000
   16.47083473  118.95999908    0.30000001    2.73000002
   16.47416687  110.37799835    0.30000001    2.75000000
   16.47750092  109.68599701    0.30000001    2.75000000
   16.48055649  118.44200134    0.30000001    2.75000000
   16.48361206  114.29599762    0.30000001    2.75000000
   16.48416710  115.88700104    0.30000001    2.75000000
   16.48750114  119.43399811    0.31999999    2.75000000
   16.49083328  115.07499695    0.31999999    2.75000000
   16.49388885  109.16699982    0.31999999    2.75000000
   16.49722290  114.64499664    0.31999999    2.75000000
   16.50333405  114.64499664    0.30000001    2.75000000
   16.50722313  114.91000366    0.31999999    2.75000000
   16.51055527  112.15799713    0.30000001    2.73000002
   16.51388931  117.02500153    0.30000001    2.75000000
   16.51694489  116.37000275    0.31999999    2.75000000
   16.51722145  111.46900177    0.30000001    2.75000000
   16.52055550  113.40499878    0.30000001    2.75000000
   16.52388954  107.39399719    0.30000001    2.75000000
   16.52694511  111.31400299    0.30000001    2.75000000
   16.53027725  115.87400055    0.30000001    2.75000000
   16.53361130  108.48200226    0.30000001    2.75000000
   16.53666687  115.11100006    0.30000001    2.75000000
   16.53999901  119.69200134    0.30000001    2.75000000
   16.54611015  119.69200134    0.30000001    2.75000000
   16.55027771  115.71299744    0.30000001    2.73000002
   16.55333328  117.30400085    0.30000001    2.75000000
   16.55666542  120.80500031    0.30000001    2.73000002
   16.55999947  113.06199646    0.30000001    2.75000000
   16.56305504  118.61199951    0.30000001    2.73000002
   16.56638718  118.21600342    0.30000001    2.73000002
   16.56972313  122.62699890    0.30000001    2.75000000
   16.57277870  117.41699982    0.30000001    2.75000000
   16.57611275  125.10199738    0.30000001    2.75000000
   16.57916832  118.62000275    0.30000001    2.75000000
   16.58250046  116.93399811    0.30000001    2.75000000
   16.58361244  112.93800354    0.30000001    2.75000000
   16.58889008  112.93800354    0.30000001    2.75000000
   16.59305573  120.47699738    0.30000001    2.73000002
   16.59638977  111.12999725    0.30000001    2.75000000
   16.59944534  114.98100281    0.30000001    2.73000002
   16.60277748  107.84899902    0.30000001    2.73000002
   16.60583305  109.19799805    0.30000001    2.75000000
   16.60916710  105.20800018    0.30000001    2.75000000
   16.61250114  111.82700348    0.30000001    2.73000002
   16.61555672  120.54699707    0.30000001    2.73000002
   16.61694527  113.47399902    0.30000001    2.75000000
   16.61916733  117.35199738    0.30000001    2.75000000
   16.62249947  113.93099976    0.30000001    2.75000000
   16.62583351  123.98200226    0.30000001    2.75000000
   16.63166618  123.98200226    0.30000001    2.75000000
   16.63583374  108.77500153    0.30000001    2.75000000
   16.63916588  103.55500031    0.30000001    2.75000000
   16.64222145  114.37999725    0.30000001    2.75000000
   16.64555550  115.76499939    0.30000001    2.75000000
   16.64888954  117.77999878    0.30000001    2.73000002
   16.65027809  111.50000000    0.30000001    2.73000002
   16.65222168  112.27300262    0.30000001    2.75000000
   16.65555573  122.00099945    0.30000001    2.75000000
   16.65888786  109.39499664    0.30000001    2.75000000
   16.66194344  120.66100311    0.30000001    2.75000000
   16.66527748  119.92800140    0.30000001    2.75000000
   16.66860962  116.62699890    0.30000001    2.75000000
   16.67444420  116.62699890    0.30000001    2.76999998
   16.67860985  119.34600067    0.30000001    2.75000000
   16.68194389  109.78800201    0.30000001    2.75000000
   16.68361092  107.10800171    0.30000001    2.73000002
   16.68555450  107.82900238    0.30000001    2.75000000
   16.68888855  113.41999817    0.30000001    2.75000000
   16.69222069  108.89800262    0.28000000    2.75000000
   16.69527626  113.99600220    0.28000000    2.75000000
   16.69861031  110.11199951    0.28000000    2.73000002
   16.70194435  103.32499695    0.28000000    2.75000000
   16.70499992  117.04100037    0.28000000    2.75000000
   16.70833397  120.17700195    0.28000000    2.75000000
   16.71138954  109.65499878    0.30000001    2.73000002
   16.71750069  109.65499878    0.30000001    2.75000000
   16.72166634  113.13400269    0.30000001    2.75000000
   16.72472191  113.38800049    0.30000001    2.75000000
   16.72805595  108.53700256    0.30000001    2.75000000
   16.73139000  114.86799622    0.30000001    2.75000000
   16.73444557  113.87500000    0.30000001    2.75000000
   16.73777771  117.71099854    0.30000001    2.75000000
   16.74083328  117.63099670    0.30000001    2.75000000
   16.74416733  119.71800232    0.30000001    2.73000002
   16.74749947  118.23799896    0.30000001    2.75000000
   16.75027847  116.81700134    0.30000001    2.75000000
   16.75083351  120.72899628    0.30000001    2.75000000
   16.75416756  117.32099915    0.30000001    2.75000000
   16.76027870  117.32099915    0.30000001    2.75000000
   16.76444435  107.29199982    0.30000001    2.75000000
   16.76777840  114.18399811    0.30000001    2.75000000
   16.77083397  115.59799957    0.30000001    2.73000002
   16.77416611  122.33399963    0.30000001    2.73000002
   16.77722168  119.04399872    0.28000000    2.76999998
   16.78055573  116.81700134    0.30000001    2.75000000
   16.78361130  121.49700165    0.30000001    2.75000000
   16.78416634  108.29299927    0.30000001    2.75000000
   16.78777695  107.80300140    0.28000000    2.73000002
   16.79083252  116.50000000    0.28000000    2.75000000
   16.79416656  119.85399628    0.30000001    2.73000002
   16.79722214  116.32599640    0.30000001    2.73000002
   16.80305481  116.32599640    0.28000000    2.73000002
   16.80722237  106.97699738    0.28000000    2.75000000
   16.81055450  111.43900299    0.28000000    2.75000000
   16.81361008  119.98500061    0.30000001    2.75000000
   16.81694603  120.52500153    0.30000001    2.75000000
   16.81722260  118.99299622    0.30000001    2.75000000
   16.82055664  124.49800110    0.30000001    2.73000002
   16.82389069  112.06800079    0.30000001    2.73000002
   16.82694626  119.68000031    0.30000001    2.73000002
   16.83027840  120.35500336    0.30000001    2.73000002
   16.83361244  121.36399841    0.31999999    2.75000000
   16.83666801  112.26599884    0.31999999    2.75000000
   16.84000015  105.12899780    0.31999999    2.75000000
   16.84583473  105.12899780    0.31999999    2.76999998
   16.85000038  115.55300140    0.31999999    2.73000002
   16.85055542  102.32800293    0.31999999    2.73000002
   16.85388947  124.76799774    0.31999999    2.73000002
   16.85722351  110.19400024    0.31999999    2.75000000
   16.86027908  111.79000092    0.31999999    2.73000002
   16.86361122  111.50700378    0.31999999    2.75000000
   16.86694527  122.56500244    0.30000001    2.75000000
   16.87000084  123.31099701    0.30000001    2.75000000
   16.87333298  125.49299622    0.31999999    2.75000000
   16.87666702  121.65699768    0.31999999    2.75000000
   16.87972260  112.30000305    0.31999999    2.75000000
   16.88305473  120.49400330    0.31999999    2.75000000
   16.88388824  110.87599945    0.31999999    2.75000000
   16.88888931  110.87599945    0.31999999    2.73000002
   16.89305496  114.35199738    0.31999999    2.75000000
   16.89611053  119.14199829    0.31999999    2.75000000
   16.89944458  113.75299835    0.31999999    2.75000000
   16.90250015  125.00399780    0.31999999    2.75000000
   16.90583229  117.51499939    0.31999999    2.73000002
   16.90916634  113.57599640    0.31999999    2.75000000
   16.91222191  122.87500000    0.31999999    2.75000000
   16.91555595  112.76899719    0.31999999    2.75000000
   16.91722107  119.54100037    0.31999999    2.75000000
   16.91916656  123.01000214    0.31999999    2.75000000
   16.92249870  121.36199951    0.31999999    2.75000000
   16.92555428  115.21399689    0.31999999    2.73000002
   16.93166542  115.21399689    0.31999999    2.75000000
   16.93583298  125.24800110    0.31999999    2.75000000
   16.93888855  114.01399994    0.31999999    2.75000000
   16.94222069  119.27700043    0.31999999    2.73000002
   16.94555473  115.83999634    0.31999999    2.75000000
   16.94861031  111.91699982    0.31999999    2.75000000
   16.95055580  109.81999969    0.31999999    2.75000000
   16.95222282  110.99099731    0.30000001    2.75000000
   16.95555687  117.60800171    0.30000001    2.73000002
   16.95861244  104.85399628    0.30000001    2.73000002
   16.96194458  113.53900146    0.30000001    2.73000002
   16.96500015  114.65699768    0.30000001    2.75000000
   16.96833420  120.81199646    0.30000001    2.75000000
   16.97444534  120.81199646    0.31999999    2.75000000
   16.97861099  105.54900360    0.31999999    2.75000000
   16.98194504  115.04100037    0.31999999    2.75000000
   16.98388863  111.69599915    0.30000001    2.75000000
   16.98555565  114.37400055    0.30000001    2.75000000
   16.98888969  107.49299622    0.30000001    2.75000000
   16.99194527  116.77899933    0.31999999    2.75000000
   16.99527740  115.04699707    0.31999999    2.75000000
   16.99861145  117.89700317    0.31999999    2.71000004
   17.00166702  113.09200287    0.31999999    2.75000000
   17.00499916  118.72100067    0.31999999    2.75000000
   17.00805473  113.18199921    0.31999999    2.73000002
   17.01138878  108.20099640    0.31999999    2.75000000
   17.01722145  108.20099640    0.31999999    2.75000000
   17.02138901  116.10500336    0.31999999    2.75000000
   17.02472115  112.76399994    0.31999999    2.75000000
   17.02805519  105.64299774    0.31999999    2.75000000
   17.03111076  118.15699768    0.31999999    2.75000000
   17.03444481  117.28299713    0.31999999    2.75000000
   17.03750038  117.16200256    0.31999999    2.75000000
   17.04083252  110.01100159    0.31999999    2.73000002
   17.04416656  112.64499664    0.31999999    2.75000000
   17.04722214  109.96900177    0.31999999    2.75000000
   17.05055428  117.69100189    0.31999999    2.73000002
   17.05249977  110.88999939    0.30000001    2.75000000
   17.05416679  116.01200104    0.30000001    2.75000000
   17.06027794  116.01200104    0.30000001    2.76999998
   17.06444359  116.00199890    0.30000001    2.75000000
   17.06750107  108.79699707    0.30000001    2.73000002
   17.07083511  112.30899811    0.31999999    2.73000002
   17.07389069  113.62100220    0.30000001    2.75000000
   17.07722282  115.54900360    0.30000001    2.75000000
   17.08055687  117.41999817    0.30000001    2.75000000
   17.08361244  105.72100067    0.30000001    2.75000000
   17.08583450  113.05899811    0.31999999    2.75000000
   17.08722305  107.28099823    0.31999999    2.75000000
   17.09055710  110.47399902    0.34000000    2.75000000
   17.09388924  104.44300079    0.41999999    2.75000000
   17.09694481  113.40599823    0.86000001    2.73000002
   17.10305595  113.40599823    0.56999999    2.73000002
   17.10722351  115.48300171    0.56999999    2.73000002
   17.11027908  112.19999695    0.31999999    2.73000002
   17.11361122  109.48999786    0.31999999    2.75000000
   17.11694527  116.30300140    0.30000001    2.75000000
   17.11916733  110.76899719    0.31999999    2.75000000
   17.12055588  109.83399963    0.31999999    2.73000002
   17.12388992  107.70899963    0.31999999    2.75000000
   17.12694550  113.01699829    0.30000001    2.75000000
   17.13027763  115.36100006    0.30000001    2.75000000
   17.13361168  106.92099762    0.30000001    2.75000000
   17.13666725  121.37599945    0.30000001    2.75000000
   17.13999939  109.08499908    0.31999999    2.73000002
   17.14583397  109.08499908    0.31999999    2.75000000
   17.14999962  116.15100098    0.31999999    2.75000000
   17.15250015  105.76000214    0.31999999    2.75000000
   17.15361023  105.41400146    0.34000000    2.73000002
   17.15694427  114.49800110    0.34000000    2.73000002
   17.15999985  108.81400299    0.31999999    2.75000000
   17.16333389  110.42299652    0.31999999    2.75000000
   17.16666603  106.70500183    0.31999999    2.75000000
   17.16972160  106.48300171    0.31999999    2.73000002
   17.17305565  113.88400269    0.30000001    2.75000000
   17.17611122  115.90000153    0.30000001    2.75000000
   17.17944336  120.48300171    0.30000001    2.75000000
   17.18277740  114.60600281    0.31999999    2.73000002
   17.18861008  114.60600281    0.31999999    2.75000000
   17.19277763  112.78199768    0.31999999    2.75000000
   17.19610977  109.60700226    0.36000001    2.73000002
   17.19944382  105.61900330    0.38000000    2.75000000
   17.20250130  113.02400208    0.40000001    2.75000000
   17.20583344  110.42099762    0.38000000    2.73000002
   17.20916748  106.41899872    0.38000000    2.73000002
   17.21222305  107.37899780    0.34000000    2.75000000
   17.21555710  107.83499908    0.36000001    2.73000002
   17.21888924  101.97699738    0.38000000    2.75000000
   17.21972275  101.24199677    0.38000000    2.75000000
   17.22222328  105.45800018    0.36000001    2.73000002
   17.22555542  102.87400055    0.36000001    2.73000002
   17.23166656  102.87400055    0.36000001    2.75000000
   17.23583412  110.58000183    0.36000001    2.75000000
   17.23888969  109.39199829    0.34000000    2.75000000
   17.24222183  117.64800262    0.31999999    2.73000002
   17.24527740  111.50499725    0.30000001    2.75000000
   17.24861145  122.77600098    0.30000001    2.75000000
   17.25194359  115.19000244    0.31999999    2.75000000
   17.25305557  115.38600159    0.31999999    2.75000000
   17.25527763  122.56900024    0.30000001    2.75000000
   17.25861168  107.41999817    0.30000001    2.75000000
   17.26194382  124.39900208    0.30000001    2.75000000
   17.26499939  107.39199829    0.31999999    2.73000002
   17.26833344  109.48699951    0.31999999    2.75000000
   17.27444458  109.48699951    0.31999999    2.75000000
   17.27861023  104.78199768    0.31999999    2.75000000
   17.28194427  104.33000183    0.31999999    2.75000000
   17.28499985  110.00599670    0.31999999    2.73000002
   17.28638840  103.22000122    0.31999999    2.75000000
   17.28861046  111.78900146    0.31999999    2.75000000
   17.29194450  107.05999756    0.31999999    2.71000004
   17.29500008  108.68800354    0.31999999    2.75000000
   17.29833221  114.74500275    0.31999999    2.75000000
   17.30166626  106.14199829    0.31999999    2.75000000
   17.30472183  113.60399628    0.34000000    2.75000000
   17.30805397  105.14399719    0.36000001    2.75000000
   17.31138802  110.81800079    0.38000000    2.73000002
   17.31722260  110.81800079    0.41999999    2.73000002
   17.33555603  109.27899933    0.44000000    2.73000002
   17.33889008  111.08100128    0.41999999    2.75000000
   17.34222221  103.23200226    0.41999999    2.73000002
   17.34527779  105.63899994    0.41999999    2.73000002
   17.34861183  108.38999939    0.41999999    2.75000000
   17.35194397  108.80599976    0.40000001    2.73000002
   17.35499954  111.13800049    0.40000001    2.73000002
   17.36027908  111.13800049    0.34000000    2.73000002
   17.36444473  111.57399750    0.34000000    2.73000002
   17.36777878  106.57900238    0.34000000    2.73000002
   17.36861038  106.47699738    0.34000000    2.73000002
   17.37138939  120.50800323    0.34000000    2.73000002
   17.37472153  112.55300140    0.34000000    2.73000002
   17.37777710  112.70400238    0.34000000    2.73000002
   17.38111115  115.24099731    0.34000000    2.73000002
   17.38444519  111.44300079    0.34000000    2.75000000
   17.38777733  113.70500183    0.34000000    2.73000002
   17.39083290  111.47699738    0.34000000    2.73000002
   17.39416695  110.93800354    0.34000000    2.73000002
   17.39749908  105.72899628    0.34000000    2.73000002
   17.40333366  105.72899628    0.34000000    2.75000000
   17.40749931  100.29399872    0.36000001    2.73000002
   17.41055489  100.19899750    0.36000001    2.73000002
   17.41388893  112.18099976    0.36000001    2.73000002
   17.41694450  105.55999756    0.36000001    2.75000000
   17.42027664  113.51999664    0.36000001    2.73000002
   17.42361069  107.32199860    0.36000001    2.73000002
   17.42666626  109.47799683    0.36000001    2.73000002
   17.43000031  113.17299652    0.36000001    2.75000000
   17.43333244  108.71800232    0.36000001    2.75000000
   17.43527603  111.49400330    0.36000001    2.73000002
   17.43694305  111.04399872    0.36000001    2.73000002
   17.44027710  106.77799988    0.36000001    2.73000002
   17.44610977  106.77799988    0.36000001    2.73000002
   17.45027924  128.53500366    0.36000001    2.73000002
   17.45333481  120.15899658    0.38000000    2.75000000
   17.45666695  123.57199860    0.36000001    2.75000000
   17.46000099  106.79599762    0.36000001    2.73000002
   17.46305656  103.98000336    0.38000000    2.73000002
   17.46638870  112.40399933    0.38000000    2.73000002
   17.46861076  128.72500610    0.36000001    2.73000002
   17.47000122  133.35099792    0.36000001    2.73000002
   17.47333336  117.32499695    0.36000001    2.73000002
   17.47638893  112.78600311    0.36000001    2.73000002
   17.47972298  116.36900330    0.38000000    2.73000002
   17.48305511  104.35600281    0.46000001    2.73000002
   17.48888969  104.35600281    0.41999999    2.73000002
   17.49305534   99.62999725    0.41999999    2.73000002
   17.49638939  103.50399780    0.41999999    2.73000002
   17.49944496   99.30200195    0.44000000    2.73000002
   17.50194359  101.92500305    0.40000001    2.75000000
   17.50305557  108.91699982    0.40000001    2.75000000
   17.50638962  115.71700287    0.38000000    2.73000002
   17.50944519  106.69100189    0.38000000    2.73000002
   17.51277733  109.39199829    0.38000000    2.71000004
   17.51611137  108.10199738    0.38000000    2.73000002
   17.51916695  111.86499786    0.38000000    2.73000002
   17.52249908  101.28600311    0.38000000    2.73000002
   17.52555466  114.08200073    0.38000000    2.73000002
   17.53166580  114.08200073    0.38000000    2.73000002
   17.53583336  108.48000336    0.36000001    2.73000002
   17.53916550  106.93399811    0.38000000    2.73000002
   17.54222107  108.17199707    0.36000001    2.73000002
   17.54555511  107.85099792    0.36000001    2.73000002
   17.54888916  123.88800049    0.38000000    2.73000002
   17.55194283  104.73799896    0.36000001    2.73000002
   17.55527687  116.77999878    0.38000000    2.73000002
   17.55861092  117.97399902    0.38000000    2.73000002
   17.56166649  117.62799835    0.38000000    2.75000000
   17.56499863  108.33100128    0.38000000    2.75000000
   17.56805611  103.13999939    0.38000000    2.73000002
   17.56861115  110.87699890    0.38000000    2.73000002
   17.57472229  110.87699890    0.36000001    2.71000004
   17.57888985  114.32099915    0.36000001    2.75000000
   17.58194542  111.78500366    0.36000001    2.73000002
   17.58527756  116.64299774    0.34000000    2.73000002
   17.58833313  113.68299866    0.34000000    2.73000002
   17.59166718  107.98699951    0.34000000    2.73000002
   17.59500122  105.57499695    0.34000000    2.73000002
   17.59805679  115.54799652    0.34000000    2.73000002
   17.60138893  110.87699890    0.34000000    2.73000002
   17.60222244  116.77999878    0.34000000    2.73000002
   17.60499954  114.84999847    0.34000000    2.73000002
   17.60833359  108.70400238    0.34000000    2.75000000
   17.61138916  111.10900116    0.34000000    2.73000002
   17.61750031  111.10900116    0.34000000    2.71000004
   17.62166595  107.48999786    0.34000000    2.73000002
   17.62472153  126.06600189    0.36000001    2.73000002
   17.62805557  113.87100220    0.36000001    2.73000002
   17.63138962  101.27700043    0.36000001    2.73000002
   17.63444519  108.41799927    0.36000001    2.73000002
   17.63555527  105.88300323    0.36000001    2.73000002
   17.63805580  122.16899872    0.36000001    2.73000002
   17.64138794  117.70899963    0.36000001    2.73000002
   17.64444351  102.84799957    0.36000001    2.73000002
   17.64777756   99.54859924    0.36000001    2.73000002
   17.65111160  108.68299866    0.36000001    2.73000002
   17.65444374  112.91000366    0.36000001    2.73000002
   17.66027832  112.91000366    0.36000001    2.73000002
   17.66444397  101.27400208    0.36000001    2.71000004
   17.66777802  106.82399750    0.36000001    2.73000002
   17.66888809  108.56199646    0.36000001    2.73000002
   17.67138863  104.88800049    0.36000001    2.73000002
   17.67472076  103.94200134    0.36000001    2.73000002
   17.67777634  112.54000092    0.36000001    2.73000002
   17.68111038  105.59999847    0.36000001    2.73000002
   17.68444443  104.54900360    0.36000001    2.71000004
   17.68750000  105.66200256    0.36000001    2.71000004
   17.69083214  106.21800232    0.36000001    2.73000002
   17.69388771  106.92299652    0.36000001    2.73000002
   17.69722176  111.72899628    0.36000001    2.71000004
   17.70305634  111.72899628    0.38000000    2.71000004
   17.70722389  114.67199707    0.36000001    2.73000002
   17.71055603  105.67600250    0.38000000    2.73000002
   17.71361160  100.74900055    0.36000001    2.73000002
   17.71694565  101.46800232    0.36000001    2.71000004
   17.72027779  105.02600098    0.38000000    2.73000002
   17.72333336  100.80300140    0.38000000    2.73000002
   17.72666740  114.56300354    0.38000000    2.73000002
   17.73000145  107.19899750    0.38000000    2.73000002
   17.73305511  103.34899902    0.38000000    2.73000002
   17.73555565  101.94200134    0.38000000    2.71000004
   17.73666763  100.33399963    0.38000000    2.71000004
   17.73999977  103.42199707    0.40000001    2.73000002
   17.74611092  103.42199707    0.38000000    2.75000000
   17.75000000  108.81600189    0.38000000    2.71000004
   17.75333405  109.93199921    0.38000000    2.73000002
   17.75666618  106.34500122    0.40000001    2.73000002
   17.75972176  105.74099731    0.38000000    2.71000004
   17.76305580   97.59539795    0.40000001    2.71000004
   17.76638794  102.89700317    0.38000000    2.73000002
   17.76888847  110.38800049    0.38000000    2.71000004
   17.77000046  103.79199982    0.38000000    2.71000004
   17.77333260  109.36699677    0.38000000    2.73000002
   17.77666664  110.51899719    0.40000001    2.75000000
   17.77972221  110.12899780    0.38000000    2.73000002
   17.78305435  106.36599731    0.38000000    2.73000002
   17.78888893  106.36599731    0.40000001    2.71000004
   17.79305458  108.67600250    0.38000000    2.73000002
   17.79611015  106.87500000    0.38000000    2.73000002
   17.79944420   98.15799713    0.40000001    2.73000002
   17.80222130  108.35099792    0.40000001    2.73000002
   17.80305481   98.78859711    0.40000001    2.73000002
   17.80638885  106.49099731    0.40000001    2.71000004
   17.80972099  105.30500031    0.40000001    2.71000004
   17.81277657  106.63800049    0.40000001    2.71000004
   17.81611061  112.72200012    0.40000001    2.71000004
   17.81916809   98.02700043    0.40000001    2.71000004
   17.82250023  111.21399689    0.40000001    2.73000002
   17.82583427  110.28399658    0.40000001    2.69000006
   17.83166695  110.28399658    0.40000001    2.73000002
   17.83583450  110.41799927    0.40000001    2.71000004
   17.83916664  120.45999908    0.40000001    2.71000004
   17.84222221  109.55699921    0.40000001    2.71000004
   17.84555626  105.25499725    0.40000001    2.71000004
   17.84889030  112.98999786    0.40000001    2.73000002
   17.85194397  111.76200104    0.40000001    2.71000004
   17.85527802  110.89499664    0.40000001    2.71000004
   17.85833359  110.04699707    0.40000001    2.73000002
   17.86166763  106.54799652    0.41999999    2.71000004
   17.86499977  111.26200104    0.41999999    2.71000004
   17.86805534  114.23899841    0.41999999    2.73000002
   17.86888885  100.99500275    0.41999999    2.71000004
   17.87444496  100.99500275    0.41999999    2.71000004
   17.87861061  108.28399658    0.41999999    2.71000004
   17.88194466  107.01899719    0.41999999    2.71000004
   17.88500023  105.21399689    0.41999999    2.71000004
   17.88833237  106.79000092    0.41999999    2.71000004
   17.89166641  107.59600067    0.41999999    2.73000002
   17.89500046  110.01999664    0.41999999    2.71000004
   17.89805603  108.08000183    0.41999999    2.71000004
   17.90138817  109.08399963    0.41999999    2.71000004
   17.90222168  105.73000336    0.41999999    2.71000004
   17.90499878   99.77999878    0.41999999    2.73000002
   17.90833282  103.16899872    0.41999999    2.71000004
   17.91166687  111.76799774    0.41999999    2.73000002
   17.91749954  111.76799774    0.41999999    2.71000004
   17.92138863  118.20099640    0.41999999    2.71000004
   17.92472076  110.56800079    0.40000001    2.71000004
   17.92805481  119.50599670    0.40000001    2.71000004
   17.93111038  112.82800293    0.41999999    2.71000004
   17.93444443  109.86599731    0.41999999    2.73000002
   17.93555450  123.66799927    0.41999999    2.73000002
   17.93805504  112.95800018    0.44000000    2.71000004
   17.94138718  113.15599823    0.44000000    2.71000004
   17.94472122  119.71499634    0.41999999    2.71000004
   17.94777679  117.78399658    0.44000000    2.71000004
   17.95111275  103.71900177    0.44000000    2.71000004
   17.95416832  110.17099762    0.44000000    2.73000002
   17.96027946  110.17099762    0.46000001    2.71000004
   17.96444511  109.59400177    0.47999999    2.71000004
   17.96750069  115.38099670    0.47999999    2.71000004
   17.96888924  116.71299744    0.50000000    2.71000004
   17.97111130  107.26799774    0.50000000    2.71000004
   17.97444534  128.42900085    0.51999998    2.69000006
   17.97777748  107.69999695    0.51999998    2.71000004
   17.98083305  112.40100098    0.52999997    2.71000004
   17.98416710  125.08599854    0.52999997    2.69000006
   17.98750114  121.60700226    0.52999997    2.71000004
   17.99055672  111.45200348    0.55000001    2.71000004
   17.99388885  103.48999786    0.55000001    2.71000004
   17.99722290  104.78099823    0.55000001    2.71000004
   18.00305557  104.78099823    0.58999997    2.71000004
   18.00722313  111.42800140    0.58999997    2.69000006
   18.01055527  108.16000366    0.58999997    2.71000004
   18.01361084  105.58000183    0.58999997    2.69000006
   18.01694489  115.08799744    0.56999999    2.71000004
   18.02000046  114.91100311    0.56999999    2.71000004
   18.02333260  108.48400116    0.56999999    2.71000004
   18.02666664  116.75299835    0.55000001    2.71000004
   18.02972221  112.95200348    0.55000001    2.71000004
   18.03305435  113.16100311    0.56999999    2.69000006
   18.03555489  118.10399628    0.56999999    2.71000004
   18.03666687  120.30100250    0.56999999    2.71000004
   18.03999901  117.70700073    0.56999999    2.71000004
   18.04583359  117.70700073    0.58999997    2.71000004
   18.04999924  122.00900269    0.58999997    2.71000004
   18.05333328  126.53099823    0.58999997    2.71000004
   18.05638885  128.98199463    0.58999997    2.71000004
   18.05972099  125.08399963    0.58999997    2.69000006
   18.06305504  129.27400208    0.58999997    2.71000004
   18.06611061  117.32700348    0.56999999    2.71000004
   18.06888962  127.95300293    0.56999999    2.71000004
   18.06972313  131.52900696    0.56999999    2.71000004
   18.07305717  125.27899933    0.56999999    2.71000004
   18.07638931  122.51499939    0.55000001    2.71000004
   18.07944489  120.29599762    0.55000001    2.71000004
   18.08277893  115.42900085    0.56999999    2.71000004
   18.08861160  115.42900085    0.56999999    2.69000006
   18.09277916  105.69499969    0.56999999    2.71000004
   18.09611130  117.52799988    0.56999999    2.71000004
   18.09944534  116.60199738    0.56999999    2.71000004
   18.10222244  119.07099915    0.58999997    2.69000006
   18.10277748  136.47900391    0.58999997    2.69000006
   18.10611153  108.39900208    0.58999997    2.69000006
   18.10944557  107.16300201    0.58999997    2.71000004
   18.11250114  120.49199677    0.61000001    2.69000006
   18.11583328  104.04299927    0.61000001    2.69000006
   18.11888885  119.08100128    0.61000001    2.69000006
   18.12222290  114.72799683    0.61000001    2.71000004
   18.12555504  113.08399963    0.63000000    2.71000004
   18.13166618  113.08399963    0.64999998    2.71000004
   18.13583374  108.47200012    0.64999998    2.69000006
   18.13888931  110.67800140    0.64999998    2.69000006
   18.14222145  110.31400299    0.64999998    2.69000006
   18.14555550  110.94300079    0.64999998    2.69000006
   18.14861107  115.07099915    0.64999998    2.69000006
   18.15194321  106.26100159    0.67000002    2.69000006
   18.15527725  111.11900330    0.64999998    2.69000006
   18.15833282  107.41899872    0.67000002    2.69000006
   18.16166687  109.18599701    0.67000002    2.71000004
   18.16472244  109.62999725    0.67000002    2.69000006
   18.16805458  132.29400635    0.67000002    2.71000004
   18.16888809  113.69300079    0.67000002    2.71000004
   18.17444420  113.69300079    0.64999998    2.71000004
   18.17860985  114.49700165    0.64999998    2.69000006
   18.18166542  134.12300110    0.64999998    2.69000006
   18.18499947  118.48799896    0.64999998    2.69000006
   18.18833160  104.00599670    0.64999998    2.69000006
   18.19138718  115.69899750    0.63000000    2.69000006
   18.19472122  106.63700104    0.63000000    2.71000004
   18.19805527  121.63099670    0.63000000    2.69000006
   18.20111275  116.93000031    0.61000001    2.69000006
   18.20222282  124.99800110    0.61000001    2.69000006
   18.20472336  133.06199646    0.61000001    2.71000004
   18.20805550  117.91899872    0.61000001    2.69000006
   18.21138954  111.49800110    0.58999997    2.69000006
   18.21722221  111.49800110    0.56999999    2.69000006
   18.22138977  107.61399841    0.56999999    2.69000006
   18.22472191  108.73300171    0.55000001    2.69000006
   18.22805595  115.54900360    0.55000001    2.71000004
   18.23111153  121.13800049    0.52999997    2.69000006
   18.23444557  104.10600281    0.52999997    2.71000004
   18.23555565  132.00399780    0.52999997    2.69000006
   18.23777771  119.65200043    0.52999997    2.69000006
   18.24111176  113.60900116    0.52999997    2.71000004
   18.24444389  120.62000275    0.51999998    2.69000006
   18.24749947  106.71299744    0.51999998    2.69000006
   18.25083351  110.54900360    0.51999998    2.69000006
   18.25416756  114.21800232    0.51999998    2.71000004
   18.26000023  114.21800232    0.51999998    2.69000006
   18.26416588  117.97000122    0.51999998    2.69000006
   18.26749992  113.99800110    0.51999998    2.69000006
   18.26888847  106.57700348    0.51999998    2.69000006
   18.27111053  110.38999939    0.51999998    2.71000004
   18.27444458  106.22899628    0.51999998    2.69000006
   18.27777672  113.91400146    0.51999998    2.69000006
   18.28083229  116.65899658    0.50000000    2.69000006
   18.28416634  104.05400085    0.50000000    2.69000006
   18.28722191  112.13500214    0.51999998    2.69000006
   18.29055595  106.02600098    0.51999998    2.69000006
   18.29388809  110.42700195    0.51999998    2.69000006
   18.29694366  105.42400360    0.51999998    2.69000006
   18.30305481  105.42400360    0.51999998    2.69000006
   18.30694389  108.47299957    0.52999997    2.69000006
   18.31027794  102.80799866    0.55000001    2.69000006
   18.31361008  108.20400238    0.56999999    2.69000006
   18.31666756  103.15399933    0.56999999    2.69000006
   18.32000160  119.87000275    0.56999999    2.69000006
   18.32333374  114.90100098    0.58999997    2.69000006
   18.32638931  123.98300171    0.56999999    2.69000006
   18.32972336  111.49700165    0.58999997    2.69000006
   18.33277893  112.69799805    0.61000001    2.67000008
   18.33555603  105.26999664    0.61000001    2.69000006
   18.35639000  105.26999664    0.58999997    2.69000006
   18.36055565  108.74500275    0.58999997    2.69000006
   18.36361122  114.79599762    0.58999997    2.69000006
   18.36666679  122.48300171    0.58999997    2.69000006
   18.36888885  115.62799835    0.58999997    2.69000006
   18.37027740  120.97399902    0.58999997    2.69000006
   18.37361145  109.45500183    0.58999997    2.69000006
   18.37694550  108.56800079    0.61000001    2.67000008
   18.38000107  106.77400208    0.61000001    2.69000006
   18.38333321  127.48500061    0.61000001    2.67000008
   18.38638878  111.68000031    0.61000001    2.69000006
   18.38972282  111.97200012    0.61000001    2.69000006
   18.39305496  124.02600098    0.64999998    2.69000006
   18.39888954  124.02600098    0.64999998    2.67000008
   18.40305519  115.26499939    0.64999998    2.67000008
   18.40638924  136.59300232    0.64999998    2.67000008
   18.40944481  116.36000061    0.64999998    2.69000006
   18.41277695  159.03199768    0.64999998    2.67000008
   18.41611099  125.83300018    0.64999998    2.69000006
   18.41916656  137.59199524    0.64999998    2.69000006
   18.42249870  140.51300049    0.64999998    2.67000008
   18.42555428  128.18499756    0.64999998    2.69000006
   18.42888832  161.66200256    0.64999998    2.69000006
   18.43222237  170.40699768    0.64999998    2.67000008
   18.43555450  184.85299683    0.64999998    2.67000008
   18.43583298  180.16600037    0.64999998    2.67000008
   18.44166565  180.16600037    0.67000002    2.67000008
   18.44583321  161.35200500    0.69000000    2.67000008
   18.44916534  160.53399658    0.69000000    2.67000008
   18.45250130  152.44799805    0.69000000    2.67000008
   18.45583344  174.60800171    0.70999998    2.67000008
   18.45888901  182.37100220    0.69000000    2.67000008
   18.46222305  173.29600525    0.70999998    2.67000008
   18.46555710  156.38999939    0.70999998    2.67000008
   18.46861076  142.43099976    0.73000002    2.69000006
   18.46916771  137.47900391    0.70999998    2.67000008
   18.47249985  148.79299927    0.70999998    2.67000008
   18.47555542  143.96499634    0.70999998    2.69000006
   18.47888947  128.36500549    0.70999998    2.67000008
   18.48472214  128.36500549    0.69000000    2.67000008
   18.48888969  119.73500061    0.70999998    2.67000008
   18.49222183  118.61799622    0.70999998    2.67000008
   18.49527740  141.64799500    0.69000000    2.67000008
   18.49861145  131.18299866    0.69000000    2.67000008
   18.50194359  129.57000732    0.70999998    2.67000008
   18.50250053  143.16600037    0.69000000    2.67000008
   18.50555611  128.32299805    0.69000000    2.67000008
   18.50861168  131.41000366    0.70999998    2.67000008
   18.51194382  140.64500427    0.69000000    2.67000008
   18.51527786  129.12600708    0.69000000    2.67000008
   18.51833344  121.35600281    0.69000000    2.67000008
   18.52166557  137.90899658    0.70999998    2.67000008
   18.52750015  137.90899658    0.69000000    2.66000009
   18.53166580  137.74800110    0.69000000    2.67000008
   18.53499985  128.19900513    0.67000002    2.67000008
   18.53583336  115.47599792    0.67000002    2.67000008
   18.53861046  127.02500153    0.69000000    2.66000009
   18.54166603  140.77099609    0.67000002    2.67000008
   18.54500008  116.67199707    0.67000002    2.67000008
   18.54833221  123.09100342    0.67000002    2.67000008
   18.55138779  122.82800293    0.67000002    2.67000008
   18.55472183  141.13999939    0.64999998    2.67000008
   18.55805397  131.49000549    0.64999998    2.67000008
   18.56110954  128.75799561    0.64999998    2.67000008
   18.56444359  142.23500061    0.67000002    2.67000008
   18.57055664  142.23500061    0.64999998    2.67000008
   18.57472229  140.23699951    0.64999998    2.67000008
   18.57777786  134.05200195    0.67000002    2.67000008
   18.58111191  124.54399872    0.64999998    2.67000008
   18.58416748  116.20800018    0.67000002    2.67000008
   18.58750153  123.17600250    0.64999998    2.67000008
   18.59083366  134.60000610    0.67000002    2.67000008
   18.59388924  142.19099426    0.67000002    2.67000008
   18.59722328  126.17199707    0.67000002    2.66000009
   18.60055542  134.18899536    0.67000002    2.67000008
   18.60250092  107.74800110    0.69000000    2.67000008
   18.60416794  140.32499695    0.69000000    2.67000008
   18.60722351  137.12199402    0.69000000    2.66000009
   18.61333466  137.12199402    0.69000000    2.67000008
   18.61750031  147.96299744    0.69000000    2.66000009
   18.62055588  136.92399597    0.69000000    2.66000009
   18.62388992  125.08799744    0.69000000    2.66000009
   18.62722206  141.66700745    0.69000000    2.67000008
   18.63027763  139.23199463    0.69000000    2.67000008
   18.63361168  135.24099731    0.69000000    2.67000008
   18.63583374  150.66799927    0.69000000    2.67000008
   18.63722229  117.60399628    0.69000000    2.67000008
   18.64027786  141.91600037    0.69000000    2.66000009
   18.64361191  144.15899658    0.69000000    2.66000009
   18.64694405  128.89799500    0.67000002    2.67000008
   18.64999962  127.96099854    0.69000000    2.66000009
   18.65611076  127.96099854    0.69000000    2.67000008
   18.66027832  150.79400635    0.67000002    2.66000009
   18.67055511  130.88200378    0.00000000    0.00000000
   18.67138863  130.88200378    0.00000000    0.00000000
   18.67388916  130.88200378    0.00000000    0.00000000
   18.67749977  130.88200378    0.00000000    0.00000000
   18.68111038  130.88200378    0.00000000    0.00000000
   18.68444443  130.88200378    0.00000000    0.00000000
   18.68722153  130.88200378    0.67000002    2.66000009
   18.69027710  130.88200378    0.67000002    2.66000009
   18.69333267  130.88200378    0.67000002    2.66000009
   18.69861031  130.88200378    0.67000002    2.66000009
   18.70250130  130.88200378    0.67000002    2.66000009
   18.70444489  130.88200378    0.67000002    2.66000009
   18.70555687  130.88200378    0.67000002    2.66000009
   18.70861244  130.88200378    0.67000002    2.66000009
   18.71166801  130.88200378    0.67000002    2.66000009
   18.71472359  130.88200378    0.67000002    2.66000009
   18.71777916  130.88200378    0.67000002    2.66000009
   18.72083473  130.88200378    0.75000000    2.64000010
   18.72389030  130.88200378    0.79000002    2.64000010
   18.72694588  130.88200378    0.79000002    2.66000009
   18.73000145  130.88200378    4.90999985    2.67000008
   18.73305511  130.88200378    4.90999985    2.67000008
   18.73833275  130.88200378    4.90999985    2.67000008
   18.73861122  130.88200378    4.90999985    2.67000008
