    HOUR (UT)   FLARE FACTOR    SKY TESTER    SUN TESTER
   11.97944355   -1.00000000   -1.00000000   -1.00000000
   12.01749992  152.54899597    4.07999992    2.19000006
   12.02083302  143.75300598    4.07999992    2.19000006
   12.02388859  136.20700073    4.05999994    2.19000006
   12.02722168  137.69599915    4.05999994    2.19000006
   12.03027725  142.16999817    4.05999994    2.19000006
   12.03361130  150.13499451    4.03999996    2.19000006
   12.03777790  150.13499451    4.03999996    2.19000006
   12.04194450  138.42599487    4.01999998    2.19000006
   12.04527855  148.12899780    4.01999998    2.21000004
   12.04833412  140.07299805    4.01999998    2.21000004
   12.05083370  134.09500122    4.00000000    2.21000004
   12.05194473  133.36199951    4.00000000    2.21000004
   12.05527782  139.78199768    4.00000000    2.21000004
   12.05861092  144.94099426    3.99000001    2.21000004
   12.06166649  144.41999817    3.99000001    2.21000004
   12.06500053  129.90100098    3.97000003    2.21000004
   12.06833363  127.19599915    3.97000003    2.21000004
   12.07138920  133.35800171    3.97000003    2.23000002
   12.07472229  143.88600159    3.95000005    2.23000002
   12.08055592  143.88600159    3.95000005    2.23000002
   12.08472157  133.32299805    3.93000007    2.23000002
   12.08805561  140.33700562    3.93000007    2.23000002
   12.09111118  130.53300476    3.93000007    2.23000002
   12.09444427  130.48500061    3.91000009    2.23000002
   12.09777737  133.18099976    3.91000009    2.23000002
   12.10083389  133.67900085    3.91000009    2.23000002
   12.10416698  130.59199524    3.91000009    2.23000002
   12.10750008  127.13899994    3.89000010    2.23000002
   12.11055565  132.07400513    3.89000010    2.25000000
   12.11388969  143.01400757    3.91000009    2.25000000
   12.11722279  127.87999725    3.89000010    2.25000000
   12.11777782  126.83499908    3.89000010    2.25000000
   12.12361145  126.83499908    3.86999989    2.25000000
   12.12750053  129.16200256    3.86999989    2.25000000
   12.13083363  139.37800598    3.84999990    2.25000000
   12.13416672  125.20600128    3.84999990    2.25000000
   12.13722229  137.95700073    3.84999990    2.25000000
   12.14055538  138.46899414    3.82999992    2.26999998
   12.14361095  134.06500244    3.82999992    2.25000000
   12.14694405  130.08799744    3.82999992    2.26999998
   12.15027714  144.93800354    3.80999994    2.26999998
   12.15111065  141.64500427    3.80999994    2.26999998
   12.15388870  138.64700317    3.80999994    2.26999998
   12.15722179  135.83200073    3.80999994    2.26999998
   12.16027737  137.85699463    3.80999994    2.26999998
   12.16638851  137.85699463    3.76999998    2.26999998
   12.17055607  133.61000061    3.76999998    2.26999998
   12.17361164  129.07000732    3.75000000    2.26999998
   12.17694473  131.25900269    3.75000000    2.28999996
   12.18027782  123.98899841    3.75000000    2.26999998
   12.18333340  132.92100525    3.73000002    2.26999998
   12.18444443  125.92800140    3.73000002    2.28999996
   12.18694496  127.19699860    3.73000002    2.28999996
   12.19027805  125.32900238    3.72000003    2.28999996
   12.19333363  131.66400146    3.72000003    2.28999996
   12.19666672  130.91200256    3.70000005    2.28999996
   12.19999981  129.96800232    3.68000007    2.28999996
   12.20305538  139.55200195    3.68000007    2.28999996
   12.20916653  139.55200195    3.66000009    2.28999996
   12.21333313  134.78399658    3.64000010    2.30999994
   12.21638870  128.30999756    3.64000010    2.28999996
   12.21777725  130.74899292    3.64000010    2.30999994
   12.21999931  141.69799805    3.61999989    2.30999994
   12.22333336  137.64999390    3.59999990    2.30999994
   12.22638798  128.72099304    3.61999989    2.30999994
   12.22972202  125.36399841    3.59999990    2.30999994
   12.23305511  125.77500153    3.57999992    2.30999994
   12.23611164  125.50499725    3.57999992    2.30999994
   12.23944473  131.09700012    3.55999994    2.30999994
   12.24277782  148.30000305    3.55999994    2.30999994
   12.24583340  129.62699890    3.53999996    2.30999994
   12.25194454  129.62699890    3.51999998    2.30999994
   12.25611115  134.21400452    3.51999998    2.30999994
   12.25944424  124.11900330    3.51999998    2.32999992
   12.26249981  130.04499817    3.50000000    2.32999992
   12.26583290  123.90599823    3.50000000    2.32999992
   12.26916599  119.33999634    3.48000002    2.32999992
   12.27222157  124.94000244    3.48000002    2.32999992
   12.27555561  126.04900360    3.46000004    2.32999992
   12.27888870  129.83799744    3.46000004    2.32999992
   12.28194427  131.87300110    3.46000004    2.32999992
   12.28444481  133.81500244    3.45000005    2.32999992
   12.28555584  132.04200745    3.46000004    2.32999992
   12.28888893  125.08599854    3.45000005    2.32999992
   12.29472256  125.08599854    3.43000007    2.32999992
   12.29888916  120.46299744    3.43000007    2.34999990
   12.30222225  124.89299774    3.43000007    2.34999990
   12.30555534  119.21299744    3.41000009    2.34999990
   12.30861092  126.41000366    3.41000009    2.32999992
   12.31194496  135.52400208    3.39000010    2.34999990
   12.31500053  122.34500122    3.39000010    2.34999990
   12.31777763  120.68299866    3.39000010    2.34999990
   12.31861115  125.96900177    3.39000010    2.34999990
   12.32194424  128.20300293    3.36999989    2.34999990
   12.32527733  133.83200073    3.36999989    2.34999990
   12.32833290  132.37600708    3.34999990    2.34999990
   12.33166695  126.83300018    3.34999990    2.36999989
   12.33777714  126.83300018    3.34999990    2.34999990
   12.34194374  133.72999573    3.32999992    2.36999989
   12.34499931  125.70099640    3.32999992    2.34999990
   12.34833336  124.50299835    3.30999994    2.36999989
   12.35111141  125.99600220    3.30999994    2.36999989
   12.35194492  124.94200134    3.30999994    2.36999989
   12.35527802  134.67300415    3.30999994    2.36999989
   12.35833359  124.01200104    3.28999996    2.36999989
   12.36166668  119.76100159    3.28999996    2.36999989
   12.36500072  122.11199951    3.28999996    2.36999989
   12.36805534  124.57499695    3.28999996    2.36999989
   12.37138939  116.18599701    3.28999996    2.39000010
   12.37472248  124.16000366    3.26999998    2.39000010
   12.38055611  124.16000366    3.25000000    2.36999989
   12.38472176  129.21299744    3.23000002    2.39000010
   12.38777733  118.81900024    3.23000002    2.39000010
   12.39111137  118.58599854    3.23000002    2.39000010
   12.39444447  123.62000275    3.21000004    2.39000010
   12.39750004  151.68299866    3.21000004    2.39000010
   12.40083313  143.20899963    3.20000005    2.40000010
   12.40416622  127.85700226    3.20000005    2.40000010
   12.40722179  137.41600037    3.18000007    2.40000010
   12.41055489  143.54499817    3.18000007    2.40000010
   12.41361046  127.98300171    3.18000007    2.39000010
   12.41694450  141.86900330    3.16000009    2.40000010
   12.41777802  128.38800049    3.16000009    2.39000010
   12.42333412  128.38800049    3.14000010    2.39000010
   12.42750072  114.12999725    3.11999989    2.40000010
   12.43083382  117.36199951    3.11999989    2.40000010
   12.43388939  122.21800232    3.11999989    2.40000010
   12.43722248  126.70099640    3.09999990    2.40000010
   12.44055557  122.97000122    3.09999990    2.40000010
   12.44361115  128.99400330    3.09999990    2.40000010
   12.44694424  132.68099976    3.07999992    2.40000010
   12.44999981  158.61999512    3.07999992    2.40000010
   12.45111084  132.42900085    3.07999992    2.40000010
   12.45361137  122.66100311    3.05999994    2.40000010
   12.45694447  117.21299744    3.05999994    2.42000008
   12.46027756  117.93900299    3.05999994    2.40000010
   12.46611118  117.93900299    3.03999996    2.40000010
   12.47027779  135.53500366    3.03999996    2.42000008
   12.47361088  121.33100128    3.03999996    2.42000008
   12.47694397  116.73000336    3.01999998    2.42000008
   12.47999954  117.57599640    3.01999998    2.42000008
   12.48333359  117.21099854    3.00000000    2.42000008
   12.48444462  142.46400452    3.00000000    2.42000008
   12.48694515  120.23100281    2.98000002    2.42000008
   12.49027824  125.34200287    3.00000000    2.42000008
   12.49361134  125.82199860    2.98000002    2.42000008
   12.49666691  119.84700012    2.98000002    2.42000008
   12.50000000  115.86299896    2.96000004    2.42000008
   12.50305557  109.64700317    2.96000004    2.42000008
   12.50916672  109.64700317    2.94000006    2.44000006
   12.51333332  118.55000305    2.94000006    2.44000006
   12.51638889  114.88200378    2.94000006    2.44000006
   12.51777744  125.83100128    2.94000006    2.44000006
   12.52027798  117.75499725    2.93000007    2.44000006
   12.52333355  121.33699799    2.93000007    2.44000006
   12.52666664  124.19799805    2.93000007    2.44000006
   12.52999973  128.79499817    2.93000007    2.42000008
   12.53305531  113.29799652    2.91000009    2.44000006
   12.53638935  103.79599762    2.91000009    2.44000006
   12.53944492  101.59500122    2.91000009    2.44000006
   12.54277802  120.33999634    2.91000009    2.46000004
   12.54611111  116.14199829    2.91000009    2.46000004
   12.55194473  116.14199829    2.91000009    2.44000006
   12.55611134  101.14499664    2.91000009    2.46000004
   12.55916691  113.75099945    2.91000009    2.46000004
   12.56250000  120.96499634    2.89000010    2.46000004
   12.56583309  122.92099762    2.89000010    2.46000004
   12.56888866  112.51300049    2.89000010    2.46000004
   12.57222176  113.07700348    2.89000010    2.46000004
   12.57555580  121.31999969    2.86999989    2.46000004
   12.57861137  104.22599792    2.86999989    2.44000006
   12.58194447  107.62599945    2.86999989    2.46000004
   12.58444405  111.37200165    2.86999989    2.46000004
   12.58555508  123.18800354    2.84999990    2.46000004
   12.58888817  124.02300262    2.84999990    2.46000004
   12.59472179  124.02300262    2.82999992    2.46000004
   12.59888840  107.69100189    2.82999992    2.46000004
   12.60222244  127.68299866    2.82999992    2.46000004
   12.60527802  130.72399902    2.82999992    2.46000004
   12.60861111  118.14700317    2.80999994    2.46000004
   12.61194515  126.56900024    2.80999994    2.46000004
   12.61500072  117.89099884    2.78999996    2.46000004
   12.61777782  115.04100037    2.78999996    2.48000002
   12.61861134  113.68699646    2.78999996    2.46000004
   12.62194443  121.29399872    2.78999996    2.46000004
   12.62527752  115.77500153    2.78999996    2.48000002
   12.62833309  131.25999451    2.78999996    2.46000004
   12.63166714  119.81900024    2.78999996    2.46000004
   12.63749981  119.81900024    2.76999998    2.48000002
   12.64166641  133.41799927    2.76999998    2.48000002
   12.64499950  136.32800293    2.75000000    2.48000002
   12.64833355  124.10500336    2.75000000    2.48000002
   12.65111065  116.01899719    2.75000000    2.48000002
   12.65166664  122.78399658    2.75000000    2.48000002
   12.65499973  110.72899628    2.75000000    2.48000002
   12.65833282  122.48300171    2.73000002    2.48000002
   12.66138840  135.72099304    2.73000002    2.48000002
   12.66472149  125.48000336    2.71000004    2.48000002
   12.66805553  118.90200043    2.71000004    2.48000002
   12.67111111  124.35399628    2.71000004    2.48000002
   12.67444515  113.84500122    2.69000006    2.48000002
   12.68055630  113.84500122    2.69000006    2.48000002
   12.68472195  116.35299683    2.69000006    2.48000002
   12.68777752  129.25900269    2.69000006    2.48000002
   12.69111156  118.63400269    2.67000008    2.50000000
   12.69416714  113.29399872    2.67000008    2.50000000
   12.69750023  110.82299805    2.67000008    2.50000000
   12.70083332  119.39600372    2.67000008    2.50000000
   12.70388889  123.80999756    2.67000008    2.48000002
   12.70722198  108.90499878    2.67000008    2.50000000
   12.71055508  113.39700317    2.66000009    2.50000000
   12.71361065  125.52400208    2.66000009    2.50000000
   12.71694374  132.64599609    2.66000009    2.50000000
   12.71777725  110.94699860    2.66000009    2.50000000
   12.72333336  110.94699860    2.66000009    2.50000000
   12.72749996  127.98100281    2.64000010    2.51999998
   12.73055553  124.86399841    2.64000010    2.50000000
   12.73388958  109.50800323    2.64000010    2.50000000
   12.73722267  108.59300232    2.61999989    2.50000000
   12.74027824  111.65699768    2.61999989    2.50000000
   12.74361134  113.49600220    2.59999990    2.50000000
   12.74694443  122.12699890    2.59999990    2.50000000
   12.75000000  115.12000275    2.57999992    2.51999998
   12.75111103  113.78500366    2.59999990    2.51999998
   12.75361156  108.95999908    2.57999992    2.51999998
   12.75694466  122.53900146    2.57999992    2.51999998
   12.76027775  116.16100311    2.55999994    2.51999998
   12.76611137  116.16100311    2.55999994    2.51999998
   12.77027798  123.05899811    2.53999996    2.51999998
   12.77361107  108.13400269    2.51999998    2.51999998
   12.77666664  114.78800201    2.51999998    2.53999996
   12.77999973  112.43800354    2.50000000    2.51999998
   12.78333378  110.01100159    2.50000000    2.51999998
   12.78444481  108.12100220    2.50000000    2.53999996
   12.78666687  114.30100250    2.50000000    2.51999998
   12.79000092  110.62000275    2.50000000    2.53999996
   12.79333401  110.97399902    2.48000002    2.51999998
   12.79638958  118.99299622    2.48000002    2.51999998
   12.79972267  106.51699829    2.46000004    2.51999998
   12.80305576  111.41500092    2.46000004    2.51999998
   12.80888939  111.41500092    2.46000004    2.51999998
   12.81305599  112.35900116    2.46000004    2.51999998
   12.81638908  107.46900177    2.44000006    2.53999996
   12.81777763  114.11000061    2.44000006    2.53999996
   12.82027817  110.73999786    2.44000006    2.53999996
   12.82333374  131.89799500    2.44000006    2.53999996
   12.82666683  107.85199738    2.44000006    2.53999996
   12.82972240  116.44100189    2.44000006    2.53999996
   12.83305550  111.04900360    2.42000008    2.53999996
   12.83638859  111.25900269    2.42000008    2.53999996
   12.83944416  108.63099670    2.42000008    2.53999996
   12.84277725  108.68199921    2.42000008    2.53999996
   12.84611034  115.16999817    2.44000006    2.53999996
   12.85194492  115.16999817    2.42000008    2.53999996
   12.85583401  107.71900177    2.42000008    2.53999996
   12.85916710  107.90200043    2.42000008    2.53999996
   12.86250019  114.81400299    2.42000008    2.53999996
   12.86555576  114.11900330    2.40000010    2.55999994
   12.86888885  114.95700073    2.40000010    2.53999996
   12.87222195  110.64199829    2.40000010    2.53999996
   12.87527752  110.91999817    2.39000010    2.53999996
   12.87861156  107.02400208    2.39000010    2.53999996
   12.88166714  109.06400299    2.39000010    2.55999994
   12.88444424  109.44699860    2.39000010    2.53999996
   12.88555527  109.55000305    2.39000010    2.53999996
   12.88861084  115.15000153    2.36999989    2.55999994
   12.89472198  115.15000153    2.36999989    2.55999994
   12.89888859  115.85399628    2.36999989    2.55999994
   12.90194416  113.97200012    2.36999989    2.55999994
   12.90527725  114.63200378    2.34999990    2.55999994
   12.90861034  112.67199707    2.34999990    2.55999994
   12.91166592  111.53500366    2.34999990    2.55999994
   12.91499996  107.23200226    2.32999992    2.55999994
   12.91777802  109.74800110    2.32999992    2.55999994
   12.91861153  109.64399719    2.32999992    2.55999994
   12.92166710  109.61900330    2.32999992    2.53999996
   12.92500019  107.38700104    2.32999992    2.55999994
   12.92805576  109.02200317    2.30999994    2.55999994
   12.93138885  133.69599915    2.28999996    2.55999994
   12.93750000  133.69599915    2.26999998    2.57999992
   12.94166660  114.52999878    2.26999998    2.55999994
   12.94499969  112.62599945    2.26999998    2.55999994
   12.94805527  113.32299805    2.26999998    2.57999992
   12.95111084  110.07299805    2.25000000    2.57999992
   12.95194435  106.47899628    2.25000000    2.57999992
   12.95499992  113.25499725    2.25000000    2.55999994
   12.95833302  111.75099945    2.25000000    2.55999994
   12.96138859  110.34400177    2.23000002    2.55999994
   12.96472168  116.10299683    2.23000002    2.55999994
   12.96805477  107.98500061    2.23000002    2.55999994
   12.97111034  115.37999725    2.23000002    2.57999992
   12.97444439  117.32299805    2.23000002    2.55999994
   12.98027706  117.32299805    2.21000004    2.57999992
   12.98444462  110.57499695    2.23000002    2.59999990
   12.98777771  112.72899628    2.21000004    2.59999990
   12.99083328  111.76699829    2.21000004    2.57999992
   12.99416733  110.91799927    2.21000004    2.57999992
   12.99750042  107.87999725    2.21000004    2.57999992
   13.00055599  110.37799835    2.21000004    2.57999992
   13.00388908  106.86699677    2.21000004    2.59999990
   13.00722218  107.14800262    2.21000004    2.59999990
   13.01027775  108.55000305    2.21000004    2.57999992
   13.01361084  105.53800201    2.21000004    2.59999990
   13.01666641  113.45400238    2.21000004    2.57999992
   13.01777744  117.12000275    2.21000004    2.57999992
   13.03833389  117.12000275    2.21000004    2.57999992
   13.04250050  101.34999847    2.21000004    2.59999990
   13.04583359  107.96199799    2.21000004    2.59999990
   13.04888916  109.43000031    2.21000004    2.59999990
   13.05111122  106.64099884    2.19000006    2.59999990
   13.05277824  105.10600281    2.19000006    2.57999992
   13.05583382  102.20800018    2.19000006    2.57999992
   13.05916691  108.63400269    2.19000006    2.57999992
   13.06250000  108.62400055    2.19000006    2.59999990
   13.06555557  105.31099701    2.17000008    2.59999990
   13.06888866  115.14800262    2.17000008    2.59999990
   13.07222176  106.73200226    2.17000008    2.59999990
   13.07527733  111.88400269    2.17000008    2.59999990
   13.08111095  111.88400269    2.17000008    2.59999990
   13.08527756  108.01899719    2.17000008    2.59999990
   13.08861065  111.86599731    2.17000008    2.61999989
   13.09166622  110.17900085    2.17000008    2.59999990
   13.09499931  107.92900085    2.17000008    2.59999990
   13.09833336  111.42800140    2.15000010    2.59999990
   13.10138893  110.87100220    2.17000008    2.59999990
   13.10472298  110.03700256    2.15000010    2.59999990
   13.10777855  117.97399902    2.15000010    2.59999990
   13.11111164  114.58899689    2.17000008    2.61999989
   13.11444473  116.85600281    2.17000008    2.61999989
   13.11750031  112.05100250    2.15000010    2.59999990
   13.11805534  109.33300018    2.15000010    2.59999990
   13.12388897  109.33300018    2.15000010    2.61999989
   13.12805557  114.08899689    2.15000010    2.61999989
   13.13138866  114.99199677    2.15000010    2.61999989
   13.13472176  107.11499786    2.15000010    2.61999989
   13.13777733  112.61699677    2.15000010    2.61999989
   13.14111137  111.05500031    2.15000010    2.59999990
   13.14416695  111.20800018    2.15000010    2.61999989
   13.14750004  116.77899933    2.15000010    2.61999989
   13.15083313  110.20400238    2.15000010    2.61999989
   13.15138817  113.27100372    2.15000010    2.61999989
   13.15444374  117.05599976    2.15000010    2.61999989
   13.15777779  118.51100159    2.15000010    2.64000010
   13.16083336  105.90599823    2.15000010    2.61999989
   13.16694450  105.90599823    2.13000011    2.61999989
   13.17111111  111.10299683    2.13000011    2.61999989
   13.17416668  108.55599976    2.15000010    2.61999989
   13.17750072  110.64700317    2.13000011    2.61999989
   13.18055630  116.05100250    2.13000011    2.61999989
   13.18388939  121.91699982    2.11999989    2.61999989
   13.18472195  116.27300262    2.11999989    2.61999989
   13.18750000  107.62699890    2.13000011    2.61999989
   13.19083309  110.01499939    2.11999989    2.64000010
   13.19388866  111.51599884    2.11999989    2.61999989
   13.19722271  117.30799866    2.11999989    2.61999989
   13.20027733  110.66400146    2.11999989    2.64000010
   13.20361137  108.94300079    2.11999989    2.61999989
   13.20972157  108.94300079    2.09999990    2.61999989
   13.21388912  117.02799988    2.09999990    2.64000010
   13.21722221  111.50099945    2.09999990    2.64000010
   13.21833324  108.88300323    2.09999990    2.64000010
   13.22083282  110.41000366    2.09999990    2.64000010
   13.22416592  116.37799835    2.11999989    2.64000010
   13.22722149  109.72799683    2.11999989    2.64000010
   13.23055553  106.88899994    2.09999990    2.64000010
   13.23388958  112.68199921    2.11999989    2.64000010
   13.23694515  120.24299622    2.09999990    2.64000010
   13.24027824  113.61000061    2.11999989    2.64000010
   13.24361134  113.72100067    2.11999989    2.64000010
   13.24666691  112.54199982    2.11999989    2.64000010
   13.25249958  112.54199982    2.11999989    2.61999989
   13.25666714  115.64700317    2.09999990    2.61999989
   13.26000023  111.26200104    2.09999990    2.61999989
   13.26333332  117.01699829    2.11999989    2.64000010
   13.26638889  108.63899994    2.09999990    2.64000010
   13.26972198  122.51300049    2.09999990    2.61999989
   13.27277756  107.55599976    2.09999990    2.64000010
   13.27611065  116.48100281    2.09999990    2.64000010
   13.27944374  120.90299988    2.09999990    2.61999989
   13.28249931  114.78199768    2.09999990    2.64000010
   13.28500080  114.19499969    2.09999990    2.64000010
   13.28611183  111.94400024    2.09999990    2.64000010
   13.28944492  113.23799896    2.09999990    2.64000010
   13.29527855  113.23799896    2.09999990    2.64000010
   13.29944515  113.51999664    2.09999990    2.64000010
   13.30277824  109.12899780    2.09999990    2.64000010
   13.30583382  107.04499817    2.09999990    2.64000010
   13.30916691  110.30400085    2.09999990    2.66000009
   13.31250000  107.13500214    2.09999990    2.64000010
   13.31555557  113.77300262    2.09999990    2.64000010
   13.31805515  112.76999664    2.09999990    2.66000009
   13.31916618  108.49199677    2.09999990    2.66000009
   13.32250023  109.51599884    2.09999990    2.64000010
   13.32555580  109.40599823    2.09999990    2.64000010
   13.32888889  111.70800018    2.09999990    2.64000010
   13.33222198  114.75099945    2.09999990    2.66000009
   13.33833313  114.75099945    2.09999990    2.66000009
   13.34249973  107.45500183    2.07999992    2.66000009
   13.34555531  115.33999634    2.09999990    2.64000010
   13.34888840  120.38300323    2.07999992    2.64000010
   13.35138893  106.69499969    2.07999992    2.66000009
   13.35249996  114.20200348    2.07999992    2.66000009
   13.35583401  114.15899658    2.07999992    2.64000010
   13.35888958  113.71700287    2.07999992    2.64000010
   13.36222267  115.65299988    2.07999992    2.64000010
   13.36555576  110.33200073    2.07999992    2.66000009
   13.36861134  110.98600006    2.07999992    2.66000009
   13.37194443  115.07199860    2.07999992    2.66000009
   13.37500000  114.31900024    2.05999994    2.66000009
   13.38111115  114.31900024    2.05999994    2.66000009
   13.38527775  110.12000275    2.05999994    2.66000009
   13.38833332  115.42700195    2.05999994    2.66000009
   13.39166641  114.73400116    2.07999992    2.66000009
   13.39499950  111.09799957    2.05999994    2.64000010
   13.39805508  112.69300079    2.05999994    2.66000009
   13.40138817  111.28099823    2.05999994    2.66000009
   13.40444374  110.86000061    2.07999992    2.66000009
   13.40777779  121.16500092    2.05999994    2.66000009
   13.41111088  118.17900085    2.05999994    2.67000008
   13.41416645  116.36799622    2.07999992    2.66000009
   13.41750050  111.76100159    2.07999992    2.66000009
   13.41805553  113.72000122    2.07999992    2.66000009
   13.42388916  113.72000122    2.07999992    2.64000010
   13.42805576  106.94300079    2.07999992    2.66000009
   13.43138885  119.13099670    2.09999990    2.66000009
   13.43444443  110.48699951    2.09999990    2.67000008
   13.43777752  104.27500153    2.09999990    2.66000009
   13.44111156  105.29799652    2.09999990    2.66000009
   13.44416714  109.88400269    2.09999990    2.67000008
   13.44750023  113.93499756    2.07999992    2.67000008
   13.45055580  109.19100189    2.09999990    2.67000008
   13.45138836  114.29100037    2.07999992    2.66000009
   13.45416641  111.36199951    2.07999992    2.66000009
   13.45749950  109.50700378    2.07999992    2.66000009
   13.46055508  120.22299957    2.07999992    2.66000009
   13.46666622  120.22299957    2.07999992    2.66000009
   13.47083282  117.37500000    2.07999992    2.66000009
   13.47416592  123.74500275    2.07999992    2.67000008
   13.47722149  130.25399780    2.07999992    2.66000009
   13.48055553  128.89900208    2.07999992    2.67000008
   13.48388958  118.71499634    2.07999992    2.67000008
   13.48472214  131.59199524    2.05999994    2.67000008
   13.48750019  111.69499969    2.05999994    2.67000008
   13.49083328  121.54100037    2.05999994    2.67000008
   13.49388885  112.09200287    2.05999994    2.66000009
   13.49722290  129.46000671    2.05999994    2.66000009
   13.50055599  130.19799805    2.05999994    2.67000008
   13.50361156  118.50000000    2.03999996    2.66000009
   13.50972176  118.50000000    2.05999994    2.67000008
   13.51361084  106.66600037    2.03999996    2.67000008
   13.51694393  113.62300110    2.03999996    2.67000008
   13.51805496  108.39099884    2.03999996    2.67000008
   13.52055550  111.26899719    2.03999996    2.67000008
   13.52388859  110.58200073    2.03999996    2.67000008
   13.52694416  112.73500061    2.03999996    2.67000008
   13.53027725  117.09799957    2.03999996    2.67000008
   13.53361130  114.65899658    2.03999996    2.69000006
   13.53666687  109.54699707    2.03999996    2.69000006
   13.54000092  126.35399628    2.03999996    2.69000006
   13.54305553  117.04599762    2.03999996    2.67000008
   13.54638958  118.32700348    2.03999996    2.66000009
   13.55249977  118.32700348    2.03999996    2.67000008
   13.55666733  114.26799774    2.03999996    2.69000006
   13.55972195  120.54000092    2.05999994    2.67000008
   13.56305599  116.65200043    2.05999994    2.67000008
   13.56638908  115.46299744    2.05999994    2.67000008
   13.56944466  118.19200134    2.07999992    2.67000008
   13.57277775  120.34400177    2.07999992    2.67000008
   13.57583332  129.08000183    2.07999992    2.67000008
   13.57916641  128.45899963    2.07999992    2.67000008
   13.58249950  141.99299622    2.09999990    2.67000008
   13.58472157  125.24600220    2.09999990    2.69000006
   13.58611107  122.90200043    2.09999990    2.69000006
   13.58944416  138.37399292    2.09999990    2.67000008
   13.59527779  138.37399292    2.09999990    2.69000006
   13.59944439  115.94699860    2.09999990    2.67000008
   13.60277843  137.49699402    2.09999990    2.67000008
   13.60583401  151.68400574    2.09999990    2.69000006
   13.60916710  146.50999451    2.09999990    2.67000008
   13.61222267  137.51199341    2.09999990    2.67000008
   13.61555576  145.55599976    2.09999990    2.69000006
   13.61805534  138.62100220    2.09999990    2.69000006
   13.61916637  143.72500610    2.09999990    2.69000006
   13.62250042  123.38899994    2.09999990    2.69000006
   13.62555599  142.64700317    2.09999990    2.67000008
   13.62888908  128.64100647    2.09999990    2.69000006
   13.63222218  121.96499634    2.07999992    2.69000006
   13.63805580  121.96499634    2.07999992    2.69000006
   13.64222240  145.46000671    2.05999994    2.69000006
   13.64555550  135.75700378    2.07999992    2.69000006
   13.64861107  138.99699402    2.05999994    2.67000008
   13.65166664  120.24199677    2.07999992    2.69000006
   13.65222168  129.49200439    2.07999992    2.69000006
   13.65583324  126.53399658    2.05999994    2.69000006
   13.65916634  118.18599701    2.03999996    2.69000006
   13.66222191  136.67300415    2.03999996    2.71000004
   13.66555500  125.10800171    2.01999998    2.71000004
   13.66888905  130.61399841    2.01999998    2.69000006
   13.67194462  132.88699341    2.01999998    2.69000006
   13.67527771  132.78799438    2.01999998    2.69000006
   13.68111134  132.78799438    2.00000000    2.69000006
   13.68500042  128.27900696    2.00000000    2.69000006
   13.68833351  109.77200317    2.00000000    2.69000006
   13.69166660  127.46900177    1.98000002    2.71000004
   13.69472218  126.92400360    2.00000000    2.69000006
   13.69805527  132.24000549    2.00000000    2.71000004
   13.70138836  124.62799835    1.98000002    2.69000006
   13.70444393  124.46099854    1.98000002    2.69000006
   13.70777798  112.65899658    1.98000002    2.69000006
   13.71083355  128.65100098    1.98000002    2.69000006
   13.71416664  123.49600220    1.98000002    2.69000006
   13.71749973  116.00299835    2.00000000    2.71000004
   13.71833324  124.13600159    2.00000000    2.71000004
   13.72388840  124.13600159    2.00000000    2.69000006
   13.72805500  124.30400085    2.00000000    2.71000004
   13.73111057  125.98500061    1.98000002    2.71000004
   13.73444462  118.51200104    2.00000000    2.71000004
   13.73777771  125.54599762    2.00000000    2.69000006
   13.74083328  130.35699463    1.98000002    2.69000006
   13.74416733  135.29200745    1.98000002    2.69000006
   13.74750042  141.79899597    1.98000002    2.69000006
   13.75055599  133.27499390    1.98000002    2.69000006
   13.75166702  118.19499969    1.98000002    2.69000006
   13.75416660  125.45899963    1.98000002    2.71000004
   13.75749969  122.94200134    2.00000000    2.71000004
   13.76055527  130.81300354    1.98000002    2.69000006
   13.76666641  130.81300354    1.98000002    2.69000006
   13.77083302  118.14199829    1.98000002    2.71000004
   13.77416611  125.87999725    1.98000002    2.69000006
   13.77722168  120.98200226    1.98000002    2.69000006
   13.78055573  124.18000031    1.98000002    2.69000006
   13.78361130  135.82699585    1.98000002    2.71000004
   13.78500080  127.20300293    1.98000002    2.71000004
   13.78722286  117.66799927    1.98000002    2.69000006
   13.79055595  125.73000336    1.98000002    2.69000006
   13.79361153  117.31300354    1.98000002    2.71000004
   13.79694462  126.42900085    1.98000002    2.71000004
   13.80027771  127.09500122    1.98000002    2.69000006
   13.80333328  121.17900085    1.98000002    2.71000004
   13.80944443  121.17900085    1.96000004    2.71000004
   13.81361103  127.82299805    1.96000004    2.71000004
   13.81694412  107.67299652    1.96000004    2.71000004
   13.81833363  117.86799622    1.96000004    2.71000004
   13.82055569  124.76799774    1.96000004    2.71000004
   13.82388878  120.72599792    1.96000004    2.71000004
   13.82722187  124.35800171    1.96000004    2.71000004
   13.83027744  121.60099792    1.94000006    2.71000004
   13.83361053  121.55599976    1.94000006    2.71000004
   13.83666611  120.66899872    1.94000006    2.71000004
   13.84000015  119.84899902    1.94000006    2.71000004
   13.84333324  114.68699646    1.94000006    2.71000004
   13.84638882  126.93099976    1.94000006    2.71000004
   13.85249996  126.93099976    1.91999996    2.71000004
   13.85638905  115.33999634    1.94000006    2.71000004
   13.85972214  115.51899719    1.91999996    2.71000004
   13.86305618  123.49099731    1.91999996    2.71000004
   13.86611176  122.98200226    1.91999996    2.73000002
   13.86944485  122.08999634    1.91999996    2.73000002
   13.87277794  121.19699860    1.91999996    2.71000004
   13.87583351  116.47699738    1.91999996    2.73000002
   13.87916660  111.76599884    1.91999996    2.73000002
   13.88222218  115.70300293    1.91999996    2.71000004
   13.88500023  119.08000183    1.91999996    2.73000002
   13.88583279  108.65499878    1.91999996    2.71000004
   13.88916683  121.56999969    1.89999998    2.71000004
   13.89527798  121.56999969    1.89999998    2.71000004
   13.89944458  117.90399933    1.91999996    2.71000004
   13.90249920  126.06500244    1.91999996    2.73000002
   13.90583324  117.91799927    1.89999998    2.73000002
   13.90916634  119.42800140    1.89999998    2.73000002
   13.91222191  117.59700012    1.89999998    2.71000004
   13.91555500  113.08200073    1.89999998    2.73000002
   13.91833401  113.63999939    1.89999998    2.71000004
   13.91916656  114.43900299    1.89999998    2.73000002
   13.92250061  115.99700165    1.89999998    2.73000002
   13.92583370  116.17700195    1.89999998    2.73000002
   13.92888927  108.53099823    1.89999998    2.73000002
   13.93222237  112.79199982    1.88000000    2.73000002
   13.93805599  112.79199982    1.88000000    2.71000004
   13.94222260  110.90899658    1.88000000    2.73000002
   13.94555569  116.15799713    1.88000000    2.73000002
   13.94861126  116.41200256    1.86000001    2.73000002
   13.95166683  114.69599915    1.88000000    2.73000002
   13.95222187  116.53900146    1.86000001    2.73000002
   13.95555496  118.79799652    1.86000001    2.73000002
   13.95888901  116.19799805    1.86000001    2.73000002
   13.96194458  115.65699768    1.86000001    2.73000002
   13.96527767  119.68499756    1.86000001    2.75000000
   13.96833324  113.21199799    1.86000001    2.73000002
   13.97166634  115.53399658    1.86000001    2.73000002
   13.97499943  116.52600098    1.85000002    2.75000000
   13.98083305  116.52600098    1.85000002    2.73000002
   13.98500061  122.70099640    1.85000002    2.73000002
   13.98833370  123.06800079    1.85000002    2.73000002
   13.99138927  112.49800110    1.83000004    2.71000004
   13.99472237  119.62300110    1.83000004    2.75000000
   13.99805546  122.86900330    1.83000004    2.73000002
   14.00111103  115.52300262    1.80999994    2.73000002
   14.00444412  118.65100098    1.83000004    2.73000002
   14.00749969  116.07900238    1.80999994    2.73000002
   14.01083374  116.98000336    1.80999994    2.73000002
   14.01416683  118.81500244    1.80999994    2.75000000
   14.01722240  119.46900177    1.80999994    2.75000000
   14.01833344  114.66699982    1.80999994    2.75000000
   14.02361107  114.66699982    1.80999994    2.73000002
   14.02777767  120.77100372    1.78999996    2.73000002
   14.03111076  117.64299774    1.80999994    2.73000002
   14.03444481  111.62400055    1.78999996    2.73000002
   14.05194473  112.05200195    1.78999996    2.73000002
   14.05416679  110.22000122    1.78999996    2.75000000
   14.05749989  109.27200317    1.76999998    2.75000000
   14.06083393  112.91000366    1.78999996    2.73000002
   14.06666660  112.91000366    1.78999996    2.73000002
   14.07083321  115.10900116    1.78999996    2.75000000
   14.07416630  115.03800201    1.78999996    2.75000000
   14.07750034  112.04799652    1.78999996    2.75000000
   14.08055592  116.69599915    1.80999994    2.75000000
   14.08388901  119.63500214    1.80999994    2.75000000
   14.08500004  118.47299957    1.80999994    2.75000000
   14.08749962  119.20600128    1.80999994    2.75000000
   14.09083271  122.86699677    1.80999994    2.75000000
   14.09416676  120.62500000    1.80999994    2.73000002
   14.09722233  120.37100220    1.80999994    2.75000000
   14.10055637  120.83300018    1.80999994    2.75000000
   14.10361195  123.46700287    1.80999994    2.75000000
   14.10972214  123.46700287    1.80999994    2.73000002
   14.11388969  122.71700287    1.80999994    2.75000000
   14.11694431  125.08999634    1.80999994    2.73000002
   14.11833382  111.53800201    1.80999994    2.75000000
   14.12055588  121.79599762    1.80999994    2.75000000
   14.12388897  117.19999695    1.80999994    2.75000000
   14.12694454  126.54299927    1.80999994    2.75000000
   14.13027763  118.25599670    1.80999994    2.75000000
   14.13361073  118.74099731    1.80999994    2.75000000
   14.13666630  115.48799896    1.80999994    2.75000000
   14.14000034  108.84899902    1.78999996    2.75000000
   14.14305496  112.61399841    1.78999996    2.75000000
   14.14638901  115.29599762    1.78999996    2.73000002
   14.15249920  115.29599762    1.78999996    2.75000000
   14.15666676  116.37599945    1.76999998    2.75000000
   14.15972137  115.71700287    1.75000000    2.75000000
   14.16305542  110.39700317    1.76999998    2.73000002
   14.16638851  117.69100189    1.75000000    2.75000000
   14.16972256  108.64399719    1.75000000    2.75000000
   14.17277813  107.83799744    1.76999998    2.75000000
   14.17611122  113.77300262    1.75000000    2.75000000
   14.17916679  113.72000122    1.75000000    2.75000000
   14.18249989  119.34899902    1.75000000    2.73000002
   14.18500042  121.56300354    1.75000000    2.75000000
   14.18611145  111.63700104    1.75000000    2.75000000
   14.18944454  113.70099640    1.73000002    2.75000000
   14.19527817  113.70099640    1.73000002    2.75000000
   14.19944477  111.42500305    1.73000002    2.75000000
   14.20277786  114.92099762    1.73000002    2.75000000
   14.20583344  117.85299683    1.73000002    2.75000000
   14.20916653  115.01999664    1.73000002    2.75000000
   14.21249962  116.22499847    1.73000002    2.73000002
   14.21555519  120.12599945    1.73000002    2.76999998
   14.21833324  119.18900299    1.73000002    2.76999998
   14.21916580  121.36799622    1.73000002    2.76999998
   14.22249985  119.03399658    1.75000000    2.76999998
   14.22555542  119.11100006    1.75000000    2.75000000
   14.22888851  123.96399689    1.73000002    2.76999998
   14.23222160  117.19999695    1.73000002    2.75000000
   14.23805618  117.19999695    1.73000002    2.75000000
   14.24222279  115.12300110    1.73000002    2.75000000
   14.24555588  118.55999756    1.73000002    2.75000000
   14.24861145  124.35800171    1.73000002    2.76999998
   14.25166702  118.00800323    1.73000002    2.76999998
   14.25222206  121.43099976    1.73000002    2.76999998
   14.25555515  112.38300323    1.73000002    2.75000000
   14.25888920  117.18499756    1.73000002    2.75000000
   14.26194477  113.85500336    1.73000002    2.75000000
   14.26527786  120.57399750    1.71000004    2.76999998
   14.26833344  110.89299774    1.73000002    2.75000000
   14.27166653  116.13700104    1.73000002    2.75000000
   14.27499962  108.87000275    1.71000004    2.76999998
   14.28111076  108.87000275    1.71000004    2.75000000
   14.28527832  115.77100372    1.73000002    2.76999998
   14.28833389  116.00900269    1.73000002    2.75000000
   14.29194450  118.38500214    1.73000002    2.75000000
   14.29527855  121.54299927    1.73000002    2.75000000
   14.29833412  115.19899750    1.71000004    2.76999998
   14.30166721  112.00099945    1.73000002    2.75000000
   14.30472279  118.63800049    1.73000002    2.76999998
   14.30805588  115.06199646    1.73000002    2.76999998
   14.31138897  111.18299866    1.71000004    2.76999998
   14.31444454  112.81199646    1.71000004    2.75000000
   14.31777763  115.60099792    1.73000002    2.75000000
   14.31861115  104.95700073    1.73000002    2.78999996
   14.32388878  104.95700073    1.71000004    2.76999998
   14.32805538  118.07700348    1.71000004    2.76999998
   14.33111095  121.10500336    1.71000004    2.76999998
   14.33444405  116.72000122    1.71000004    2.76999998
   14.33777714  121.29199982    1.71000004    2.76999998
   14.34083271  122.00299835    1.71000004    2.76999998
   14.34416676  119.75599670    1.71000004    2.75000000
   14.34722233  114.87200165    1.71000004    2.78999996
   14.35055637  116.02400208    1.71000004    2.76999998
   14.35194492  124.25900269    1.71000004    2.76999998
   14.35416698  116.66999817    1.71000004    2.76999998
   14.35750008  116.60800171    1.71000004    2.76999998
   14.36055565  112.81600189    1.71000004    2.76999998
   14.36666679  112.81600189    1.71000004    2.76999998
   14.37083340  124.80300140    1.71000004    2.76999998
   14.37416649  117.34999847    1.71000004    2.78999996
   14.37722206  115.06500244    1.71000004    2.76999998
   14.38055611  116.03600311    1.71000004    2.75000000
   14.38361073  114.94899750    1.71000004    2.76999998
   14.38527775  123.28600311    1.71000004    2.76999998
   14.38722229  117.51300049    1.73000002    2.76999998
   14.39055538  123.72699738    1.71000004    2.76999998
   14.39361095  113.52300262    1.71000004    2.76999998
   14.39694405  111.06700134    1.71000004    2.76999998
   14.40027714  116.38500214    1.71000004    2.76999998
   14.40333271  124.41200256    1.71000004    2.75000000
   14.40944386  124.41200256    1.71000004    2.75000000
   14.41361046  111.32900238    1.71000004    2.76999998
   14.41694450  107.70099640    1.71000004    2.76999998
   14.41861153  116.07499695    1.69000006    2.76999998
   14.42055607  117.83899689    1.71000004    2.76999998
   14.42388916  117.44899750    1.69000006    2.76999998
   14.42722225  118.69200134    1.69000006    2.76999998
   14.43027782  125.37100220    1.71000004    2.76999998
   14.43361092  119.98799896    1.69000006    2.76999998
   14.43694496  114.17500305    1.69000006    2.75000000
   14.44000053  118.64600372    1.69000006    2.76999998
   14.44333363  115.05400085    1.69000006    2.76999998
   14.44638920  112.90599823    1.69000006    2.75000000
   14.45249939  112.90599823    1.69000006    2.76999998
   14.45638847  118.76499939    1.69000006    2.76999998
   14.45972157  118.84799957    1.66999996    2.76999998
   14.46305561  121.62400055    1.69000006    2.76999998
   14.46611118  111.34400177    1.69000006    2.76999998
   14.46944427  116.52500153    1.71000004    2.76999998
   14.47277737  116.67900085    1.69000006    2.75000000
   14.47583294  122.34200287    1.66999996    2.76999998
   14.47916603  115.42600250    1.69000006    2.78999996
   14.48222160  118.13700104    1.69000006    2.78999996
   14.48527813  113.44000244    1.69000006    2.78999996
   14.48583317  110.60800171    1.69000006    2.78999996
   14.48916721  115.92400360    1.69000006    2.76999998
   14.49527836  115.92400360    1.71000004    2.78999996
   14.49944496  121.63099670    1.71000004    2.76999998
   14.50249958  115.94000244    1.69000006    2.76999998
   14.50583363  118.54900360    1.69000006    2.76999998
   14.50916672  120.90100098    1.69000006    2.76999998
   14.51222229  111.81600189    1.66999996    2.78999996
   14.51555538  117.56199646    1.69000006    2.78999996
   14.51861095  119.70800018    1.69000006    2.78999996
   14.51916599  120.87300110    1.69000006    2.78999996
   14.52250004  118.83499908    1.66999996    2.78999996
   14.52583313  116.89600372    1.66999996    2.78999996
   14.52888870  114.86399841    1.66999996    2.78999996
   14.53222179  118.79199982    1.66999996    2.76999998
   14.53805637  118.79199982    1.64999998    2.75000000
   14.54222298  124.66000366    1.64999998    2.76999998
   14.54555607  113.35299683    1.64999998    2.76999998
   14.54861164  130.38099670    1.64999998    2.78999996
   14.55194473  125.91400146    1.66999996    2.78999996
   14.55222225  122.85900116    1.66999996    2.78999996
   14.55555534  121.48500061    1.66999996    2.78999996
   14.55888939  113.89299774    1.64999998    2.78999996
   14.56194496  114.63500214    1.64999998    2.78999996
   14.56527805  113.29199982    1.64999998    2.78999996
   14.56833363  111.32099915    1.63000000    2.78999996
   14.57166672  107.64099884    1.64999998    2.76999998
   14.57499981  108.56900024    1.64999998    2.78999996
   14.58083344  108.56900024    1.64999998    2.76999998
   14.58500004  109.98799896    1.64999998    2.78999996
   14.58555508  115.75599670    1.64999998    2.78999996
   14.58888817  114.48799896    1.64999998    2.78999996
   14.59222221  111.48300171    1.64999998    2.78999996
   14.59527779  113.85600281    1.66999996    2.78999996
   14.59861088  116.40100098    1.64999998    2.76999998
   14.60166740  114.28600311    1.64999998    2.78999996
   14.60500050  118.50099945    1.64999998    2.78999996
   14.60833359  116.34700012    1.64999998    2.78999996
   14.61138916  118.93800354    1.64999998    2.78999996
   14.61472225  115.07599640    1.66999996    2.78999996
   14.61805534  108.41999817    1.69000006    2.78999996
   14.61888885  116.62300110    1.69000006    2.78999996
   14.62388897  116.62300110    1.71000004    2.78999996
   14.62777805  114.88500214    1.80999994    2.78999996
   14.63111115  120.29399872    1.83000004    2.78999996
   14.63444424  116.31600189    1.83000004    2.76999998
   14.63749981  114.69400024    1.86000001    2.76999998
   14.64083290  119.59100342    1.88000000    2.78999996
   14.64416695  114.75700378    1.89999998    2.78999996
   14.64722252  114.53900146    1.91999996    2.78999996
   14.65055561  117.67800140    1.89999998    2.78999996
   14.65222168  110.67900085    1.88000000    2.78999996
   14.65416622  122.74600220    1.88000000    2.78999996
   14.65722179  119.80899811    1.91999996    2.78999996
   14.66055489  114.53199768    1.96000004    2.78999996
   14.66666698  114.53199768    1.98000002    2.78999996
   14.67083359  111.84700012    2.00000000    2.78999996
   14.67388916  117.70600128    2.01999998    2.78999996
   14.67722225  113.55100250    2.00000000    2.78999996
   14.68055630  110.50599670    2.00000000    2.78999996
   14.68361092  109.95700073    2.01999998    2.78999996
   14.68555546  114.13400269    2.01999998    2.78999996
   14.68722248  110.52899933    2.01999998    2.78999996
   14.69027805  111.37500000    2.01999998    2.76999998
   14.69361115  115.04799652    2.00000000    2.80999994
   14.69694424  111.86900330    2.00000000    2.78999996
   14.69999981  108.56800079    1.98000002    2.78999996
   14.70333290  112.91799927    2.00000000    2.78999996
   14.70944405  112.91799927    2.00000000    2.78999996
   14.71361065  109.44300079    1.98000002    2.80999994
   14.71694374  114.27300262    1.98000002    2.78999996
   14.71888828  112.56800079    1.96000004    2.78999996
   14.72055531  111.20600128    1.96000004    2.76999998
   14.72388840  110.86299896    1.94000006    2.78999996
   14.72694397  109.99900055    1.91999996    2.78999996
   14.73027706  110.34600067    1.89999998    2.78999996
   14.73333359  109.44799805    1.89999998    2.78999996
   14.73666668  111.63300323    1.88000000    2.78999996
   14.74000072  114.01799774    1.86000001    2.78999996
   14.74305534  111.16999817    1.85000002    2.78999996
   14.74638939  109.93000031    1.83000004    2.78999996
   14.75222206  109.93000031    1.83000004    2.78999996
   14.75638866  112.46900177    1.85000002    2.78999996
   14.75972176  111.17400360    1.80999994    2.80999994
   14.76277733  110.25399780    1.78999996    2.78999996
   14.76611137  107.53600311    1.78999996    2.78999996
   14.76944447  107.04499817    1.78999996    2.78999996
   14.77250004  116.46600342    1.76999998    2.80999994
   14.77583313  113.00599670    1.75000000    2.78999996
   14.77916622  109.07399750    1.69000006    2.78999996
   14.78222179  111.11399841    1.66999996    2.80999994
   14.78555584  112.66500092    1.64999998    2.78999996
   14.78750038  116.04499817    1.64999998    2.80999994
   14.78916740  112.70700073    1.63000000    2.80999994
   14.79527855  112.70700073    1.60000002    2.80999994
   14.79916668  115.25299835    1.61000001    2.78999996
   14.80249977  112.13899994    1.60000002    2.78999996
   14.80583382  121.59500122    1.60000002    2.80999994
   14.80888939  112.66899872    1.60000002    2.78999996
   14.81222248  112.34100342    1.60000002    2.80999994
   14.81527805  121.14099884    1.61000001    2.78999996
   14.81861115  122.78600311    1.61000001    2.80999994
   14.82083321  114.75399780    1.61000001    2.82999992
   14.82222176  111.81400299    1.61000001    2.80999994
   14.82555580  109.51899719    1.63000000    2.78999996
   14.82861137  115.63500214    1.63000000    2.80999994
   14.83194447  117.37899780    1.64999998    2.80999994
   14.83805561  117.37899780    1.64999998    2.80999994
   14.84222221  119.69699860    1.66999996    2.80999994
   14.84527779  122.30599976    1.66999996    2.82999992
   14.84861088  117.85700226    1.66999996    2.78999996
   14.85194492  117.03099823    1.66999996    2.80999994
   14.85416698  117.69599915    1.66999996    2.80999994
   14.85555553  115.24800110    1.69000006    2.80999994
   14.85888958  111.72699738    1.58000004    2.78999996
   14.86194515  112.28199768    1.60000002    2.78999996
   14.86527824  120.03800201    1.60000002    2.78999996
   14.86833382  119.02500153    1.61000001    2.78999996
   14.87166691  116.61299896    1.63000000    2.76999998
   14.87500000  120.30799866    1.63000000    2.78999996
   14.88083363  120.30799866    1.63000000    2.78999996
   14.88500023  114.43499756    1.63000000    2.78999996
   14.88749981  119.89299774    1.61000001    2.78999996
   14.88861084  120.43599701    1.61000001    2.78999996
   14.89194393  114.69000244    1.58000004    2.78999996
   14.89499950  113.92199707    1.58000004    2.78999996
   14.89833355  117.19000244    1.58000004    2.78999996
   14.90138817  127.40000153    1.58000004    2.80999994
   14.90472221  115.97299957    1.58000004    2.80999994
   14.90805531  114.65899658    1.58000004    2.80999994
   14.91111088  117.16899872    1.58000004    2.78999996
   14.91444397  118.10199738    1.58000004    2.78999996
   14.91777802  113.59200287    1.58000004    2.78999996
   14.92361164  113.59200287    1.58000004    2.78999996
   14.92777824  111.31500244    1.58000004    2.78999996
   14.93111134  120.14900208    1.58000004    2.78999996
   14.93416691  114.19699860    1.58000004    2.80999994
   14.93750000  120.79100037    1.60000002    2.78999996
   14.94083309  117.59400177    1.58000004    2.80999994
   14.94388866  120.02799988    1.58000004    2.80999994
   14.94722271  117.29900360    1.58000004    2.78999996
   14.95027733  122.84799957    1.55999994    2.80999994
   14.95361137  115.51899719    1.58000004    2.80999994
   14.95472240  117.27999878    1.58000004    2.80999994
   14.95722198  127.94599915    1.58000004    2.78999996
   14.96055508  116.69999695    1.58000004    2.78999996
   14.96666622  116.69999695    1.55999994    2.82999992
   14.97055531  114.55599976    1.55999994    2.80999994
   14.97388840  116.59700012    1.55999994    2.80999994
   14.97722149  118.64900208    1.55999994    2.78999996
   14.98027706  112.45300293    1.53999996    2.80999994
   14.98361111  115.34500122    1.53999996    2.80999994
   14.98694515  128.07699585    1.53999996    2.80999994
   14.98805618  117.33499908    1.53999996    2.80999994
   14.99027824  121.95999908    1.53999996    2.78999996
   14.99361134  118.00299835    1.51999998    2.80999994
   14.99694443  122.49199677    1.51999998    2.80999994
   15.00000000  127.47899628    1.53999996    2.80999994
   15.00333309  115.25099945    1.51999998    2.78999996
   15.00944424  115.25099945    1.51999998    2.80999994
   15.01361084  121.63099670    1.53999996    2.80999994
   15.01666641  118.90699768    1.55999994    2.80999994
   15.01999950  124.68800354    1.55999994    2.78999996
   15.02138901  123.41799927    1.55999994    2.80999994
   15.02361107  128.80700684    1.58000004    2.80999994
   15.02694416  124.75900269    1.60000002    2.80999994
   15.02999973  125.93399811    1.60000002    2.80999994
   15.12888908   -1.00000000   -1.00000000   -1.00000000
   15.31083393   -1.00000000   -1.00000000   -1.00000000
   15.45222187   -1.00000000   -1.00000000   -1.00000000
   15.54638958   70.88890076    1.39999998    2.84999990
   15.54944515  127.61599731    1.39999998    2.80999994
   15.55277824  128.36599731    1.36000001    2.82999992
   15.55583382  127.92199707    1.36000001    2.84999990
   15.55916691  119.40499878    1.34000003    2.82999992
   15.56250000  118.28399658    1.33000004    2.82999992
   15.56666660  118.28399658    1.33000004    2.82999992
   15.57083321  124.48899841    1.33000004    2.82999992
   15.57388878  118.28299713    1.30999994    2.82999992
   15.57722187  117.43099976    1.30999994    2.82999992
   15.57944393  125.54499817    1.33000004    2.82999992
   15.58083344  122.96800232    1.33000004    2.82999992
   15.58388901  119.85500336    1.30999994    2.82999992
   15.58722210  119.55899811    1.30999994    2.82999992
   15.59055519  126.90499878    1.30999994    2.82999992
   15.59361076  120.32800293    1.30999994    2.82999992
   15.59694386  126.31600189    1.30999994    2.82999992
   15.60027790  128.33299255    1.30999994    2.82999992
   15.60333347  115.37000275    1.33000004    2.82999992
   15.60944462  115.37000275    1.33000004    2.82999992
   15.61361122  123.54299927    1.33000004    2.82999992
   15.61666679  118.76699829    1.33000004    2.84999990
   15.61999989  127.55999756    1.30999994    2.82999992
   15.62333393  116.89800262    1.30999994    2.82999992
   15.62638855  116.86000061    1.30999994    2.84999990
   15.62972260  121.09600067    1.30999994    2.84999990
   15.63305569  116.75900269    1.30999994    2.82999992
   15.63611126  117.49400330    1.33000004    2.84999990
   15.63944435  118.54100037    1.33000004    2.84999990
   15.64249992  108.86399841    1.33000004    2.84999990
   15.64583302  116.30699921    1.34000003    2.82999992
   15.64638901  112.71600342    1.34000003    2.82999992
   15.65222168  112.71600342    1.34000003    2.84999990
   15.65638828  110.90200043    1.34000003    2.84999990
   15.65972137  120.16400146    1.34000003    2.82999992
   15.66277695  110.84500122    1.34000003    2.84999990
   15.66611099  118.81800079    1.34000003    2.82999992
   15.66944504  114.77200317    1.34000003    2.82999992
   15.67250061  112.79799652    1.34000003    2.82999992
   15.67583370  121.19699860    1.34000003    2.82999992
   15.67888927  108.76899719    1.33000004    2.82999992
   15.67972279  112.60700226    1.33000004    2.82999992
   15.68277836  113.01200104    1.33000004    2.82999992
   15.68583298  115.25000000    1.34000003    2.82999992
   15.68916702  113.89199829    1.33000004    2.80999994
   15.69527817  113.89199829    1.33000004    2.84999990
   15.69944477  115.38700104    1.34000003    2.82999992
   15.70249939  118.83000183    1.36000001    2.82999992
   15.70583344  123.02100372    1.36000001    2.82999992
   15.70916653  116.99500275    1.34000003    2.84999990
   15.71222210  113.97699738    1.34000003    2.84999990
   15.71305561  110.43299866    1.34000003    2.82999992
   15.71611118  113.33499908    1.34000003    2.84999990
   15.71916580  108.08799744    1.34000003    2.82999992
   15.72249985  111.03500366    1.34000003    2.82999992
   15.72583294  111.41100311    1.36000001    2.82999992
   15.72888851  112.76100159    1.34000003    2.82999992
   15.73222160  110.60600281    1.34000003    2.84999990
   15.73805618  110.60600281    1.34000003    2.82999992
   15.74222279  116.34500122    1.34000003    2.84999990
   15.74527836  121.75399780    1.34000003    2.82999992
   15.74638939  120.78600311    1.34000003    2.82999992
   15.74916649  115.75499725    1.36000001    2.82999992
   15.75222206  113.66300201    1.34000003    2.82999992
   15.75555515  117.03600311    1.34000003    2.82999992
   15.75888920  116.26899719    1.34000003    2.82999992
   15.76194477  120.97899628    1.34000003    2.84999990
   15.76527786  112.23100281    1.34000003    2.84999990
   15.76833344  120.98799896    1.36000001    2.82999992
   15.77166653  119.23300171    1.34000003    2.84999990
   15.77499962  114.53800201    1.39999998    2.82999992
   15.78083324  114.53800201    1.39999998    2.84999990
   15.78500080  118.37300110    1.39999998    2.84999990
   15.78805637  111.62300110    1.38000000    2.82999992
   15.79138947  116.14399719    1.36000001    2.84999990
   15.79472256  118.63700104    1.36000001    2.82999992
   15.79777813  123.45899963    1.36000001    2.82999992
   15.80111122  113.20300293    1.36000001    2.82999992
   15.80444431  116.53399658    1.39999998    2.84999990
   15.80749989  114.27799988    1.38000000    2.82999992
   15.81083393  108.96700287    1.38000000    2.82999992
   15.81305599  113.37699890    1.38000000    2.84999990
   15.81444454  112.18900299    1.38000000    2.84999990
   15.81750011  111.66799927    1.39999998    2.82999992
   15.82361126  111.66799927    1.36000001    2.84999990
   15.82777786  121.25299835    1.36000001    2.84999990
   15.83111095  113.17299652    1.36000001    2.82999992
   15.83416653  115.30999756    1.34000003    2.82999992
   15.83749962  118.55599976    1.34000003    2.84999990
   15.84083271  112.56199646    1.30999994    2.84999990
   15.84388828  121.30500031    1.34000003    2.84999990
   15.84638882  114.24600220    1.36000001    2.82999992
   15.84777737  117.75599670    1.36000001    2.84999990
   15.85083389  117.50399780    1.41999996    2.84999990
   15.85416698  114.54699707    1.41999996    2.82999992
   15.85750008  120.90499878    1.48000002    2.84999990
   15.86055565  116.92800140    1.50000000    2.82999992
   15.86638927  116.92800140    1.44000006    2.84999990
   15.87055588  118.46099854    1.41999996    2.84999990
   15.87388897  122.70400238    1.39999998    2.82999992
   15.87722206  114.71399689    1.41999996    2.84999990
   15.87972260  124.05799866    1.41999996    2.84999990
   15.88083363  123.55500031    1.39999998    2.82999992
   15.88388920  115.51300049    1.39999998    2.84999990
   15.88722229  117.37000275    1.39999998    2.84999990
   15.89055538  111.66400146    1.41999996    2.82999992
   15.89361095  123.42299652    1.48000002    2.82999992
   15.89694405  111.10099792    1.48000002    2.82999992
   15.90027714  113.68599701    1.51999998    2.82999992
   15.90333271  115.80200195    1.53999996    2.84999990
   15.90944386  115.80200195    1.50000000    2.84999990
   15.91361046  119.71900177    1.50000000    2.82999992
   15.91666698  119.98000336    1.50000000    2.82999992
   15.92000008  118.19899750    1.48000002    2.84999990
   15.92305565  115.16999817    1.46000004    2.82999992
   15.92638874  117.95700073    1.44000006    2.82999992
   15.92972279  118.22899628    1.46000004    2.82999992
   15.93277836  117.28399658    1.46000004    2.82999992
   15.93611145  113.22799683    1.39999998    2.84999990
   15.93944454  114.18900299    1.34000003    2.84999990
   15.94250011  117.44999695    1.34000003    2.86999989
   15.94583321  108.56999969    1.33000004    2.82999992
   15.94638920  114.84799957    1.33000004    2.82999992
   15.95222187  114.84799957    1.33000004    2.82999992
   15.95638847  116.72200012    1.34000003    2.84999990
   15.95944405  109.28399658    1.34000003    2.84999990
   15.96277714  113.08599854    1.34000003    2.84999990
   15.96611118  111.39900208    1.34000003    2.82999992
   15.96916580  108.86499786    1.34000003    2.84999990
   15.97249985  108.45300293    1.33000004    2.82999992
   15.97583294  108.29599762    1.33000004    2.84999990
   15.97888851  111.26999664    1.33000004    2.84999990
   15.97972202  114.27100372    1.33000004    2.84999990
   15.98249912  106.73300171    1.33000004    2.84999990
   15.98555565  111.22799683    1.33000004    2.84999990
   15.98888874  118.70099640    1.33000004    2.84999990
   15.99499989  118.70099640    1.30999994    2.84999990
   15.99916649  109.13999939    1.30999994    2.84999990
   16.00250053  111.32099915    1.28999996    2.84999990
   16.00555611  107.59200287    1.25000000    2.84999990
   16.00888824  110.91600037    1.23000002    2.84999990
   16.01222229  106.68900299    1.23000002    2.84999990
   16.01305580  109.49900055    1.23000002    2.84999990
   16.01583290  110.43499756    1.21000004    2.84999990
   16.01888847  105.93099976    1.21000004    2.84999990
   16.02222252  108.61499786    1.21000004    2.86999989
   16.02555466  106.81099701    1.23000002    2.86999989
   16.02861023  108.10700226    1.23000002    2.84999990
   16.03194427  105.90799713    1.23000002    2.84999990
   16.03805542  105.90799713    1.23000002    2.84999990
   16.04194450  111.66500092    1.23000002    2.84999990
   16.04527664  110.68299866    1.21000004    2.84999990
   16.04638863  114.87000275    1.21000004    2.84999990
   16.04888916  113.28900146    1.23000002    2.84999990
   16.05194283  111.17700195    1.23000002    2.84999990
   16.05527687  115.23799896    1.21000004    2.84999990
   16.05861092  116.90699768    1.21000004    2.84999990
   16.06166649  114.89199829    1.23000002    2.84999990
   16.06499863  112.11599731    1.23000002    2.84999990
   16.06833458  115.33699799    1.21000004    2.84999990
   16.07139015  115.08000183    1.23000002    2.84999990
   16.07472229  116.63400269    1.23000002    2.84999990
   16.08083344  116.63400269    1.25000000    2.84999990
   16.08500099  111.39399719    1.25000000    2.82999992
   16.08805656  124.23500061    1.25000000    2.84999990
   16.09138870  115.25000000    1.25000000    2.84999990
   16.09472275  127.80100250    1.25000000    2.84999990
   16.09777832  121.07599640    1.25000000    2.84999990
   16.10111237  131.81700134    1.25000000    2.84999990
   16.10444450  115.85900116    1.25000000    2.84999990
   16.10750008  123.38500214    1.25000000    2.84999990
   16.11083412  114.36199951    1.25000000    2.84999990
   16.11305618  128.99200439    1.25000000    2.84999990
   16.11444473  112.61299896    1.25000000    2.84999990
   16.11777878  117.71700287    1.25000000    2.84999990
   16.12361145  117.71700287    1.28999996    2.84999990
   16.12777710  125.74600220    1.28999996    2.82999992
   16.13083267  121.37699890    1.28999996    2.84999990
   16.13416672  109.91300201    1.28999996    2.84999990
   16.13750076  104.94799805    1.28999996    2.84999990
   16.14055634  119.07800293    1.28999996    2.84999990
   16.14388847  117.28800201    1.28999996    2.84999990
   16.14638901  114.25399780    1.26999998    2.82999992
   16.14749908  111.34100342    1.26999998    2.82999992
   16.15083313  115.68499756    1.26999998    2.84999990
   16.15388870  109.75299835    1.25000000    2.86999989
   16.15722275  113.13200378    1.25000000    2.84999990
   16.16027832  110.80200195    1.25000000    2.82999992
   16.16638756  110.80200195    1.21000004    2.86999989
   16.17055511  105.22899628    1.19000006    2.84999990
   16.17388916  108.29000092    1.19000006    2.84999990
   16.17722130  123.26100159    1.19000006    2.84999990
   16.17972183  112.37000275    1.16999996    2.84999990
   16.18083191  113.04900360    1.16999996    2.84999990
   16.18416595  114.64800262    1.16999996    2.84999990
   16.18722153  111.48899841    1.19000006    2.84999990
   16.19055557  110.33100128    1.19000006    2.84999990
   16.19361115  122.21199799    1.19000006    2.84999990
   16.19694328  109.46299744    1.19000006    2.84999990
   16.20027924  110.73400116    1.19000006    2.84999990
   16.20333481  112.12300110    1.19000006    2.84999990
   16.20916748  112.12300110    1.16999996    2.84999990
   16.21333504  111.14900208    1.16999996    2.84999990
   16.21666718  111.05300140    1.16999996    2.84999990
   16.22000122  110.05999756    1.16999996    2.84999990
   16.22305679  108.60900116    1.16999996    2.84999990
   16.22638893  118.40499878    1.16999996    2.84999990
   16.22944450  105.05000305    1.16999996    2.84999990
   16.23277855  111.02300262    1.16999996    2.84999990
   16.23611069  121.96099854    1.19000006    2.84999990
   16.23916626  107.99900055    1.16999996    2.84999990
   16.24250031  109.68299866    1.16999996    2.84999990
   16.24583435  112.25800323    1.16999996    2.84999990
   16.24638939  110.25900269    1.16999996    2.84999990
   16.25222206  110.25900269    1.16999996    2.84999990
   16.25638962  106.19100189    1.16999996    2.84999990
   16.25944519  108.62599945    1.16999996    2.84999990
   16.26277733  107.12000275    1.16999996    2.84999990
   16.26583290  107.92299652    1.19000006    2.84999990
   16.26916695  108.63600159    1.19000006    2.84999990
   16.27249908  110.53399658    1.21000004    2.82999992
   16.27555466  111.91500092    1.23000002    2.82999992
   16.27888870  110.78399658    1.23000002    2.84999990
   16.28000069  109.58000183    1.23000002    2.86999989
   16.28277779  107.10299683    1.23000002    2.84999990
   16.28583336  107.84500122    1.21000004    2.84999990
   16.28916550  105.23200226    1.21000004    2.84999990
   16.29500008  105.23200226    1.21000004    2.84999990
   16.29916573  114.66200256    1.23000002    2.84999990
   16.30249977  112.05599976    1.23000002    2.82999992
   16.30555534  109.36499786    1.25000000    2.84999990
   16.30888748  107.85299683    1.26999998    2.86999989
   16.31194305  111.15100098    1.25000000    2.84999990
   16.31305504  114.90499878    1.26999998    2.84999990
   16.31583214  111.50199890    1.25000000    2.82999992
   16.31916809  112.10399628    1.26999998    2.84999990
   16.32222366  116.35099792    1.26999998    2.84999990
   16.32555580  117.82700348    1.25000000    2.84999990
   16.32888985  115.12200165    1.25000000    2.84999990
   16.33194542  109.32800293    1.25000000    2.84999990
   16.33777809  109.32800293    1.23000002    2.84999990
   16.34194565  122.35299683    1.23000002    2.84999990
   16.34527779  117.06300354    1.23000002    2.84999990
   16.34638977  125.81999969    1.23000002    2.84999990
   16.34889030  115.06400299    1.23000002    2.84999990
   16.35222244  117.16400146    1.23000002    2.84999990
   16.35527802  114.30200195    1.23000002    2.84999990
   16.35861206  115.73999786    1.23000002    2.84999990
   16.36194420  114.46700287    1.23000002    2.84999990
   16.36499977  112.37699890    1.23000002    2.84999990
   16.36833382  116.88300323    1.23000002    2.84999990
   16.37138939  117.34700012    1.23000002    2.84999990
   16.37472153  113.81199646    1.23000002    2.84999990
   16.38055611  113.81199646    1.23000002    2.84999990
   16.38472176  121.73799896    1.23000002    2.84999990
   16.38805580  121.35500336    1.23000002    2.84999990
   16.39138794  119.09100342    1.23000002    2.84999990
   16.39444351  116.91999817    1.23000002    2.84999990
   16.39777756  117.82099915    1.23000002    2.84999990
   16.40083313  122.36799622    1.23000002    2.84999990
   16.40416718  118.50599670    1.21000004    2.84999990
   16.40749931  122.39299774    1.21000004    2.84999990
   16.41055489  117.71600342    1.21000004    2.84999990
   16.41305542  122.84400177    1.21000004    2.84999990
   16.41416550  121.19000244    1.21000004    2.84999990
   16.41749954  119.27799988    1.21000004    2.84999990
   16.42361069  119.27799988    1.21000004    2.84999990
   16.42777634  119.71199799    1.19000006    2.84999990
   16.43083191  116.59799957    1.19000006    2.84999990
   16.43416595  120.14499664    1.19000006    2.82999992
   16.43722153  114.67800140    1.21000004    2.86999989
   16.44055557  117.68699646    1.19000006    2.84999990
   16.44388771  126.45600128    1.19000006    2.84999990
   16.44638824  115.33499908    1.19000006    2.84999990
   16.44749832  117.19200134    1.19000006    2.84999990
   16.45083427  120.44300079    1.19000006    2.82999992
   16.45388985  124.77400208    1.19000006    2.84999990
   16.45722389  129.25799561    1.19000006    2.84999990
   16.46055603  119.37200165    1.19000006    2.84999990
   16.46638870  119.37200165    1.19000006    2.84999990
   16.47055626  112.22899628    1.19000006    2.84999990
   16.47361183  123.18099976    1.19000006    2.84999990
   16.47694588  117.01699829    1.19000006    2.82999992
   16.47972298  117.80799866    1.19000006    2.84999990
   16.48055649  123.20500183    1.19000006    2.84999990
   16.48388863  117.17600250    1.19000006    2.84999990
   16.48694420  119.27300262    1.19000006    2.86999989
   16.49027824  116.00900269    1.19000006    2.84999990
   16.49361229  116.71099854    1.19000006    2.84999990
   16.49666786  120.00800323    1.19000006    2.84999990
   16.50000000  115.99900055    1.19000006    2.84999990
   16.50305557  117.24400330    1.19000006    2.84999990
   16.50916672  117.24400330    1.16999996    2.84999990
   16.51333427  116.44200134    1.16999996    2.84999990
   16.51666641  117.44200134    1.16999996    2.84999990
   16.51972198  117.28399658    1.16999996    2.86999989
   16.52305603  118.52200317    1.16999996    2.84999990
   16.52638817  117.93599701    1.14999998    2.84999990
   16.52944374  121.18399811    1.14999998    2.84999990
   16.53277779  124.14099884    1.14999998    2.84999990
   16.53583336  122.44200134    1.14999998    2.84999990
   16.53916550  125.17400360    1.14999998    2.84999990
   16.54249954  125.66000366    1.14999998    2.84999990
   16.54555511  119.82499695    1.14999998    2.84999990
   16.54638863  118.38500214    1.14999998    2.84999990
   16.56722260  118.38500214    1.14999998    2.84999990
   16.57139015  123.36599731    1.14999998    2.84999990
   16.57444572  125.70500183    1.14999998    2.84999990
   16.57777786  119.21099854    1.14999998    2.84999990
   16.57972336  123.41699982    1.14999998    2.84999990
   16.58139038  124.88400269    1.16999996    2.84999990
   16.58472252  121.04499817    1.16999996    2.84999990
   16.58805656  114.39700317    1.16999996    2.84999990
   16.59111214  123.87799835    1.14999998    2.84999990
   16.59444427  119.67600250    1.14999998    2.86999989
   16.59749985  114.51499939    1.13000000    2.84999990
   16.60083389  120.34200287    1.13000000    2.86999989
   16.60416794  117.90599823    1.14999998    2.84999990
   16.61000061  117.90599823    1.11000001    2.84999990
   16.61416626  115.30300140    1.11000001    2.84999990
   16.61722183  119.70300293    1.11000001    2.84999990
   16.62055588  123.05100250    1.11000001    2.84999990
   16.62361145  107.34600067    1.11000001    2.84999990
   16.62694550  116.83599854    1.11000001    2.84999990
   16.63027763  117.15699768    1.11000001    2.84999990
   16.63333321  117.06199646    1.13000000    2.86999989
   16.63666725  115.69000244    1.13000000    2.84999990
   16.63999939  128.89199829    1.13000000    2.84999990
   16.64305496  120.04699707    1.13000000    2.84999990
   16.64638901  124.26100159    1.13000000    2.84999990
   16.64694405  120.20200348    1.13000000    2.84999990
   16.65277672  120.20200348    1.13000000    2.84999990
   16.65694427  121.52200317    1.13000000    2.84999990
   16.65999985  120.57099915    1.14999998    2.84999990
   16.66333389  120.51899719    1.14999998    2.84999990
   16.66666603  121.86699677    1.14999998    2.82999992
   16.66972160  115.92400360    1.14999998    2.84999990
   16.67305565  114.61000061    1.14999998    2.84999990
   16.67638779  112.88800049    1.14999998    2.84999990
   16.67944336  118.23799896    1.13000000    2.84999990
   16.68027687  109.72399902    1.14999998    2.84999990
   16.68333244  116.27200317    1.13000000    2.84999990
   16.68638802  115.56700134    1.13000000    2.84999990
   16.68972206  114.51899719    1.13000000    2.84999990
   16.69555473  114.51899719    1.13000000    2.84999990
   16.69972038  118.07700348    1.14999998    2.84999990
   16.70305634  120.54799652    1.14999998    2.84999990
   16.70611191  120.69799805    1.14999998    2.84999990
   16.70944595  120.14499664    1.14999998    2.84999990
   16.71277809  119.08499908    1.14999998    2.84999990
   16.71361160  118.56800079    1.14999998    2.84999990
   16.71611214  122.03299713    1.14999998    2.86999989
   16.71944427  115.23600006    1.14999998    2.84999990
   16.72277832  116.63600159    1.14999998    2.84999990
   16.72583389  119.28500366    1.14999998    2.84999990
   16.72916794  122.36000061    1.14999998    2.86999989
   16.73250008  116.01999664    1.14999998    2.84999990
   16.73833275  116.01999664    1.16999996    2.84999990
   16.74250031  118.97399902    1.16999996    2.84999990
   16.74583435  113.65499878    1.16999996    2.84999990
   16.74694443  128.11700439    1.16999996    2.84999990
   16.74944496  122.05599976    1.16999996    2.82999992
   16.75277710  121.95899963    1.16999996    2.82999992
   16.75611115  120.59300232    1.16999996    2.84999990
   16.75916672  124.48999786    1.16999996    2.82999992
   16.76250076  127.01000214    1.16999996    2.84999990
   16.76583290  120.81900024    1.16999996    2.82999992
   16.76888847  120.41400146    1.16999996    2.84999990
   16.77222252  118.59100342    1.16999996    2.84999990
   16.77527809  114.49700165    1.16999996    2.84999990
   16.78138924  114.49700165    1.16999996    2.84999990
   16.78555489  115.11599731    1.16999996    2.84999990
   16.78861046  116.11499786    1.19000006    2.84999990
   16.79194450  112.28299713    1.19000006    2.84999990
   16.79500008  111.33899689    1.19000006    2.84999990
   16.79833221  118.55300140    1.19000006    2.84999990
   16.80166626  115.20400238    1.19000006    2.84999990
   16.80472183  102.94599915    1.19000006    2.84999990
   16.80805397  122.69899750    1.19000006    2.84999990
   16.81138802  118.63999939    1.19000006    2.84999990
   16.81361008  119.34100342    1.19000006    2.84999990
   16.81472206  118.88099670    1.19000006    2.84999990
   16.81805611  117.38899994    1.19000006    2.84999990
   16.82416725  117.38899994    1.19000006    2.84999990
   16.82833481  124.95700073    1.19000006    2.84999990
   16.83139038  124.61499786    1.21000004    2.82999992
   16.83472252  123.14600372    1.21000004    2.84999990
   16.83805656  119.95700073    1.21000004    2.84999990
   16.84111214  123.88899994    1.21000004    2.84999990
   16.84444427  118.84799957    1.21000004    2.84999990
   16.84694481  115.77700043    1.21000004    2.84999990
   16.84833336  115.19899750    1.21000004    2.82999992
   16.85138893  120.67099762    1.21000004    2.84999990
   16.85472298  123.26200104    1.21000004    2.84999990
   16.85777855  124.02899933    1.21000004    2.84999990
   16.86111069  123.67900085    1.19000006    2.84999990
   16.86694527  123.67900085    1.19000006    2.84999990
   16.87111092  119.47000122    1.21000004    2.84999990
   16.87444496  123.16899872    1.21000004    2.84999990
   16.87750053  121.74299622    1.21000004    2.84999990
   16.88027763  121.58399963    1.21000004    2.84999990
   16.88138962  121.66600037    1.21000004    2.84999990
   16.88444519  123.24600220    1.21000004    2.84999990
   16.88777733  119.32099915    1.21000004    2.84999990
   16.89083290  119.52799988    1.21000004    2.84999990
   16.89416695  123.50800323    1.21000004    2.84999990
   16.89749908  125.98100281    1.21000004    2.84999990
   16.90055466  126.50499725    1.21000004    2.84999990
   16.90388870  126.96800232    1.21000004    2.84999990
   16.90972137  126.96800232    1.21000004    2.84999990
   16.91388893  128.35899353    1.21000004    2.84999990
   16.91722107  130.28799438    1.21000004    2.84999990
   16.92027664  129.97799683    1.19000006    2.84999990
   16.92361069  133.00599670    1.19000006    2.84999990
   16.92694473  126.30999756    1.19000006    2.84999990
   16.93000031  130.21000671    1.19000006    2.84999990
   16.93333244  121.80999756    1.21000004    2.84999990
   16.93666649  121.76100159    1.19000006    2.84999990
   16.93972206  124.50099945    1.19000006    2.84999990
   16.94305420  126.83399963    1.19000006    2.84999990
   16.94610977  123.32199860    1.19000006    2.84999990
   16.94694328  124.51100159    1.19000006    2.82999992
   16.95277786  124.51100159    1.19000006    2.84999990
   16.95666695  117.68599701    1.19000006    2.84999990
   16.96000099  121.77300262    1.19000006    2.84999990
   16.96333504  127.40799713    1.19000006    2.82999992
   16.96638870  131.46499634    1.21000004    2.84999990
   16.96972275  123.37599945    1.21000004    2.84999990
   16.97305679  122.41799927    1.21000004    2.84999990
   16.97611237  123.84600067    1.21000004    2.84999990
   16.97944450  122.93599701    1.21000004    2.84999990
   16.98027802  120.26200104    1.21000004    2.84999990
   16.98305511  127.67900085    1.21000004    2.84999990
   16.98611069  126.52200317    1.21000004    2.84999990
   16.98944473  120.09100342    1.21000004    2.84999990
   16.99555588  120.09100342    1.23000002    2.84999990
   16.99972153  123.00800323    1.23000002    2.82999992
   17.00277710  113.87699890    1.23000002    2.84999990
   17.00611115  125.41500092    1.23000002    2.84999990
   17.00944519  131.63400269    1.25000000    2.84999990
   17.01250076  124.70899963    1.23000002    2.84999990
   17.01361084  105.06600189    1.23000002    2.84999990
   17.01638794  127.55699921    1.25000000    2.82999992
   17.01944351  131.99499512    1.25000000    2.84999990
   17.02277756  131.01899719    1.26999998    2.84999990
   17.02583313  123.10299683    1.26999998    2.84999990
   17.02916718  127.10700226    1.26999998    2.84999990
   17.03249931  115.41999817    1.28999996    2.84999990
   17.03833199  115.41999817    1.28999996    2.84999990
   17.04249954  126.14600372    1.28999996    2.84999990
   17.04583359  121.42600250    1.28999996    2.84999990
   17.04694366  123.24900055    1.28999996    2.84999990
   17.04944420  127.35600281    1.28999996    2.84999990
   17.05249977  122.78299713    1.28999996    2.82999992
   17.05583191  127.59400177    1.28999996    2.82999992
   17.05888748  119.69300079    1.26999998    2.84999990
   17.06222153  129.36999512    1.26999998    2.84999990
   17.06555557  128.62500000    1.28999996    2.82999992
   17.06861115  128.85099792    1.28999996    2.84999990
   17.07194519  126.61299896    1.28999996    2.84999990
   17.07527924  129.42799377    1.28999996    2.84999990
   17.08111191  129.42799377    1.28999996    2.82999992
   17.08527756  113.70500183    1.28999996    2.84999990
   17.08861160  121.10600281    1.28999996    2.84999990
   17.09194565  118.78800201    1.30999994    2.84999990
   17.09500122  118.91699982    1.30999994    2.84999990
   17.09833336  120.09600067    1.28999996    2.84999990
   17.10138893  113.74800110    1.28999996    2.84999990
   17.10472298  118.89600372    1.28999996    2.84999990
   17.10805511  120.63999939    1.28999996    2.84999990
   17.11111069  122.76899719    1.28999996    2.84999990
   17.11361122  124.83000183    1.28999996    2.82999992
   17.11499977  117.72499847    1.28999996    2.82999992
   17.11805534  115.94599915    1.28999996    2.82999992
   17.12416649  115.94599915    1.26999998    2.84999990
   17.12805557  119.34400177    1.25000000    2.82999992
   17.13138962  117.08599854    1.25000000    2.82999992
   17.13472176  115.61100006    1.25000000    2.84999990
   17.13777733  118.05699921    1.25000000    2.86999989
   17.14111137  119.04199982    1.25000000    2.84999990
   17.14444351  121.72200012    1.26999998    2.84999990
   17.14694405  129.18800354    1.26999998    2.84999990
   17.14805603  125.90599823    1.26999998    2.82999992
   17.15111160  118.98300171    1.26999998    2.84999990
   17.15444374  118.80500031    1.26999998    2.84999990
   17.15777779  128.53399658    1.25000000    2.84999990
   17.16083336  125.33499908    1.25000000    2.84999990
   17.16694450  125.33499908    1.26999998    2.82999992
   17.17111015  119.43199921    1.26999998    2.84999990
   17.17416573  121.98400116    1.26999998    2.84999990
   17.17749977  126.12599945    1.25000000    2.84999990
   17.18027687  121.61900330    1.25000000    2.82999992
   17.18111038  128.47200012    1.25000000    2.84999990
   17.18416595  122.76399994    1.25000000    2.82999992
   17.18750000  122.39499664    1.23000002    2.84999990
   17.19083214  133.97000122    1.25000000    2.84999990
   17.19388771  137.38900757    1.25000000    2.84999990
   17.19722176  130.60899353    1.25000000    2.84999990
   17.20027924  130.50100708    1.25000000    2.84999990
   17.20361137  126.23000336    1.25000000    2.84999990
   17.20972252  126.23000336    1.25000000    2.84999990
   17.21389008  121.47699738    1.25000000    2.82999992
   17.21722221  121.41000366    1.25000000    2.82999992
   17.22027779  118.87200165    1.25000000    2.82999992
   17.22361183  123.39399719    1.25000000    2.84999990
   17.22666740  113.55799866    1.25000000    2.82999992
   17.23000145  117.88899994    1.25000000    2.82999992
   17.23333359  121.50499725    1.26999998    2.84999990
   17.23638916  116.71600342    1.26999998    2.84999990
   17.23972321  123.98500061    1.26999998    2.84999990
   17.24305534  120.52200317    1.25000000    2.82999992
   17.24611092  122.96099854    1.25000000    2.82999992
   17.24722290  120.39700317    1.25000000    2.82999992
   17.25250053  120.39700317    1.25000000    2.84999990
   17.25666618  119.64499664    1.25000000    2.84999990
   17.26000023  122.39399719    1.25000000    2.84999990
   17.26305580  118.38300323    1.25000000    2.82999992
   17.26638794  119.12300110    1.25000000    2.84999990
   17.26972198  116.26899719    1.25000000    2.84999990
   17.27305603  120.05799866    1.25000000    2.84999990
   17.27611160  120.62100220    1.25000000    2.84999990
   17.27944374  120.99900055    1.25000000    2.84999990
   17.28027725  122.78900146    1.25000000    2.84999990
   17.28305435  120.75199890    1.25000000    2.84999990
   17.28610992  126.91799927    1.25000000    2.84999990
   17.28944397  125.60600281    1.25000000    2.84999990
   17.29555511  125.60600281    1.26999998    2.84999990
   17.29944420  119.67900085    1.26999998    2.84999990
   17.30277634  120.57099915    1.26999998    2.82999992
   17.30611038  122.00499725    1.26999998    2.82999992
   17.30916595  119.55999756    1.30999994    2.84999990
   17.31250000  116.69200134    1.33000004    2.84999990
   17.31361008  119.66699982    1.33000004    2.84999990
   17.31611061  116.92600250    1.30999994    2.82999992
   17.31916809  117.16000366    1.30999994    2.84999990
   17.32250023  121.10800171    1.30999994    2.84999990
   17.32583427  119.09400177    1.33000004    2.84999990
   17.32888985  122.91600037    1.30999994    2.84999990
   17.33222389  122.69899750    1.30999994    2.84999990
   17.33833313  122.69899750    1.28999996    2.84999990
   17.34250069  120.07900238    1.26999998    2.82999992
   17.34555626  120.93499756    1.26999998    2.84999990
   17.34694481  123.49099731    1.26999998    2.82999992
   17.34944534  123.75399780    1.26999998    2.84999990
   17.35250092  123.67099762    1.28999996    2.84999990
   17.35583305  123.75299835    1.26999998    2.84999990
   17.35916710  112.87000275    1.26999998    2.84999990
   17.36222267  115.94699860    1.26999998    2.82999992
   17.36555672  111.68199921    1.26999998    2.84999990
   17.36888885  119.41699982    1.26999998    2.84999990
   17.37194443  114.72399902    1.26999998    2.82999992
   17.37527847  116.15000153    1.26999998    2.82999992
   17.38111115  116.15000153    1.30999994    2.84999990
   17.38527679  124.29799652    1.28999996    2.84999990
   17.38861084  117.68599701    1.28999996    2.84999990
   17.39166641  122.21700287    1.28999996    2.82999992
   17.39500046  119.09899902    1.26999998    2.82999992
   17.39805603  120.37899780    1.26999998    2.82999992
   17.40138817  122.70500183    1.26999998    2.84999990
   17.40472221  127.07099915    1.26999998    2.84999990
   17.40777779  121.47100067    1.26999998    2.84999990
   17.41110992  125.36399841    1.26999998    2.82999992
   17.41361046  115.39499664    1.26999998    2.82999992
   17.41472244  123.81199646    1.26999998    2.82999992
   17.41777802  126.24700165    1.25000000    2.82999992
   17.42388916  126.24700165    1.25000000    2.84999990
   17.42805481  123.27799988    1.25000000    2.82999992
   17.43138885  123.42700195    1.26999998    2.84999990
   17.43444443  130.18899536    1.26999998    2.84999990
   17.43777657  122.70099640    1.26999998    2.84999990
   17.44111061  118.08399963    1.28999996    2.82999992
   17.44416618  130.87199402    1.30999994    2.84999990
   17.44694328  134.53999329    1.33000004    2.82999992
   17.44805527  125.68800354    1.33000004    2.82999992
   17.45111275  133.17999268    1.34000003    2.84999990
   17.45444489  133.22700500    1.34000003    2.84999990
   17.45777893  133.14700317    1.33000004    2.82999992
   17.46083450  134.85899353    1.33000004    2.84999990
   17.46694565  134.85899353    1.30999994    2.84999990
   17.47083473  129.87500000    1.33000004    2.84999990
   17.47416687  132.85899353    1.33000004    2.82999992
   17.47750092  128.27999878    1.33000004    2.84999990
   17.48027802  133.80799866    1.33000004    2.84999990
   17.48111153  123.41500092    1.33000004    2.84999990
   17.48416710  127.97399902    1.30999994    2.84999990
   17.48750114  126.42900085    1.30999994    2.82999992
   17.49083328  133.86000061    1.30999994    2.82999992
   17.49388885  134.21099854    1.30999994    2.84999990
   17.49722290  125.73600006    1.30999994    2.84999990
   17.50055504  136.46699524    1.30999994    2.84999990
   17.50361061  127.49900055    1.30999994    2.82999992
   17.50972176  127.49900055    1.30999994    2.82999992
   17.51388931  130.53599548    1.30999994    2.82999992
   17.51694489  136.71499634    1.33000004    2.82999992
   17.52027702  123.15299988    1.34000003    2.82999992
   17.52333260  134.75100708    1.34000003    2.82999992
   17.52666664  131.98399353    1.34000003    2.82999992
   17.53000069  135.98500061    1.34000003    2.82999992
   17.53305435  137.66999817    1.34000003    2.82999992
   17.53638840  130.58500671    1.34000003    2.82999992
   17.53972244  135.83999634    1.34000003    2.82999992
   17.54277802  130.93499756    1.34000003    2.82999992
   17.54611015  125.09500122    1.34000003    2.82999992
   17.54694366  124.19799805    1.34000003    2.82999992
   17.55249977  124.19799805    1.34000003    2.82999992
   17.55666542  129.53700256    1.34000003    2.82999992
   17.55999947  131.41099548    1.34000003    2.82999992
   17.56305504  138.62100220    1.39999998    2.82999992
   17.58055687  142.30999756    1.39999998    2.82999992
   17.58305550  140.72900391    1.38000000    2.80999994
   17.58638954  142.86099243    1.38000000    2.80999994
   17.58944511  144.23100281    1.39999998    2.82999992
   17.59555626  144.23100281    1.39999998    2.82999992
   17.59972191  138.78599548    1.44000006    2.82999992
   17.60305595  135.92399597    1.44000006    2.80999994
   17.60611153  128.85499573    1.44000006    2.80999994
   17.60944557  131.28100586    1.44000006    2.82999992
   17.61277771  131.40400696    1.46000004    2.82999992
   17.61388969  131.00000000    1.46000004    2.82999992
   17.61638832  132.00300598    1.46000004    2.82999992
   17.61944389  131.63000488    1.46000004    2.82999992
   17.62277794  130.38900757    1.48000002    2.82999992
   17.62611198  129.75199890    1.46000004    2.82999992
   17.62916756  126.48100281    1.46000004    2.82999992
   17.63249969  122.34799957    1.44000006    2.82999992
   17.63833237  122.34799957    1.44000006    2.80999994
   17.64249992  141.26300049    1.41999996    2.80999994
   17.64583397  133.22300720    1.41999996    2.82999992
   17.64722252  131.34700012    1.41999996    2.82999992
   17.64944458  133.86599731    1.41999996    2.82999992
   17.65250015  127.32700348    1.39999998    2.82999992
   17.65583229  125.48500061    1.41999996    2.82999992
   17.65916634  123.07800293    1.41999996    2.82999992
   17.66222191  120.78399658    1.39999998    2.82999992
   17.66555595  122.37699890    1.39999998    2.82999992
   17.66860962  128.47900391    1.39999998    2.82999992
   17.67194366  124.67500305    1.39999998    2.82999992
   17.67527771  129.70100403    1.39999998    2.82999992
   17.68111038  129.70100403    1.38000000    2.82999992
   17.68527603  124.41999817    1.38000000    2.82999992
   17.68861008  128.15899658    1.38000000    2.80999994
   17.69194412  127.03399658    1.38000000    2.82999992
   17.69499969  131.66400146    1.38000000    2.82999992
   17.69833183  130.74800110    1.39999998    2.80999994
   17.70166779  130.97700500    1.39999998    2.80999994
   17.70472336  133.61199951    1.38000000    2.80999994
   17.70805550  128.78500366    1.38000000    2.82999992
   17.71138954  124.05899811    1.38000000    2.84999990
   17.71389008  124.22899628    1.39999998    2.82999992
   17.71500015  128.91299438    1.38000000    2.82999992
   17.71805573  124.70099640    1.39999998    2.80999994
   17.72416687  124.70099640    1.39999998    2.82999992
   17.72833443  131.08500671    1.38000000    2.82999992
   17.73139000  117.57599640    1.39999998    2.80999994
   17.73472214  132.93899536    1.38000000    2.80999994
   17.73805618  119.00399780    1.38000000    2.80999994
   17.74111176  119.41600037    1.38000000    2.82999992
   17.74444389  121.65599823    1.36000001    2.80999994
   17.74722290  124.60800171    1.36000001    2.82999992
   17.74805641  123.21900177    1.36000001    2.82999992
   17.75111198  120.54499817    1.36000001    2.82999992
   17.75444412  125.79399872    1.36000001    2.82999992
   17.75777817  127.98799896    1.34000003    2.82999992
   17.76083374  132.04499817    1.34000003    2.82999992
   17.76694489  132.04499817    1.34000003    2.82999992
   17.77111053  123.69000244    1.34000003    2.82999992
   17.77416611  125.04599762    1.33000004    2.82999992
   17.77750015  125.45300293    1.33000004    2.82999992
   17.78055573  125.32499695    1.33000004    2.82999992
   17.78111076  127.11799622    1.33000004    2.82999992
   17.78444481  120.20800018    1.33000004    2.82999992
   17.78750038  123.21900177    1.33000004    2.82999992
   17.79083252  126.93299866    1.33000004    2.80999994
   17.79388809  112.61499786    1.33000004    2.82999992
   17.79722214  121.21499634    1.30999994    2.82999992
   17.80055428  133.49600220    1.30999994    2.82999992
   17.80360985  124.88099670    1.30999994    2.80999994
   17.80972099  124.88099670    1.30999994    2.82999992
   17.81388855  127.58300018    1.30999994    2.82999992
   17.81722260  126.48100281    1.28999996    2.82999992
   17.82027817  136.03199768    1.28999996    2.80999994
   17.82361221  128.60000610    1.28999996    2.82999992
   17.82694626  127.65200043    1.26999998    2.80999994
   17.83000183  133.62899780    1.26999998    2.82999992
   17.83333397  123.48799896    1.26999998    2.82999992
   17.83638954  117.40499878    1.25000000    2.82999992
   17.83972359  126.61000061    1.25000000    2.82999992
   17.84305573  130.18200684    1.25000000    2.82999992
   17.84611130  136.32499695    1.25000000    2.82999992
   17.84722328  131.94500732    1.25000000    2.82999992
   17.85250092  131.94500732    1.25000000    2.80999994
   17.85666656  118.40299988    1.25000000    2.82999992
   17.86000061  138.57400513    1.25000000    2.82999992
   17.86333466  128.12300110    1.23000002    2.82999992
   17.86638832  127.05100250    1.25000000    2.82999992
   17.86972237  126.55300140    1.23000002    2.82999992
   17.87277794  129.77000427    1.23000002    2.82999992
   17.87611198  130.38200378    1.23000002    2.82999992
   17.87944412  135.99200439    1.23000002    2.82999992
   17.88055611  128.44900513    1.23000002    2.82999992
   17.88305473  131.23399353    1.25000000    2.82999992
   17.88611031  129.24499512    1.25000000    2.82999992
   17.88944435  133.43400574    1.23000002    2.82999992
   17.89555550  133.43400574    1.25000000    2.82999992
   17.89944458  124.50499725    1.25000000    2.82999992
   17.90277672  125.13600159    1.25000000    2.82999992
   17.90611076  114.50599670    1.25000000    2.82999992
   17.90916634  134.06300354    1.25000000    2.82999992
   17.91250038  127.63999939    1.26999998    2.82999992
   17.91388893  128.97300720    1.26999998    2.80999994
   17.91611099  133.28599548    1.26999998    2.82999992
   17.91916656  134.63200378    1.26999998    2.82999992
   17.92249870  122.93299866    1.26999998    2.82999992
   17.92583275  129.72000122    1.26999998    2.82999992
   17.92888832  121.84700012    1.26999998    2.82999992
   17.93222237  127.30699921    1.28999996    2.80999994
   17.93833160  127.30699921    1.28999996    2.82999992
   17.94249916  128.53700256    1.30999994    2.82999992
   17.94555473  127.84999847    1.30999994    2.82999992
   17.94722176  120.35600281    1.30999994    2.82999992
   17.94944382  127.41100311    1.30999994    2.82999992
   17.95250130  127.66300201    1.28999996    2.82999992
   17.95583344  128.19599915    1.28999996    2.82999992
   17.95916748  124.85299683    1.30999994    2.82999992
   17.96222305  119.36900330    1.30999994    2.82999992
   17.96555710  123.29900360    1.33000004    2.82999992
   17.96888924  130.05900574    1.33000004    2.82999992
   17.97194481  130.78799438    1.34000003    2.80999994
   17.97527885  142.85499573    1.34000003    2.80999994
   17.98111153  142.85499573    1.34000003    2.82999992
   17.98527718  135.46299744    1.34000003    2.82999992
   17.98861122  130.91000366    1.36000001    2.82999992
   17.99166679  137.57899475    1.34000003    2.80999994
   17.99500084  135.25300598    1.36000001    2.80999994
   17.99833298  129.02900696    1.36000001    2.82999992
   18.00138855  127.84999847    1.36000001    2.80999994
   18.00472260  133.98300171    1.36000001    2.80999994
   18.00777817  132.25100708    1.38000000    2.82999992
   18.01111031  132.48599243    1.36000001    2.80999994
   18.01388931  143.66600037    1.38000000    2.80999994
   18.01472282  122.95999908    1.38000000    2.80999994
   18.01777840  130.24400330    1.38000000    2.82999992
   18.02388954  130.24400330    1.38000000    2.80999994
   18.02805519  117.07800293    1.38000000    2.80999994
   18.03138924  130.94900513    1.38000000    2.80999994
   18.03472137  122.13600159    1.38000000    2.82999992
   18.03777695  123.69100189    1.38000000    2.82999992
   18.04111099  126.91300201    1.39999998    2.80999994
   18.04416656  121.57800293    1.39999998    2.80999994
   18.04722214  135.94400024    1.39999998    2.80999994
   18.04805565  142.62199402    1.39999998    2.80999994
   18.05111122  126.22299957    1.39999998    2.80999994
   18.05444336  117.58699799    1.39999998    2.80999994
   18.05777740  123.87100220    1.41999996    2.80999994
   18.06083298  124.95099640    1.41999996    2.80999994
   18.06694603  124.95099640    1.44000006    2.80999994
   18.07083511  130.01899719    1.44000006    2.80999994
   18.07416725  124.78800201    1.41999996    2.80999994
   18.07750130  130.10299683    1.46000004    2.82999992
   18.08055687  125.11599731    1.48000002    2.80999994
   18.08111191  134.37899780    1.48000002    2.80999994
   18.08444595  128.49200439    1.48000002    2.80999994
   18.08777809  128.50599670    1.48000002    2.80999994
   18.09083366  120.86799622    1.46000004    2.80999994
   18.09416771  118.97299957    1.48000002    2.78999996
   18.09722328  121.96900177    1.48000002    2.82999992
   18.10055542  130.01100159    1.51999998    2.80999994
   18.10388947  124.77700043    1.48000002    2.80999994
   18.10972214  124.77700043    1.46000004    2.80999994
   18.11388969  120.77400208    1.41999996    2.82999992
   18.11444473  126.47399902    1.41999996    2.80999994
   18.11750031  116.29000092    1.44000006    2.80999994
   18.12083435  125.54499817    1.44000006    2.82999992
   18.12416649  129.67799377    1.44000006    2.80999994
   18.12722206  133.79800415    1.41999996    2.80999994
   18.13055611  133.58200073    1.44000006    2.80999994
   18.13388824  132.37300110    1.44000006    2.80999994
   18.13694382  131.60000610    1.44000006    2.80999994
   18.14027786  123.13899994    1.44000006    2.80999994
   18.14333344  129.65100098    1.46000004    2.80999994
   18.14666748  122.32099915    1.48000002    2.78999996
   18.14777756  134.44000244    1.48000002    2.78999996
   18.15250015  134.44000244    1.50000000    2.80999994
   18.15666580  134.89100647    1.50000000    2.80999994
   18.15999985  130.00799561    1.50000000    2.80999994
   18.16305542  131.95500183    1.53999996    2.78999996
   18.16638756  130.81599426    1.53999996    2.78999996
   18.16944313  131.60200500    1.53999996    2.80999994
   18.17277718  125.09100342    1.53999996    2.80999994
   18.17611122  122.18000031    1.53999996    2.80999994
   18.17916679  124.45099640    1.53999996    2.80999994
   18.18111038  131.09100342    1.53999996    2.80999994
   18.18277740  135.50300598    1.53999996    2.80999994
   18.18610954  133.75000000    1.53999996    2.80999994
   18.18944359  124.02200317    1.53999996    2.80999994
   18.19527626  124.02200317    1.53999996    2.80999994
   18.19944382  134.40699768    1.53999996    2.78999996
   18.20277786  133.47300720    1.53999996    2.80999994
   18.20611191  136.52699280    1.53999996    2.80999994
   18.20916748  122.48699951    1.53999996    2.80999994
   18.21250153  127.97899628    1.53999996    2.80999994
   18.21444511  127.92299652    1.53999996    2.80999994
   18.21611214  123.19100189    1.53999996    2.80999994
   18.21944427  131.55099487    1.53999996    2.80999994
   18.22277832  128.49099731    1.53999996    2.80999994
   18.22583389  133.16299438    1.55999994    2.80999994
   18.22916794  127.10900116    1.55999994    2.80999994
   18.23222351  130.14100647    1.58000004    2.80999994
   18.23833275  130.14100647    1.58000004    2.80999994
   18.24222183  135.67599487    1.60000002    2.78999996
   18.24555588  131.47200012    1.60000002    2.78999996
   18.24777794  128.53599548    1.60000002    2.80999994
   18.24916649  131.51899719    1.60000002    2.78999996
   18.25250053  129.87699890    1.60000002    2.78999996
   18.25583267  123.08300018    1.60000002    2.80999994
   18.25888824  123.88400269    1.60000002    2.80999994
   18.26222229  130.66099548    1.60000002    2.78999996
   18.26555634  125.69999695    1.58000004    2.78999996
   18.26861000  140.61300659    1.60000002    2.80999994
   18.27194405  124.78099823    1.58000004    2.80999994
   18.27499962  134.64799500    1.58000004    2.78999996
   18.28111076  134.64799500    1.58000004    2.78999996
   18.28527641  114.97000122    1.58000004    2.80999994
   18.28833199  130.41400146    1.60000002    2.80999994
   18.29166603  120.71900177    1.60000002    2.78999996
   18.29500008  131.17599487    1.61000001    2.80999994
   18.29805565  130.34300232    1.60000002    2.78999996
   18.30138779  125.86699677    1.60000002    2.78999996
   18.30444336  123.73999786    1.60000002    2.78999996
   18.30777740  118.84700012    1.58000004    2.78999996
   18.31110954  124.84100342    1.60000002    2.78999996
   18.31416512  122.41500092    1.60000002    2.78999996
   18.31472206  126.08399963    1.58000004    2.80999994
   18.31805611  122.41100311    1.58000004    2.78999996
   18.32389069  122.41100311    1.58000004    2.80999994
   18.32805634  129.80900574    1.55999994    2.78999996
   18.33139038  132.79600525    1.55999994    2.78999996
   18.33444595  126.82700348    1.55999994    2.78999996
   18.33777809  127.80400085    1.55999994    2.80999994
   18.34083366  131.74800110    1.53999996    2.80999994
   18.34416771  139.24699402    1.53999996    2.78999996
   18.34749985  133.25500488    1.53999996    2.80999994
   18.34805679  135.05000305    1.53999996    2.80999994
   18.35111237  130.21299744    1.53999996    2.80999994
   18.35444450  132.37399292    1.53999996    2.78999996
   18.35750008  136.33999634    1.53999996    2.78999996
   18.36083412  135.41600037    1.55999994    2.78999996
   18.36666679  135.41600037    1.53999996    2.78999996
   18.37083435  132.25700378    1.53999996    2.78999996
   18.37416649  123.31600189    1.53999996    2.78999996
   18.37722206  132.12300110    1.53999996    2.78999996
   18.38055611  143.42599487    1.55999994    2.78999996
   18.38138962  139.33599854    1.55999994    2.78999996
   18.38416672  119.22000122    1.55999994    2.78999996
   18.38750076  132.59800720    1.53999996    2.80999994
   18.39083290  138.63299561    1.53999996    2.78999996
   18.39388847  136.30000305    1.53999996    2.78999996
   18.39722252  136.17999268    1.53999996    2.80999994
   18.40055466  120.50700378    1.55999994    2.80999994
   18.40361023  123.88500214    1.53999996    2.76999998
   18.40944481  123.88500214    1.53999996    2.78999996
   18.41361046  125.45700073    1.53999996    2.80999994
   18.41472244  132.95100403    1.53999996    2.80999994
   18.41749954  131.84899902    1.51999998    2.80999994
   18.42083359  135.46099854    1.51999998    2.78999996
   18.42388916  136.92100525    1.51999998    2.78999996
   18.42722130  141.66999817    1.53999996    2.78999996
   18.43027687  139.20500183    1.53999996    2.78999996
   18.43361092  124.36900330    1.55999994    2.78999996
   18.43694305  134.27999878    1.55999994    2.78999996
   18.43999863  144.78700256    1.60000002    2.78999996
   18.44333267  134.23399353    1.58000004    2.78999996
   18.44666672  120.20600128    1.60000002    2.78999996
   18.44805527  132.08399963    1.60000002    2.78999996
   18.45250130  132.08399963    1.61000001    2.78999996
   18.45666695  131.44700623    1.63000000    2.78999996
   18.45972252  128.80900574    1.64999998    2.78999996
   18.46305656  134.75399780    1.64999998    2.78999996
   18.46611214  125.96399689    1.66999996    2.78999996
   18.46944427  129.56599426    1.69000006    2.78999996
   18.47277832  124.28299713    1.71000004    2.78999996
   18.47583389  132.84300232    1.71000004    2.78999996
   18.47916794  132.17100525    1.73000002    2.78999996
   18.48139000  135.75000000    1.73000002    2.78999996
   18.48277855  132.29299927    1.73000002    2.78999996
   18.48611069  136.50999451    1.73000002    2.78999996
   18.48916626  141.90100098    1.73000002    2.78999996
   18.49527740  141.90100098    1.73000002    2.78999996
   18.49944496  129.24699402    1.71000004    2.78999996
   18.50277710  131.21600342    1.71000004    2.78999996
   18.50583267  129.04600525    1.71000004    2.78999996
   18.50916672  137.57400513    1.71000004    2.78999996
   18.51222229  137.79200745    1.69000006    2.78999996
   18.51472282  136.30099487    1.69000006    2.78999996
   18.51611137  134.27600098    1.69000006    2.78999996
   18.51944351  139.70100403    1.69000006    2.78999996
   18.52249908  136.73199463    1.66999996    2.78999996
   18.52583313  143.91099548    1.66999996    2.78999996
   18.52916718  141.80299377    1.64999998    2.78999996
   18.53222275  142.05999756    1.64999998    2.78999996
   18.53805542  142.05999756    1.63000000    2.78999996
   18.54222107  133.61099243    1.64999998    2.78999996
   18.54555511  140.03900146    1.66999996    2.78999996
   18.54805565  126.24600220    1.64999998    2.78999996
   18.54916573  140.54200745    1.64999998    2.78999996
   18.55249977  127.54799652    1.64999998    2.78999996
   18.55555534  131.34700012    1.64999998    2.78999996
   18.55888748  126.12300110    1.63000000    2.80999994
   18.56222153  132.33999634    1.69000006    2.76999998
   18.56527710  133.96800232    1.69000006    2.78999996
   18.56861115  137.86799622    1.66999996    2.78999996
   18.57166672  126.63300323    1.66999996    2.78999996
   18.57500076  142.66799927    1.61000001    2.78999996
   18.58083344  142.66799927    1.61000001    2.78999996
   18.59944534  133.54299927    1.63000000    2.78999996
   18.60250092  133.42700195    1.60000002    2.80999994
   18.60583305  131.49200439    1.61000001    2.78999996
   18.60916710  135.16400146    1.63000000    2.78999996
   18.61222267  138.18899536    1.63000000    2.78999996
   18.61555672  128.93600464    1.61000001    2.78999996
   18.61861038  128.78599548    1.60000002    2.78999996
   18.62416649  128.78599548    1.61000001    2.78999996
   18.62833405  126.13500214    1.61000001    2.78999996
   18.63138962  127.40100098    1.63000000    2.78999996
   18.63249969  130.82099915    1.63000000    2.78999996
   18.63500023  126.91300201    1.63000000    2.78999996
   18.63833237  132.27299500    1.63000000    2.76999998
   18.64166641  129.73599243    1.63000000    2.78999996
   18.64472198  125.21700287    1.63000000    2.78999996
   18.64805603  135.82800293    1.61000001    2.78999996
   18.65138817  135.55200195    1.61000001    2.78999996
   18.65444374  133.68699646    1.61000001    2.78999996
   18.65777779  140.23300171    1.60000002    2.78999996
   18.66083336  133.75100708    1.60000002    2.78999996
   18.66694450  133.75100708    1.60000002    2.78999996
   18.67111015  136.73500061    1.60000002    2.76999998
   18.67416573  128.39599609    1.60000002    2.78999996
   18.67749977  133.40899658    1.60000002    2.78999996
   18.68083191  125.58300018    1.60000002    2.78999996
   18.68388748  138.89799500    1.60000002    2.78999996
   18.68722153  126.77999878    1.58000004    2.78999996
   18.69055557  137.30099487    1.58000004    2.78999996
   18.69361115  136.62300110    1.60000002    2.78999996
   18.69694328  126.83399963    1.60000002    2.78999996
   18.69916534  128.61500549    1.60000002    2.78999996
   18.70055580  130.85200500    1.58000004    2.78999996
   18.70388985  128.14700317    1.58000004    2.78999996
   18.70972252  128.14700317    1.55999994    2.76999998
   18.71389008  125.53700256    1.55999994    2.78999996
   18.71722221  137.00300598    1.55999994    2.78999996
   18.72027779  126.81900024    1.55999994    2.78999996
   18.72361183  134.81199646    1.55999994    2.76999998
   18.72666740  137.30499268    1.55999994    2.78999996
   18.73000145  140.77499390    1.53999996    2.76999998
   18.73250008  128.36199951    1.55999994    2.78999996
   18.73361206  131.84100342    1.55999994    2.78999996
   18.73694420  131.15499878    1.55999994    2.78999996
   18.74027824  133.98300171    1.55999994    2.78999996
   18.74333382  134.84700012    1.55999994    2.78999996
   18.74666786  142.41200256    1.55999994    2.78999996
   18.75250053  142.41200256    1.53999996    2.78999996
   18.75666618  137.03999329    1.53999996    2.78999996
   18.76000023  136.01800537    1.53999996    2.78999996
   18.76305580  123.70800018    1.53999996    2.78999996
   18.76583290  144.71699524    1.51999998    2.76999998
   18.76666641  136.20300293    1.51999998    2.76999998
   18.77000046  133.78799438    1.51999998    2.78999996
   18.77333260  126.51399994    1.50000000    2.78999996
   18.77638817  131.57800293    1.50000000    2.76999998
   18.77972221  133.95100403    1.50000000    2.78999996
   18.78277779  135.06100464    1.50000000    2.78999996
   18.78610992  140.08500671    1.50000000    2.78999996
   18.78944397  130.19000244    1.51999998    2.78999996
   18.79555511  130.19000244    1.51999998    2.78999996
   18.79944420  131.53599548    1.51999998    2.78999996
   18.80277634  127.44300079    1.51999998    2.78999996
   18.80611038  121.54399872    1.50000000    2.78999996
   18.80916595  133.24400330    1.50000000    2.78999996
   18.81250000  138.71400452    1.50000000    2.78999996
   18.81583214  134.58000183    1.51999998    2.78999996
   18.81888962  138.02900696    1.51999998    2.76999998
   18.82222366  132.54600525    1.51999998    2.78999996
   18.82555580  129.50700378    1.51999998    2.78999996
   18.82861137  129.81700134    1.51999998    2.78999996
   18.83194542  133.13999939    1.51999998    2.78999996
   18.83250046  142.34899902    1.51999998    2.78999996
   18.83833313  142.34899902    1.51999998    2.76999998
   18.84250069  122.48500061    1.53999996    2.78999996
   18.84555626  132.28599548    1.53999996    2.76999998
   18.84889030  128.33799744    1.53999996    2.76999998
   18.85222244  133.14500427    1.53999996    2.78999996
   18.85527802  132.07000732    1.53999996    2.76999998
   18.85861206  138.14300537    1.53999996    2.76999998
   18.86194420  137.33999634    1.53999996    2.76999998
   18.86499977  139.71299744    1.51999998    2.78999996
   18.86583328  137.07200623    1.51999998    2.78999996
   18.86888885  141.79899597    1.51999998    2.78999996
   18.87194443  132.66000366    1.51999998    2.78999996
   18.87527847  131.43499756    1.51999998    2.78999996
   18.88111115  131.43499756    1.51999998    2.78999996
   18.88527679  134.36900330    1.50000000    2.76999998
   18.88861084  118.14199829    1.51999998    2.76999998
   18.89166641  124.21199799    1.50000000    2.76999998
   18.89500046  130.62100220    1.50000000    2.78999996
   18.89805603  123.30500031    1.50000000    2.78999996
   18.89916611  129.39999390    1.50000000    2.78999996
   18.90194321  124.50800323    1.50000000    2.78999996
   18.90499878  122.23600006    1.50000000    2.76999998
   18.90833282  131.78300476    1.50000000    2.76999998
   18.91166687  123.66699982    1.50000000    2.78999996
   18.91472244  127.46199799    1.50000000    2.76999998
   18.91805458  130.22300720    1.51999998    2.76999998
   18.92388916  130.22300720    1.51999998    2.78999996
   18.92805481  126.93299866    1.51999998    2.76999998
   18.93138885  131.45199585    1.51999998    2.78999996
   18.93249893  125.51999664    1.51999998    2.76999998
   18.93499947  123.59899902    1.51999998    2.78999996
   18.93805504  126.27700043    1.51999998    2.78999996
   18.94138718  122.86299896    1.51999998    2.76999998
   18.94444275  134.71200562    1.51999998    2.78999996
   18.94777679  124.54799652    1.51999998    2.76999998
   18.95111275  123.66699982    1.51999998    2.76999998
   18.95416832  131.58700562    1.51999998    2.76999998
   18.95750046  129.43800354    1.51999998    2.76999998
   18.96083450  121.21399689    1.51999998    2.76999998
   18.96694565  121.21399689    1.50000000    2.76999998
   18.97083473  129.88200378    1.50000000    2.78999996
   18.97416687  123.49299622    1.50000000    2.76999998
   18.97750092  128.85699463    1.48000002    2.76999998
   18.98055649  130.36700439    1.48000002    2.76999998
   18.98388863  125.31099701    1.48000002    2.76999998
   18.98722267  119.03600311    1.48000002    2.76999998
   18.99027824  122.07099915    1.48000002    2.76999998
   18.99361229  124.39800262    1.48000002    2.76999998
   18.99666786  115.07900238    1.48000002    2.76999998
   18.99916649  117.63600159    1.48000002    2.76999998
   19.00055504  129.92500305    1.48000002    2.76999998
   19.00361061  117.62799835    1.48000002    2.78999996
   19.00972176  117.62799835    1.48000002    2.76999998
   19.01388931  127.58599854    1.50000000    2.76999998
   19.01694489  121.13300323    1.50000000    2.76999998
   19.02027702  122.35600281    1.50000000    2.78999996
   19.02361107  122.68599701    1.50000000    2.76999998
   19.02666664  123.36599731    1.50000000    2.76999998
   19.03000069  125.54000092    1.48000002    2.76999998
   19.03277779  119.58499908    1.50000000    2.76999998
   19.03361130  122.49199677    1.50000000    2.76999998
   19.03694344  130.81500244    1.50000000    2.76999998
   19.04027748  127.12000275    1.50000000    2.76999998
   19.04333305  124.65200043    1.50000000    2.76999998
   19.04666710  117.16899872    1.50000000    2.76999998
   19.05249977  117.16899872    1.50000000    2.76999998
   19.05666542  122.79000092    1.50000000    2.76999998
   19.05972099  111.04199982    1.48000002    2.76999998
   19.06305504  121.09400177    1.48000002    2.76999998
   19.06583214  121.51799774    1.48000002    2.76999998
   19.06694603  119.68699646    1.48000002    2.76999998
   19.07000160  119.68199921    1.48000002    2.76999998
   19.07333374  124.87200165    1.48000002    2.76999998
   19.07666779  123.63800049    1.46000004    2.76999998
   19.07972336  113.84799957    1.46000004    2.76999998
   19.08305550  117.18900299    1.46000004    2.78999996
   19.08638954  122.32599640    1.46000004    2.76999998
   19.08944511  125.01499939    1.46000004    2.76999998
   19.09527779  125.01499939    1.46000004    2.76999998
   19.09944534  123.67400360    1.46000004    2.76999998
   19.10277748  126.12000275    1.46000004    2.76999998
   19.10611153  133.06300354    1.46000004    2.76999998
   19.10916710  125.01300049    1.44000006    2.76999998
   19.11250114  128.10099792    1.44000006    2.78999996
   19.11555672  127.36100006    1.41999996    2.76999998
   19.11888885  123.75299835    1.41999996    2.76999998
   19.12222290  124.88300323    1.41999996    2.76999998
   19.12527847  126.84999847    1.41999996    2.78999996
   19.12861061  132.45799255    1.41999996    2.76999998
   19.13166618  129.97500610    1.41999996    2.76999998
   19.13249969  119.05500031    1.41999996    2.76999998
   19.13833237  119.05500031    1.41999996    2.75000000
   19.14249992  124.25000000    1.41999996    2.76999998
   19.14583397  114.31199646    1.41999996    2.78999996
   19.14888954  121.50299835    1.41999996    2.76999998
   19.15222168  120.15799713    1.41999996    2.76999998
   19.15555573  116.35199738    1.39999998    2.76999998
   19.15861130  121.60600281    1.39999998    2.76999998
   19.16194344  126.25299835    1.39999998    2.76999998
   19.16527748  120.45099640    1.39999998    2.78999996
   19.16583252  123.12300110    1.39999998    2.78999996
   19.16888809  112.54799652    1.38000000    2.76999998
   19.17194366  108.61599731    1.38000000    2.76999998
   19.17527771  118.50099945    1.38000000    2.76999998
   19.18111038  118.50099945    1.38000000    2.76999998
   19.18527603  115.31400299    1.38000000    2.76999998
   19.18833160  119.52300262    1.38000000    2.76999998
   19.19166565  117.28099823    1.38000000    2.76999998
   19.19472122  113.93800354    1.39999998    2.76999998
   19.19805527  112.48500061    1.39999998    2.76999998
   19.19916534  118.57499695    1.39999998    2.76999998
   19.20166779  121.51699829    1.39999998    2.76999998
   19.20472336  118.01599884    1.39999998    2.76999998
   19.20805550  119.61699677    1.39999998    2.76999998
   19.21138954  118.64499664    1.39999998    2.76999998
   19.21444511  119.33999634    1.41999996    2.76999998
   19.21777916  109.87200165    1.44000006    2.76999998
   19.22389030  109.87200165    1.44000006    2.76999998
   19.22805595  117.09400177    1.44000006    2.76999998
   19.23139000  111.89199829    1.44000006    2.76999998
   19.23250008  110.08399963    1.46000004    2.75000000
   19.23500061  113.77799988    1.48000002    2.76999998
   19.23805618  114.98999786    1.50000000    2.75000000
   19.24138832  114.25599670    1.50000000    2.75000000
   19.24472237  120.17199707    1.50000000    2.75000000
   19.24777794  114.41000366    1.51999998    2.75000000
   19.25111198  122.25700378    1.53999996    2.75000000
   19.25416756  118.05500031    1.53999996    2.76999998
   19.25749969  126.84400177    1.53999996    2.75000000
   19.26083374  128.07400513    1.55999994    2.75000000
   19.26666641  128.07400513    1.55999994    2.75000000
   19.27083397  123.34200287    1.55999994    2.75000000
   19.27416611  117.77700043    1.55999994    2.75000000
   19.27722168  121.23500061    1.55999994    2.75000000
   19.28055573  115.06400299    1.55999994    2.75000000
   19.28388786  115.12400055    1.55999994    2.75000000
   19.28694344  117.16200256    1.55999994    2.75000000
   19.29027748  115.16300201    1.55999994    2.75000000
   19.29361153  121.42500305    1.55999994    2.75000000
   19.29666710  116.21199799    1.55999994    2.75000000
   19.29916573  120.30699921    1.55999994    2.75000000
   19.30055428  123.70500183    1.55999994    2.75000000
   19.30360985  106.24900055    1.55999994    2.75000000
   19.30972099  106.24900055    1.53999996    2.75000000
   19.31361008  118.67199707    1.53999996    2.75000000
   19.31694603  124.21199799    1.53999996    2.75000000
   19.32027817  127.75399780    1.53999996    2.75000000
   19.32333374  123.66899872    1.53999996    2.75000000
   19.32666779  122.26499939    1.53999996    2.75000000
   19.33000183  121.29900360    1.53999996    2.75000000
   19.33250046  122.22699738    1.53999996    2.75000000
   19.33361244  121.70999908    1.53999996    2.75000000
   19.33666801  125.63300323    1.51999998    2.75000000
   19.34000015  127.54199982    1.53999996    2.75000000
   19.34333420  118.73799896    1.51999998    2.75000000
   19.34638977  123.12000275    1.51999998    2.75000000
   19.35250092  123.12000275    1.51999998    2.73000002
   19.35666656  121.00000000    1.51999998    2.75000000
   19.35972214  120.32199860    1.51999998    2.75000000
   19.36305618  120.72100067    1.51999998    2.75000000
   19.36583328  121.14299774    1.51999998    2.75000000
   19.36666679  115.96900177    1.51999998    2.75000000
   19.36972237  118.52100372    1.51999998    2.75000000
   19.37305641  116.23000336    1.53999996    2.75000000
   19.37638855  114.86399841    1.51999998    2.75000000
   19.37944412  111.39900208    1.53999996    2.75000000
   19.38277817  121.32499695    1.53999996    2.75000000
   19.38611031  126.89900208    1.53999996    2.75000000
   19.38916588  114.99700165    1.55999994    2.75000000
   19.39527702  114.99700165    1.55999994    2.73000002
   19.39944458  117.22799683    1.60000002    2.75000000
   19.40277672  123.30899811    1.60000002    2.75000000
   19.40583229  120.65200043    1.60000002    2.75000000
   19.40916634  119.35299683    1.60000002    2.75000000
   19.41222191  120.02899933    1.61000001    2.75000000
   19.41555595  116.40899658    1.61000001    2.73000002
   19.41888809  118.11799622    1.63000000    2.73000002
   19.42194366  112.70099640    1.63000000    2.73000002
   19.42527771  114.32099915    1.63000000    2.73000002
   19.42860985  119.62400055    1.63000000    2.73000002
   19.43166542  116.80899811    1.63000000    2.73000002
   19.43249893  114.56700134    1.63000000    2.73000002
   19.43805504  114.56700134    1.64999998    2.75000000
   19.44222069  112.87400055    1.64999998    2.73000002
   19.44555473  111.55200195    1.64999998    2.73000002
   19.44861031  113.22699738    1.66999996    2.73000002
   19.45194435  119.51599884    1.66999996    2.73000002
   19.45527840  115.47299957    1.66999996    2.73000002
   19.45833397  108.63999939    1.66999996    2.73000002
   19.46166801  107.89399719    1.69000006    2.73000002
   19.46500015  127.26300049    1.66999996    2.73000002
   19.46583366  112.46399689    1.66999996    2.73000002
   19.46861076  115.54399872    1.66999996    2.73000002
   19.47166634  112.05400085    1.66999996    2.73000002
   19.47500038  101.75299835    1.66999996    2.73000002
   19.48111153  101.75299835    1.66999996    2.73000002
   19.48500061  113.36799622    1.66999996    2.73000002
   19.48833275  114.05999756    1.66999996    2.73000002
   19.49166679  115.34799957    1.66999996    2.73000002
   19.49472237  110.71199799    1.66999996    2.73000002
   19.49805641  112.48300171    1.64999998    2.73000002
   19.49916649  108.40899658    1.64999998    2.73000002
   19.50166702  117.10299683    1.66999996    2.73000002
   19.50472260  115.58799744    1.66999996    2.73000002
   19.50805473  111.78900146    1.64999998    2.73000002
   19.51138878  115.22899628    1.64999998    2.73000002
   19.51444435  118.54799652    1.64999998    2.73000002
   19.51777840  117.04599762    1.64999998    2.73000002
   19.52388954  117.04599762    1.64999998    2.73000002
   19.52805519  120.18199921    1.64999998    2.73000002
   19.53138924  111.36799622    1.64999998    2.73000002
   19.53249931  112.19899750    1.64999998    2.71000004
   19.53499985  113.19899750    1.64999998    2.73000002
   19.53833199  118.31400299    1.64999998    2.73000002
   19.54138756  102.54199982    1.63000000    2.73000002
   19.54472160  109.74800110    1.63000000    2.75000000
   19.54777718  106.46299744    1.61000001    2.73000002
   19.55111122  121.21600342    1.61000001    2.73000002
   19.55444336  117.71700287    1.61000001    2.73000002
   19.55749893  116.72100067    1.60000002    2.73000002
   19.56083298   99.89949799    1.60000002    2.73000002
   19.56666756   99.89949799    1.60000002    2.73000002
   19.57083511  114.76899719    1.58000004    2.71000004
   19.57416725  107.70800018    1.58000004    2.73000002
   19.57722282  121.79799652    1.58000004    2.73000002
   19.58055687  118.48200226    1.55999994    2.75000000
   19.58361244  120.77999878    1.55999994    2.73000002
   19.58694458  117.49199677    1.55999994    2.73000002
   19.59027863  120.16600037    1.55999994    2.73000002
   19.59333420  107.78099823    1.55999994    2.73000002
   19.59666824  111.84200287    1.55999994    2.73000002
   19.59916687  117.18000031    1.55999994    2.73000002
   19.62000084  117.18000031    1.53999996    2.73000002
   19.62388992  115.58399963    1.53999996    2.73000002
   19.62722206  132.31300354    1.53999996    2.73000002
   19.63055611  120.94000244    1.53999996    2.73000002
   19.63249969  129.09800720    1.53999996    2.71000004
   19.63416672  127.21700287    1.53999996    2.73000002
   19.63750076  129.85200500    1.53999996    2.73000002
   19.64055634  120.83599854    1.53999996    2.71000004
   19.64388847  120.84500122    1.53999996    2.73000002
   19.64694405  125.72599792    1.53999996    2.71000004
   19.65027809  128.89100647    1.53999996    2.73000002
   19.65361023  121.96199799    1.53999996    2.71000004
   19.65666580  119.46800232    1.53999996    2.73000002
   19.66277695  119.46800232    1.53999996    2.71000004
   19.66666603  112.61499786    1.55999994    2.71000004
   19.67000008  119.81199646    1.55999994    2.71000004
   19.67333221  118.58000183    1.58000004    2.71000004
   19.67638779  114.69699860    1.58000004    2.71000004
   19.67972183  117.48300171    1.58000004    2.73000002
   19.68277740  115.90399933    1.60000002    2.71000004
   19.68610954  120.33899689    1.60000002    2.71000004
   19.68944359  112.29499817    1.61000001    2.71000004
   19.69249916  117.97899628    1.63000000    2.71000004
   19.69583321  122.44499969    1.63000000    2.71000004
   19.69916534  112.79499817    1.63000000    2.71000004
   19.69972038  127.30000305    1.64999998    2.71000004
   19.70555687  127.30000305    1.64999998    2.71000004
   19.70972252  116.89399719    1.64999998    2.69000006
   19.71277809  110.86399841    1.64999998    2.69000006
   19.71611214  115.12899780    1.64999998    2.71000004
   19.71916771  120.03099823    1.64999998    2.71000004
   19.72249985  114.03099823    1.64999998    2.71000004
   19.72583389  117.21399689    1.64999998    2.71000004
   19.72888947  116.19400024    1.64999998    2.71000004
   19.73222351  116.84100342    1.64999998    2.71000004
   19.73305511  114.30699921    1.64999998    2.71000004
   19.73583412  114.78900146    1.64999998    2.69000006
   19.73916626  119.65299988    1.64999998    2.71000004
   19.74250031  115.25700378    1.66999996    2.71000004
   19.74833298  115.25700378    1.64999998    2.71000004
   19.75250053  119.72299957    1.64999998    2.71000004
   19.75555611  117.59899902    1.64999998    2.71000004
   19.75888824  123.50499725    1.64999998    2.71000004
   19.76222229  105.55500031    1.64999998    2.71000004
   19.76527786  116.92500305    1.64999998    2.71000004
   19.76638794  117.18699646    1.64999998    2.71000004
   19.76888847  107.29000092    1.64999998    2.69000006
   19.77222252  117.51100159    1.64999998    2.71000004
   19.77527809  114.57299805    1.64999998    2.71000004
   19.77861023  110.44000244    1.63000000    2.71000004
   19.78194427  108.62699890    1.63000000    2.69000006
   19.78499985  120.18900299    1.63000000    2.69000006
   19.79111099  120.18900299    1.63000000    2.71000004
   19.79527664  118.43399811    1.61000001    2.71000004
   19.79861069  115.25900269    1.61000001    2.71000004
   19.79972076  112.56800079    1.61000001    2.71000004
   19.80222130  123.19100189    1.61000001    2.71000004
   19.80555534  117.33899689    1.61000001    2.71000004
   19.80861092  118.05200195    1.61000001    2.69000006
   19.81194305  114.38700104    1.60000002    2.69000006
   19.81527710  118.27600098    1.60000002    2.69000006
   19.81833458  113.10700226    1.61000001    2.69000006
   19.82166672  115.85700226    1.61000001    2.69000006
   19.82500076  122.22100067    1.61000001    2.71000004
   19.82805634  118.53299713    1.60000002    2.71000004
   19.83416748  118.53299713    1.60000002    2.71000004
   19.83805656  121.06900024    1.61000001    2.69000006
   19.84138870  115.24600220    1.60000002    2.71000004
   19.84472275  109.86299896    1.61000001    2.69000006
   19.84777832  111.40399933    1.61000001    2.69000006
   19.85111237  113.16899872    1.63000000    2.69000006
   19.85416794  110.27600098    1.61000001    2.69000006
   19.85750008  125.22599792    1.63000000    2.69000006
   19.86083412  116.68900299    1.63000000    2.69000006
   19.86388969  117.41400146    1.63000000    2.69000006
   19.86638832  119.68299866    1.64999998    2.69000006
   19.86750031  103.59600067    1.63000000    2.69000006
   19.87083435  111.99500275    1.64999998    2.69000006
   19.87694550  111.99500275    1.64999998    2.69000006
   19.88111115  110.66899872    1.66999996    2.69000006
   19.88416672  115.43900299    1.66999996    2.69000006
   19.88750076  119.29199982    1.66999996    2.67000008
   19.89055634  113.10099792    1.66999996    2.67000008
   19.89388847  120.01000214    1.66999996    2.69000006
   19.89722252  121.16899872    1.66999996    2.69000006
   19.89972115  108.05100250    1.66999996    2.69000006
   19.90083313  115.45300293    1.69000006    2.67000008
   19.90416718  113.15699768    1.71000004    2.67000008
   19.90749931  119.08300018    1.73000002    2.69000006
   19.91055489  125.78800201    1.71000004    2.69000006
   19.91388893  118.23899841    1.71000004    2.67000008
   19.91972160  118.23899841    1.73000002    2.67000008
   19.92388916  112.97499847    1.73000002    2.67000008
   19.92694473  121.86699677    1.73000002    2.69000006
   19.93027687  115.13899994    1.73000002    2.67000008
   19.93305397  117.61100006    1.75000000    2.67000008
   19.93388748  113.62799835    1.75000000    2.69000006
   19.93722153  114.43699646    1.75000000    2.69000006
   19.94055557  119.95400238    1.73000002    2.67000008
   19.94361115  122.59899902    1.75000000    2.67000008
   19.94694328  119.25000000    1.75000000    2.69000006
   19.95000076  122.36799622    1.75000000    2.67000008
   19.95333481  119.21900177    1.75000000    2.67000008
   19.95666695  121.76300049    1.75000000    2.67000008
   19.96250153  121.76300049    1.76999998    2.67000008
   19.96666718  113.93099976    1.76999998    2.67000008
   19.97000122  115.02899933    1.75000000    2.67000008
   19.97305679  109.20300293    1.76999998    2.67000008
   19.97638893  121.15799713    1.76999998    2.67000008
   19.97972298  111.27700043    1.76999998    2.67000008
   19.98277855  114.54399872    1.76999998    2.67000008
   19.98611069  108.06300354    1.78999996    2.67000008
   19.98944473  106.78600311    1.80999994    2.67000008
   19.99250031  114.25000000    1.83000004    2.66000009
   19.99583435  113.50599670    1.83000004    2.66000009
   19.99888992  112.29000092    1.83000004    2.67000008
   19.99972153  114.89199829    1.83000004    2.67000008
   20.00527763  114.89199829    1.78999996    2.66000009
   20.00944519  105.22699738    1.80999994    2.67000008
   20.01277733  104.85399628    1.80999994    2.67000008
   20.01611137  101.16400146    1.80999994    2.67000008
   20.01916695  114.11299896    1.78999996    2.66000009
   20.02249908  111.92700195    1.78999996    2.67000008
   20.02583313  102.18499756    1.78999996    2.67000008
   20.02888870  108.47100067    1.78999996    2.66000009
   20.03222275  111.62999725    1.78999996    2.66000009
   20.03305435  108.15200043    1.78999996    2.66000009
   20.03583336   99.27670288    1.78999996    2.66000009
   20.03916550  113.01899719    1.78999996    2.66000009
   20.04249954  118.61900330    1.80999994    2.66000009
   20.04833221  118.61900330    1.78999996    2.67000008
   20.05249977  117.33399963    1.80999994    2.67000008
   20.05555534  119.45600128    1.80999994    2.66000009
   20.05888748  116.40100098    1.80999994    2.66000009
   20.06194305  113.73799896    1.80999994    2.67000008
   20.06527710  115.00299835    1.80999994    2.66000009
   20.06638718  117.21800232    1.80999994    2.66000009
   20.06888962  113.98600006    1.80999994    2.66000009
   20.07222366  118.69000244    1.80999994    2.66000009
   20.07555580  106.97799683    1.80999994    2.67000008
   20.07861137  112.38800049    1.80999994    2.66000009
   20.08194542  105.54900360    1.83000004    2.67000008
   20.08500099  112.64399719    1.83000004    2.67000008
   20.09111214  112.64399719    1.85000002    2.66000009
   20.09527779  110.72699738    1.85000002    2.66000009
   20.09833336  111.92500305    1.86000001    2.66000009
   20.09972191  107.70500183    1.88000000    2.66000009
   20.10222244  109.79599762    1.88000000    2.66000009
   20.10527802  107.24700165    1.88000000    2.66000009
   20.10861206  104.56300354    1.88000000    2.66000009
   20.11166763  113.04699707    1.88000000    2.66000009
   20.11499977  109.94599915    1.88000000    2.64000010
   20.11833382  112.89399719    1.89999998    2.64000010
   20.12138939  118.69499969    1.89999998    2.66000009
   20.12472153  115.62000275    1.88000000    2.64000010
   20.12805557  116.80599976    1.88000000    2.64000010
   20.13388824  116.80599976    1.88000000    2.66000009
   20.13805580  109.64099884    1.89999998    2.64000010
   20.14138794  112.21700287    1.88000000    2.64000010
   20.14444351  113.75099945    1.88000000    2.66000009
   20.14777756  109.07499695    1.88000000    2.64000010
   20.15111160  110.11900330    1.88000000    2.64000010
   20.15416718  110.63099670    1.89999998    2.64000010
   20.15749931  111.67500305    1.89999998    2.64000010
   20.16083336  107.50399780    1.89999998    2.64000010
   20.16388893  107.50700378    1.89999998    2.64000010
   20.16638756  114.78600311    1.89999998    2.64000010
   20.16749954  113.95700073    1.89999998    2.64000010
   20.17083359  114.40100098    1.91999996    2.64000010
   20.17666626  114.40100098    1.94000006    2.64000010
   20.18083191  109.51699829    1.94000006    2.64000010
   20.18416595  119.59200287    1.94000006    2.64000010
   20.18750000  115.27100372    1.98000002    2.64000010
   20.19055557  113.08899689    1.98000002    2.64000010
   20.19388771  113.50000000    1.98000002    2.64000010
   20.19694328  114.17199707    1.98000002    2.64000010
   20.19972038  116.20500183    2.00000000    2.64000010
   20.20055580  112.14900208    2.00000000    2.64000010
   20.20388985  117.43900299    2.00000000    2.61999989
   20.20722389  107.66899872    2.00000000    2.64000010
   20.21027946  115.70999908    2.01999998    2.64000010
   20.21361160  106.75700378    2.00000000    2.64000010
   20.21972275  106.75700378    2.01999998    2.64000010
   20.22389030  109.26000214    2.01999998    2.64000010
   20.22694588  109.16899872    2.01999998    2.64000010
   20.23027802  111.07900238    2.01999998    2.64000010
   20.23305511  115.02799988    2.00000000    2.64000010
   20.23388863  110.55999756    2.00000000    2.64000010
   20.23722267  116.40100098    2.00000000    2.61999989
   20.24055672  104.44400024    2.00000000    2.61999989
   20.24361229  102.04599762    2.00000000    2.61999989
   20.24694443  123.01799774    2.00000000    2.61999989
   20.25027847  144.27000427    2.00000000    2.61999989
   20.25333405  166.74000549    2.00000000    2.61999989
   20.25666618  191.60299683    2.00000000    2.64000010
   20.26250076  191.60299683    2.00000000    2.64000010
   20.26666641  177.81900024    2.00000000    2.61999989
   20.27000046   -1.00000000    2.00000000    2.61999989
   20.27305603   -1.00000000    2.00000000    2.61999989
   20.27638817   -1.00000000    2.00000000    2.61999989
   20.27944374   -1.00000000    2.00000000    2.61999989
   20.28277779   -1.00000000    2.00000000    2.61999989
   20.28610992   -1.00000000    2.00000000    2.61999989
   20.28916550   -1.00000000    2.00000000    2.61999989
   20.29249954   -1.00000000    2.00000000    2.61999989
   20.29583359   -1.00000000    2.00000000    2.61999989
   20.29888916   -1.00000000    2.00000000    2.61999989
   20.30944443   -1.00000000    2.00000000    2.61999989
   20.31250000   -1.00000000    2.00000000    2.61999989
   20.31583214   -1.00000000    2.00000000    2.61999989
   20.31916809   -1.00000000    2.00000000    2.61999989
   20.32222366   -1.00000000    2.00000000    2.61999989
   20.32555580   -1.00000000    2.00000000    2.61999989
   20.32861137   -1.00000000    2.00000000    2.61999989
   20.33194542   -1.00000000    2.00000000    2.61999989
   20.33555603   -1.00000000    2.00000000    2.61999989
   20.33889008   -1.00000000    2.00000000    2.61999989
   20.34194565   -1.00000000    2.00000000    2.61999989
   20.35222244   -1.00000000    2.00000000    2.61999989
   20.35555649   -1.00000000    2.00000000    2.61999989
   20.35861206   -1.00000000    2.00000000    2.61999989
   20.36194420   -1.00000000    2.00000000    2.61999989
   20.36499977   -1.00000000    2.00000000    2.61999989
   20.36861038   -1.00000000    2.00000000    2.61999989
   20.37194443   -1.00000000    2.00000000    2.61999989
   20.37500000   -1.00000000    2.00000000    2.61999989
   20.37833405   -1.00000000    2.00000000    2.61999989
   20.38166618   -1.00000000    2.00000000    2.61999989
   20.38472176   -1.00000000    2.00000000    2.61999989
   20.39500046   -1.00000000    2.00000000    2.61999989
   20.39833260   -1.00000000    2.00000000    2.61999989
   20.40166664   -1.00000000    2.00000000    2.61999989
   20.40499878   -1.00000000    2.00000000    2.61999989
   20.40805435   -1.00000000    2.00000000    2.61999989
   20.41166687   -1.00000000    2.00000000    2.61999989
   20.41499901   -1.00000000    2.00000000    2.61999989
   20.41805458   -1.00000000    2.00000000    2.61999989
   20.42138863   -1.00000000    2.00000000    2.61999989
   20.42472076   -1.00000000    2.00000000    2.61999989
   20.42777634   -1.00000000    2.00000000    2.61999989
   20.43777657   -1.00000000    2.00000000    2.61999989
   20.44111061   -1.00000000    2.00000000    2.61999989
   20.44444275   -1.00000000    2.00000000    2.61999989
   20.44749832   -1.00000000    2.00000000    2.61999989
   20.45083427   -1.00000000    2.00000000    2.61999989
   20.45416832   -1.00000000    2.00000000    2.61999989
   20.45722389   -1.00000000    2.00000000    2.61999989
   20.46055603   -1.00000000    2.00000000    2.61999989
   20.46361160   -1.00000000    2.00000000    2.61999989
   20.46722221   -1.00000000    2.00000000    2.61999989
   20.47055626   -1.00000000    2.00000000    2.61999989
   20.48083305   -1.00000000    2.00000000    2.61999989
   20.48388863   -1.00000000    2.00000000    2.61999989
   20.48722267   -1.00000000    2.00000000    2.61999989
   20.49055672   -1.00000000    2.00000000    2.61999989
   20.49361229   -1.00000000    2.00000000    2.61999989
   20.49694443   -1.00000000    2.00000000    2.61999989
   20.50027847   -1.00000000    2.00000000    2.61999989
   20.50361061   -1.00000000    2.00000000    2.61999989
   20.50666618   -1.00000000    2.00000000    2.61999989
   20.51000023   -1.00000000    2.00000000    2.61999989
   20.51333427   -1.00000000    2.00000000    2.61999989
   20.52361107   -1.00000000    2.00000000    2.61999989
   20.52694511   -1.00000000    2.00000000    2.61999989
   20.53000069   -1.00000000    2.00000000    2.61999989
   20.53361130   -1.00000000    2.00000000    2.61999989
   20.53694344   -1.00000000    2.00000000    2.61999989
   20.53999901   -1.00000000    2.00000000    2.61999989
   20.54333305   -1.00000000    2.00000000    2.61999989
   20.54666710   -1.00000000    2.00000000    2.61999989
   20.54972076   -1.00000000    2.00000000    2.61999989
   20.55305481   -1.00000000    2.00000000    2.61999989
   20.55638885   -1.00000000    2.00000000    2.61999989
   20.56638718   -1.00000000    2.00000000    2.61999989
   20.56972313   -1.00000000    2.00000000    2.61999989
   20.57277870   -1.00000000    2.00000000    2.61999989
   20.57611275   -1.00000000    2.00000000    2.61999989
   20.57944489   -1.00000000    2.00000000    2.61999989
   20.58250046   -1.00000000    2.00000000    2.61999989
   20.58583450   -1.00000000    2.00000000    2.61999989
   20.58916664   -1.00000000    2.00000000    2.61999989
   20.59222221   -1.00000000    2.00000000    2.61999989
   20.59555626   -1.00000000    2.00000000    2.61999989
   20.59861183   -1.00000000    2.00000000    2.61999989
   20.60916710   -1.00000000    2.00000000    2.61999989
   20.61250114   -1.00000000    2.00000000    2.61999989
   20.61583328   -1.00000000    2.00000000    2.61999989
   20.63555527   -1.00000000    2.00000000    2.61999989
   20.63888931   -1.00000000    2.00000000    2.61999989
   20.64194489   -1.00000000    2.00000000    2.61999989
   20.65222168   -1.00000000    2.00000000    2.61999989
   20.65555573   -1.00000000    2.00000000    2.61999989
   20.65861130   -1.00000000    2.00000000    2.61999989
   20.66194344   -1.00000000    2.00000000    2.61999989
   20.66527748   -1.00000000    2.00000000    2.61999989
   20.66888809   -1.00000000    2.00000000    2.61999989
   20.67194366   -1.00000000    2.00000000    2.61999989
   20.67527771   -1.00000000    2.00000000    2.61999989
   20.67860985   -1.00000000    2.00000000    2.61999989
   20.68166542   -1.00000000    2.00000000    2.61999989
   20.68499947   -1.00000000    2.00000000    2.61999989
   20.69499969   -1.00000000    2.00000000    2.61999989
   20.69833183   -1.00000000    2.00000000    2.61999989
   20.70194435   -1.00000000    2.00000000    2.61999989
   20.70499992   -1.00000000    2.00000000    2.61999989
   20.70833397   -1.00000000    2.00000000    2.61999989
   20.71166801   -1.00000000    2.00000000    2.61999989
   20.71472359   -1.00000000    2.00000000    2.61999989
   20.71805573   -1.00000000    2.00000000    2.61999989
   20.72138977   -1.00000000    2.00000000    2.61999989
   20.72444534   -1.00000000    2.00000000    2.61999989
   20.72777748   -1.00000000    2.00000000    2.61999989
   20.73805618   -1.00000000    2.00000000    2.61999989
   20.74111176   -1.00000000    2.00000000    2.61999989
   20.74444389   -1.00000000    2.00000000    2.61999989
   20.74749947   -1.00000000    2.00000000    2.61999989
   20.75083351   -1.00000000    2.00000000    2.61999989
   20.75416756   -1.00000000    2.00000000    2.61999989
   20.75722313   -1.00000000    2.00000000    2.61999989
   20.76055527   -1.00000000    2.00000000    2.61999989
   20.76388931   -1.00000000    2.00000000    2.61999989
   20.76749992   -1.00000000    2.00000000    2.61999989
   20.77055550   -1.00000000    2.00000000    2.61999989
   20.78083229   -1.00000000    2.00000000    2.61999989
   20.78388786   -1.00000000    2.00000000    2.61999989
   20.78722191   -1.00000000    2.00000000    2.61999989
   20.79055595   -1.00000000    2.00000000    2.61999989
   20.79361153   -1.00000000    2.00000000    2.61999989
   20.79694366   -1.00000000    2.00000000    2.61999989
   20.80055428   -1.00000000    2.00000000    2.61999989
   20.80360985   -1.00000000    2.00000000    2.61999989
   20.80694389   -1.00000000    2.00000000    2.61999989
   20.81027794   -1.00000000    2.00000000    2.61999989
   20.81333351   -1.00000000    2.00000000    2.61999989
   20.82361221   -1.00000000    2.00000000    2.61999989
   20.82694626   -1.00000000    2.00000000    2.61999989
   20.83000183   -1.00000000    2.00000000    2.61999989
   20.83388901   -1.00000000    2.00000000    2.61999989
   20.83722305   -1.00000000    2.00000000    2.61999989
   20.84027863   -1.00000000    2.00000000    2.61999989
   20.84361267   -1.00000000    2.00000000    2.61999989
   20.84666824   -1.00000000    2.00000000    2.61999989
   20.85000038   -1.00000000    2.00000000    2.61999989
   20.85333443   -1.00000000    2.00000000    2.61999989
   20.85639000   -1.00000000    2.00000000    2.61999989
