    HOUR (UT)   FLARE FACTOR    SKY TESTER    SUN TESTER
   10.95055580   -1.00000000   -1.00000000   -1.00000000
   10.97111034  126.26399994    4.90999985    1.63000000
   10.97888851  212.24200439    4.88999987    1.64999998
   10.98361111  211.14300537    4.86999989    1.66999996
   10.98694515  219.47799683    4.84999990    1.66999996
   10.99000072  240.62399292    4.82999992    1.66999996
   10.99333382  244.65699768    4.80999994    1.66999996
   10.99666691  322.10900879    4.80000019    1.66999996
   10.99861145  283.81100464    4.80000019    1.69000006
   11.00000000  306.25201416    4.78000021    1.69000006
   11.00138855  299.42300415    4.78000021    1.69000006
   11.00277805  412.09201050    4.76000023    1.69000006
   11.00416660  288.88900757    4.76000023    1.69000006
   11.00555515  221.27900696    4.76000023    1.69000006
   11.00555515  212.24200439    4.88999987    1.64999998
   11.00555515  211.14300537    4.86999989    1.66999996
   11.00583363  219.47799683    4.84999990    1.66999996
   11.00583363  240.62399292    4.82999992    1.66999996
   11.00583363  244.65699768    4.80999994    1.66999996
   11.00611115  322.10900879    4.80000019    1.66999996
   11.00666714  341.01800537    4.76000023    1.69000006
   11.00861073  347.47601318    4.73999977    1.69000006
   11.01000023  319.96099854    4.71999979    1.71000004
   11.01138878  351.04800415    4.71999979    1.69000006
   11.01277733  323.42700195    4.71999979    1.71000004
   11.01416683  360.02899170    4.69999981    1.71000004
   11.01555538  312.36499023    4.69999981    1.71000004
   11.01694393  408.05999756    4.67999983    1.71000004
   11.01833344  313.33401489    4.67999983    1.71000004
   11.01972198  389.12701416    4.67999983    1.71000004
   11.02111053  364.84100342    4.67999983    1.71000004
   11.02250004  376.46200562    4.65999985    1.73000002
   11.02388859  451.14001465    4.65999985    1.71000004
   11.02527714  423.64401245    4.63999987    1.71000004
   11.02666664  359.94900513    4.63999987    1.71000004
   11.02805519  423.41699219    4.63999987    1.73000002
   11.02944374  302.78100586    4.61999989    1.73000002
   11.03083324  479.85299683    4.61999989    1.73000002
   11.03222179  421.34600830    4.59999990    1.73000002
   11.03361130  408.77499390    4.59999990    1.73000002
   11.03500080  412.35400391    4.57999992    1.73000002
   11.03638935  346.53698730    4.57999992    1.73000002
   11.03777790  306.02700806    4.55999994    1.73000002
   11.03916740  402.67199707    4.55999994    1.73000002
   11.04055595  299.78500366    4.53999996    1.73000002
   11.04194450  308.30899048    4.53999996    1.75000000
   11.04333401  374.57000732    4.53000021    1.75000000
   11.04472256  402.60198975    4.53000021    1.75000000
   11.04611111  420.47198486    4.53000021    1.75000000
   11.04750061  391.86499023    4.53000021    1.75000000
   11.04888916  423.48498535    4.51000023    1.75000000
   11.05027771  322.28698730    4.51000023    1.75000000
   11.05166721  399.85998535    4.48999977    1.76999998
   11.05305576  238.59399414    4.48999977    1.76999998
   11.05305576  341.01800537    4.76000023    1.69000006
   11.05361176  299.31600952    4.46999979    1.76999998
   11.05694485  374.42300415    4.46999979    1.76999998
   11.05888939  261.95498657    4.44999981    1.76999998
   11.06027794  406.89099121    4.44999981    1.76999998
   11.06166649  301.27899170    4.42999983    1.76999998
   11.06305599  376.48300171    4.42999983    1.76999998
   11.06444454  372.86499023    4.40999985    1.76999998
   11.06583309  446.02899170    4.40999985    1.76999998
   11.06722260  294.08401489    4.40999985    1.78999996
   11.06861115  264.63699341    4.38999987    1.76999998
   11.06999969  298.11199951    4.38999987    1.78999996
   11.07138920  292.83099365    4.36999989    1.78999996
   11.07277775  284.60000610    4.36999989    1.78999996
   11.07416630  294.24398804    4.34999990    1.78999996
   11.07555580  476.09600830    4.34999990    1.78999996
   11.07694435  317.86300659    4.34999990    1.78999996
   11.07833290  319.85299683    4.32999992    1.78999996
   11.07972240  322.05099487    4.32999992    1.78999996
   11.08111095  306.93099976    4.32999992    1.78999996
   11.08249950  410.74398804    4.30999994    1.80999994
   11.08388901  425.03698730    4.30999994    1.80999994
   11.08527756  304.70599365    4.28999996    1.80999994
   11.08666611  354.77999878    4.28999996    1.80999994
   11.08805561  354.82501221    4.28999996    1.80999994
   11.08944416  342.22198486    4.26999998    1.83000004
   11.09083271  289.88500977    4.26999998    1.83000004
   11.09222221  302.15899658    4.26999998    1.83000004
   11.09361076  349.23199463    4.26000023    1.83000004
   11.09499931  283.00100708    4.26000023    1.80999994
   11.09638882  294.80099487    4.26000023    1.83000004
   11.09777737  403.87500000    4.26000023    1.83000004
   11.09916592  299.34899902    4.23999977    1.83000004
   11.10055637  261.42001343    4.23999977    1.83000004
   11.10194492  322.22900391    4.21999979    1.83000004
   11.10333347  356.44100952    4.21999979    1.83000004
   11.10472298  317.64498901    4.21999979    1.83000004
   11.10611153  289.46899414    4.19999981    1.83000004
   11.10750008  258.31900024    4.19999981    1.83000004
   11.10888958  310.74499512    4.17999983    1.85000002
   11.11027813  285.80499268    4.17999983    1.85000002
   11.11166668  302.02899170    4.17999983    1.85000002
   11.11305618  326.91000366    4.15999985    1.85000002
   11.11444473  397.86599731    4.15999985    1.85000002
   11.11583328  247.41400146    4.15999985    1.85000002
   11.11583328  299.31600952    4.46999979    1.76999998
   11.11611176  374.42300415    4.46999979    1.76999998
   11.11666679  257.55599976    4.15999985    1.85000002
   11.11972237  360.69100952    4.13999987    1.85000002
   11.12194443  239.46800232    4.13999987    1.85000002
   11.12194443  257.55599976    4.15999985    1.85000002
   11.12194443  360.69100952    4.13999987    1.85000002
   11.12388897  356.98800659    4.11999989    1.86000001
   11.12611103  370.02499390    4.11999989    1.86000001
   11.12722206  253.22399902    4.09999990    1.86000001
   11.12861156  257.19198608    4.09999990    1.86000001
   11.13000011  276.13400269    4.07999992    1.86000001
   11.13138866  236.36500549    4.07999992    1.86000001
   11.13166714  356.98800659    4.11999989    1.86000001
   11.13222218  277.30398560    4.07999992    1.86000001
   11.13527775  277.40301514    4.05999994    1.86000001
   11.13861084  218.22500610    4.05999994    1.88000000
   11.14194393  226.55099487    4.03999996    1.88000000
   11.14499950  258.22399902    4.01999998    1.88000000
   11.14833355  256.34100342    4.00000000    1.88000000
   11.15249920  256.34100342    3.99000001    1.88000000
   11.15666676  213.59399414    3.97000003    1.88000000
   11.15972137  253.08399963    3.97000003    1.89999998
   11.16305542  196.07400513    3.95000005    1.89999998
   11.16527748  225.82099915    3.93000007    1.89999998
   11.16666698  189.32000732    3.93000007    1.89999998
   11.17000008  205.05799866    3.91000009    1.89999998
   11.17305565  219.95599365    3.91000009    1.91999996
   11.17638874  226.08099365    3.91000009    1.91999996
   11.17944431  246.07899475    3.89000010    1.91999996
   11.18277836  225.54600525    3.89000010    1.91999996
   11.18611145  216.99899292    3.86999989    1.91999996
   11.18916702  222.48199463    3.84999990    1.91999996
   11.19527817  222.48199463    3.82999992    1.94000006
   11.19944477  201.95599365    3.82999992    1.94000006
   11.20249939  182.99899292    3.82999992    1.94000006
   11.20583344  182.46600342    3.82999992    1.94000006
   11.20916653  211.62899780    3.80999994    1.96000004
   11.21222210  207.06700134    3.80999994    1.96000004
   11.21555519  166.13600159    3.78999996    1.96000004
   11.21888828  155.65600586    3.78999996    1.96000004
   11.22194386  180.45500183    3.76999998    1.96000004
   11.22527695  190.93299866    3.76999998    1.96000004
   11.22833252  160.31799316    3.76999998    1.98000002
   11.23166656  167.02099609    3.75000000    1.98000002
   11.23222160  222.33500671    3.75000000    1.98000002
   11.23805618  222.33500671    3.72000003    1.98000002
   11.24222279  186.17500305    3.72000003    1.98000002
   11.24555588  191.12699890    3.72000003    2.00000000
   11.24861145  171.05499268    3.68000007    2.00000000
   11.25194454  192.27400208    3.68000007    2.00000000
   11.25527763  196.25900269    3.68000007    2.00000000
   11.25833321  163.12899780    3.66000009    2.00000000
   11.26166630  182.05799866    3.66000009    2.00000000
   11.26472187  210.96800232    3.64000010    2.00000000
   11.26555538  174.28599548    3.64000010    2.00000000
   11.26861095  169.45700073    3.61999989    2.01999998
   11.27166653  155.17799377    3.61999989    2.01999998
   11.27499962  159.19200134    3.61999989    2.01999998
   11.28083324  159.19200134    3.57999992    2.01999998
   11.28500080  177.36099243    3.57999992    2.01999998
   11.28833389  141.67799377    3.57999992    2.03999996
   11.29166698  158.59500122    3.57999992    2.03999996
   11.29472256  158.35800171    3.55999994    2.03999996
   11.29805565  151.59700012    3.55999994    2.03999996
   11.29888916  160.18499756    3.53999996    2.03999996
   11.30166721  161.03300476    3.55999994    2.03999996
   11.30472279  173.03300476    3.55999994    2.05999994
   11.30805588  149.53799438    3.51999998    2.05999994
   11.31138897  164.67900085    3.53999996    2.05999994
   11.31444454  166.17300415    3.51999998    2.05999994
   11.31777763  144.37100220    3.51999998    2.05999994
   11.32388878  144.37100220    3.50000000    2.05999994
   11.32805538  165.46499634    3.50000000    2.07999992
   11.33111095  154.72300720    3.50000000    2.07999992
   11.33222198  169.31700134    3.51999998    2.07999992
   11.33500004  167.47000122    3.48000002    2.07999992
   11.33805561  153.15299988    3.48000002    2.07999992
   11.34138870  151.82800293    3.48000002    2.09999990
   11.34472179  157.72300720    3.48000002    2.09999990
   11.34777737  157.37899780    3.48000002    2.09999990
   11.35111141  147.31399536    3.48000002    2.09999990
   11.35416698  157.76699829    3.48000002    2.09999990
   11.35750008  141.42300415    3.48000002    2.09999990
   11.36083412  166.34800720    3.48000002    2.09999990
   11.36666679  166.34800720    3.48000002    2.09999990
   11.37083340  174.65400696    3.48000002    2.09999990
   11.37388897  139.68099976    3.48000002    2.09999990
   11.37722206  162.42300415    3.48000002    2.09999990
   11.38055611  166.67300415    3.46000004    2.11999989
   11.38361073  150.64100647    3.48000002    2.11999989
   11.38694477  139.53500366    3.48000002    2.11999989
   11.39027786  145.09399414    3.48000002    2.11999989
   11.39333344  157.20599365    3.46000004    2.11999989
   11.39666653  145.11399841    3.45000005    2.11999989
   11.39888859  168.13499451    3.48000002    2.13000011
   11.40027714  156.72399902    3.45000005    2.11999989
   11.40333271  148.45300293    3.45000005    2.13000011
   11.40944386  148.45300293    3.45000005    2.13000011
   11.41361046  159.01899719    3.45000005    2.13000011
   11.41694450  155.22599792    3.43000007    2.13000011
   11.42000008  137.92199707    3.43000007    2.13000011
   11.42333412  181.06799316    3.43000007    2.13000011
   11.42666721  152.71400452    3.39000010    2.13000011
   11.42972279  156.84800720    3.39000010    2.15000010
   11.43222237  170.83299255    3.41000009    2.15000010
   11.43361092  145.95700073    3.41000009    2.15000010
   11.43666649  144.36099243    3.41000009    2.15000010
   11.44000053  143.28799438    3.39000010    2.15000010
   11.44333363  135.08599854    3.41000009    2.15000010
   11.44638920  145.25100708    3.39000010    2.15000010
   11.45222187  145.25100708    3.36999989    2.17000008
   11.45694447  153.49099731    3.39000010    2.17000008
   11.46000004  169.52900696    3.39000010    2.17000008
   11.46333313  159.58399963    3.39000010    2.17000008
   11.46555519  179.00100708    3.39000010    2.17000008
   11.46722221  166.30200195    3.39000010    2.17000008
   11.47027779  172.40400696    3.36999989    2.17000008
   11.47361088  144.54200745    3.36999989    2.17000008
   11.47694397  157.41700745    3.36999989    2.17000008
   11.47999954  169.48100281    3.36999989    2.17000008
   11.48333359  169.01100159    3.34999990    2.19000006
   11.48638916  144.32000732    3.34999990    2.19000006
   11.48972225  154.82099915    3.34999990    2.19000006
   11.49527836  154.82099915    3.34999990    2.19000006
   11.49944496  155.85299683    3.32999992    2.19000006
   11.50249958  158.77600098    3.32999992    2.19000006
   11.50583363  182.86500549    3.32999992    2.19000006
   11.50888920  166.83999634    3.28999996    2.19000006
   11.51222229  165.23800659    3.30999994    2.19000006
   11.51555538  149.65600586    3.28999996    2.19000006
   11.51861095  163.68200684    3.28999996    2.19000006
   11.52194405  175.51600647    3.28999996    2.21000004
   11.52527714  174.55200195    3.28999996    2.21000004
   11.52833271  159.83700562    3.30999994    2.21000004
   11.53166676  187.51199341    3.28999996    2.21000004
   11.53222179  171.44200134    3.28999996    2.21000004
   11.53805637  171.44200134    3.30999994    2.21000004
   11.54222298  172.54400635    3.28999996    2.21000004
   11.54527855  190.85699463    3.28999996    2.23000002
   11.54861164  173.94900513    3.30999994    2.23000002
   11.55194473  177.61900330    3.28999996    2.23000002
   11.55500031  167.89599609    3.30999994    2.23000002
   11.55833340  189.90699768    3.28999996    2.23000002
   11.56166649  184.02099609    3.30999994    2.23000002
   11.56472206  166.09800720    3.32999992    2.23000002
   11.56555557  179.14900208    3.28999996    2.23000002
   11.56833363  150.96899414    3.28999996    2.23000002
   11.57166672  154.12800598    3.28999996    2.23000002
   11.57472229  184.47399902    3.30999994    2.25000000
   11.58083344  184.47399902    3.28999996    2.25000000
   11.58500004  166.94900513    3.28999996    2.25000000
   11.58833313  164.90600586    3.28999996    2.25000000
   11.59138870  154.99400330    3.28999996    2.25000000
   11.59472179  160.07000732    3.28999996    2.25000000
   11.59805489  163.46699524    3.30999994    2.25000000
   11.59888840  153.98899841    3.28999996    2.25000000
   11.60166740  180.76300049    3.30999994    2.25000000
   11.60500050  183.04800415    3.28999996    2.25000000
   11.60805607  158.92599487    3.28999996    2.25000000
   11.61138916  175.13200378    3.28999996    2.26999998
   11.61444473  180.12399292    3.28999996    2.26999998
   11.61777782  179.48399353    3.26999998    2.26999998
   11.62361145  179.48399353    3.26999998    2.26999998
   11.62777805  166.63299561    3.26999998    2.26999998
   11.63111115  148.93800354    3.25000000    2.26999998
   11.63222218  162.88900757    3.25000000    2.28999996
   11.63472176  179.75199890    3.26999998    2.28999996
   11.63805580  160.21699524    3.30999994    2.26999998
   11.64111137  156.15299988    3.26999998    2.26999998
   11.64444447  203.10299683    3.26999998    2.26999998
   11.64750004  148.95100403    3.28999996    2.26999998
   11.65083313  168.57299805    3.25000000    2.28999996
   11.65416622  140.01600647    3.26999998    2.28999996
   11.65722179  139.67799377    3.28999996    2.28999996
   11.66055489  119.67099762    3.28999996    2.28999996
   11.66666698  119.67099762    3.28999996    2.28999996
   11.67083359  120.29799652    3.28999996    2.28999996
   11.67388916  148.85400391    3.28999996    2.28999996
   11.67722225  149.63200378    3.26999998    2.28999996
   11.68027782  149.96899414    3.23000002    2.30999994
   11.68361092  146.13499451    3.25000000    2.30999994
   11.68694496  133.86999512    3.28999996    2.30999994
   11.69000053  134.34199524    3.26999998    2.30999994
   11.69333363  134.99600220    3.25000000    2.30999994
   11.69666672  131.30700684    3.25000000    2.30999994
   11.69888878  138.02499390    3.26999998    2.28999996
   11.70027733  120.58499908    3.23000002    2.30999994
   11.70361137  131.90499878    3.25000000    2.30999994
   11.70944405  131.90499878    3.26999998    2.32999992
   11.71361065  131.73500061    3.26999998    2.32999992
   11.71666622  132.50300598    3.25000000    2.30999994
   11.71999931  127.30000305    3.26999998    2.30999994
   11.72333336  132.47700500    3.26999998    2.30999994
   11.72638798  127.95600128    3.28999996    2.32999992
   11.72972202  114.49900055    3.26999998    2.30999994
   11.73222160  113.92299652    3.26999998    2.32999992
   11.73333359  126.59300232    3.26999998    2.32999992
   11.73666668  119.57499695    3.26999998    2.32999992
   11.73972225  115.45700073    3.30999994    2.32999992
   11.74305534  122.75099945    3.28999996    2.32999992
   11.74611092  118.36499786    3.30999994    2.32999992
   11.75222206  118.36499786    3.28999996    2.32999992
   11.75638866  119.08899689    3.30999994    2.32999992
   11.75972176  128.68499756    3.30999994    2.34999990
   11.76277733  112.42600250    3.34999990    2.34999990
   11.76555538  122.87999725    3.30999994    2.34999990
   11.76638889  119.16100311    3.32999992    2.34999990
   11.76972198  116.19300079    3.32999992    2.34999990
   11.77277756  114.93399811    3.32999992    2.34999990
   11.77611065  115.83899689    3.34999990    2.34999990
   11.77916622  119.79399872    3.32999992    2.34999990
   11.78249931  126.27100372    3.36999989    2.34999990
   11.78583336  127.27899933    3.34999990    2.34999990
   11.78888893  135.20799255    3.34999990    2.34999990
   11.79500008  135.20799255    3.41000009    2.36999989
   11.79916668  132.49600220    3.39000010    2.34999990
   11.80249977  127.76399994    3.41000009    2.36999989
   11.80555534  139.44500732    3.39000010    2.36999989
   11.80888939  132.45500183    3.41000009    2.36999989
   11.81222248  126.41699982    3.46000004    2.36999989
   11.81527805  142.79699707    3.45000005    2.36999989
   11.81861115  137.59500122    3.43000007    2.36999989
   11.82194424  142.95100403    3.43000007    2.36999989
   11.82499981  134.82899475    3.46000004    2.36999989
   11.82833290  125.93000031    3.45000005    2.39000010
   11.83138847  158.92199707    3.46000004    2.36999989
   11.83222198  127.37400055    3.50000000    2.36999989
   11.83805561  127.37400055    3.46000004    2.39000010
   11.84194374  132.83299255    3.45000005    2.36999989
   11.84527779  132.47999573    3.48000002    2.36999989
   11.84861088  125.62699890    3.48000002    2.39000010
   11.85166740  138.43699646    3.48000002    2.39000010
   11.85500050  135.08299255    3.50000000    2.40000010
   11.85833359  129.12699890    3.48000002    2.39000010
   11.86138916  131.40800476    3.46000004    2.39000010
   11.86472225  119.84600067    3.46000004    2.39000010
   11.86555576  130.29200745    3.50000000    2.39000010
   11.86833382  124.53800201    3.48000002    2.39000010
   11.87166691  118.16000366    3.46000004    2.39000010
   11.87472248  123.45099640    3.50000000    2.39000010
   11.88083363  123.45099640    3.51999998    2.40000010
   11.88500023  118.27500153    3.55999994    2.40000010
   11.88805580  116.48300171    3.51999998    2.39000010
   11.89138889  121.26300049    3.53999996    2.40000010
   11.89472198  126.55699921    3.55999994    2.40000010
   11.89777756  133.21600342    3.59999990    2.39000010
   11.89888859  121.22399902    3.59999990    2.39000010
   11.90138817  128.14500427    3.59999990    2.40000010
   11.90472221  127.84700012    3.57999992    2.40000010
   11.90777779  107.69599915    3.57999992    2.40000010
   11.91111088  128.61599731    3.61999989    2.40000010
   11.91444397  122.89700317    3.59999990    2.40000010
   11.91750050  132.06599426    3.66000009    2.40000010
   11.92361164  132.06599426    3.64000010    2.42000008
   11.92777824  119.09200287    3.64000010    2.40000010
   11.93111134  126.57900238    3.66000009    2.42000008
   11.93222237  131.46699524    3.66000009    2.42000008
   11.93472195  131.87699890    3.68000007    2.40000010
   11.93805599  122.99400330    3.64000010    2.40000010
   11.94111156  132.70399475    3.64000010    2.42000008
   11.94444466  153.37500000    3.64000010    2.42000008
   11.94777775  153.05999756    3.70000005    2.42000008
   11.95083332  128.10299683    3.68000007    2.42000008
   11.95416641  142.67900085    3.64000010    2.42000008
   11.95722198  105.35399628    3.70000005    2.42000008
   11.96055508  121.04900360    3.66000009    2.42000008
   11.96638870  121.04900360    3.68000007    2.42000008
   11.97055531  127.62899780    3.70000005    2.42000008
   11.99000072  121.87899780    3.73000002    2.44000006
   11.99333382  105.43699646    3.75000000    2.44000006
   11.99666691  113.15699768    3.75000000    2.44000006
   11.99916649   96.85900116    3.73000002    2.44000006
   12.00027752   91.25340271    3.75000000    2.44000006
   12.00333309  122.04000092    3.78999996    2.44000006
   12.00944424  122.04000092    3.75000000    2.44000006
   12.01361084  129.27000427    3.78999996    2.46000004
   12.01694393  111.77700043    3.80999994    2.46000004
   12.01999950  109.36699677    3.80999994    2.44000006
   12.02333355  113.81700134    3.78999996    2.44000006
   12.02638817  109.36000061    3.80999994    2.46000004
   12.02972221  115.31099701    3.82999992    2.46000004
   12.03249931  103.17800140    3.82999992    2.46000004
   12.03333378  110.36199951    3.80999994    2.44000006
   12.03638935  115.12100220    3.80999994    2.46000004
   12.03972244  103.14800262    3.80999994    2.46000004
   12.04305553  107.30200195    3.75000000    2.46000004
   12.04611111   92.03099823    3.82999992    2.46000004
   12.05222225   92.03099823    3.84999990    2.46000004
   12.05638885  100.48799896    3.84999990    2.46000004
   12.05972195  112.00299835    3.89000010    2.46000004
   12.06305599  112.78299713    3.91000009    2.46000004
   12.06583309  106.71900177    3.91000009    2.48000002
   12.06666660  106.75499725    3.95000005    2.46000004
   12.06972218   98.37000275    3.91000009    2.46000004
   12.07305527  108.68800354    3.93000007    2.46000004
   12.07638836  104.62500000    3.95000005    2.46000004
   12.07944393  101.39299774    3.91000009    2.46000004
   12.08277798  116.08000183    3.95000005    2.46000004
   12.08583260  110.54499817    3.97000003    2.46000004
   12.08916664  118.97200012    3.95000005    2.46000004
   12.09527779  118.97200012    3.99000001    2.46000004
   12.09944439  111.94899750    3.97000003    2.46000004
   12.10249996  108.28299713    4.01999998    2.48000002
   12.10583401  116.44799805    4.00000000    2.46000004
   12.10888958  126.35600281    4.01999998    2.48000002
   12.11222267  127.70300293    4.00000000    2.48000002
   12.11555576  105.91999817    3.99000001    2.46000004
   12.11861134  110.09500122    4.03999996    2.48000002
   12.12194443  105.30300140    4.03999996    2.48000002
   12.12527752  110.71399689    4.00000000    2.46000004
   12.12833309  116.36299896    4.01999998    2.48000002
   12.13166714  112.41100311    4.01999998    2.48000002
   12.13249969  116.21299744    4.05999994    2.48000002
   12.13805580  116.21299744    4.07999992    2.48000002
   12.14222240  106.58399963    4.11999989    2.48000002
   12.14527798  102.80799866    4.07999992    2.48000002
   12.14861107  109.85900116    4.09999990    2.48000002
   12.15194416  101.53700256    4.13999987    2.48000002
   12.15499973  115.51899719    4.09999990    2.48000002
   12.15833282  105.77500153    4.09999990    2.48000002
   12.16166592  100.63200378    4.05999994    2.50000000
   12.16472149  104.48000336    4.07999992    2.50000000
   12.16583252  109.74900055    4.13999987    2.50000000
   12.16861153   93.80410004    4.09999990    2.48000002
   12.17166710  105.25599670    4.11999989    2.50000000
   12.17500019  105.30100250    4.13999987    2.51999998
   12.18083382  105.30100250    4.15999985    2.50000000
   12.18500042  100.00499725    4.13999987    2.50000000
   12.18833351  103.75000000    4.11999989    2.51999998
   12.19138908  112.58300018    4.13999987    2.50000000
   12.19472218  103.26399994    4.11999989    2.50000000
   12.19805527   99.99430084    4.15999985    2.51999998
   12.19916630  100.84400177    4.13999987    2.50000000
   12.20166683   99.07720184    4.13999987    2.51999998
   12.20472240  104.02600098    4.15999985    2.51999998
   12.20805550  103.98799896    4.15999985    2.51999998
   12.21138859  126.36799622    4.13999987    2.51999998
   12.21444416  109.02600098    4.13999987    2.50000000
   12.21777725  109.66699982    4.09999990    2.51999998
   12.22361088  109.66699982    4.13999987    2.50000000
   12.22777748  109.96900177    4.13999987    2.50000000
   12.23111057  129.55000305    4.17999983    2.51999998
   12.23249912  105.20099640    4.17999983    2.51999998
   12.23472214  130.13000488    4.13999987    2.51999998
   12.23777771  117.97100067    4.17999983    2.51999998
   12.24111176  129.07800293    4.17999983    2.51999998
   12.24444485  132.61500549    4.13999987    2.53999996
   12.24777794  100.86599731    4.19999981    2.51999998
   12.25083351  120.67800140    4.17999983    2.51999998
   12.25416660  130.97099304    4.26000023    2.51999998
   12.25722218  129.35099792    4.23999977    2.51999998
   12.26055527  141.47799683    4.21999979    2.53999996
   12.26666641  141.47799683    4.30999994    2.51999998
   12.27055550  135.48899841    4.19999981    2.51999998
   12.27388859  118.80699921    4.21999979    2.51999998
   12.27722168  103.23200226    4.17999983    2.51999998
   12.28027725  123.69699860    4.30999994    2.51999998
   12.28361130  121.32800293    4.21999979    2.51999998
   12.28694534   90.45749664    4.26999998    2.53999996
   12.29000092  110.78600311    4.28999996    2.51999998
   12.29333401  113.10700226    4.28999996    2.53999996
   12.29638958  102.96600342    4.26000023    2.53999996
   12.29916668  101.52200317    4.36999989    2.53999996
   12.30027771  106.50299835    4.32999992    2.53999996
   12.30361176   98.26999664    4.28999996    2.53999996
   12.30944443   98.26999664    4.34999990    2.53999996
   12.31361103  101.79000092    4.32999992    2.53999996
   12.31666660  107.23400116    4.34999990    2.53999996
   12.31999969  111.70200348    4.32999992    2.53999996
   12.32333374  113.90799713    4.32999992    2.53999996
   12.32638836  112.96499634    4.36999989    2.53999996
   12.32972240   97.08309937    4.34999990    2.53999996
   12.33249950   97.56880188    4.36999989    2.53999996
   12.33333302  109.34799957    4.40999985    2.53999996
   12.33666611   99.58850098    4.36999989    2.53999996
   12.33972168  104.29199982    4.42999983    2.53999996
   12.34305477  105.06999969    4.34999990    2.53999996
   12.34611034  105.86000061    4.46999979    2.53999996
   12.35222244  105.86000061    4.46999979    2.53999996
   12.35638905   99.28520203    4.44999981    2.55999994
   12.35972214  104.39499664    4.44999981    2.53999996
   12.36277771  102.24600220    4.48999977    2.55999994
   12.36583328  102.08200073    4.46999979    2.53999996
   12.36638927  102.71299744    4.40999985    2.55999994
   12.36972237  102.31900024    4.44999981    2.53999996
   12.37277794  103.69300079    4.46999979    2.53999996
   12.37611103   96.99210358    4.42999983    2.55999994
   12.37916660   96.54589844    4.44999981    2.53999996
   12.38249969   94.52989960    4.53999996    2.55999994
   12.38583279   97.55650330    4.53000021    2.55999994
   12.38888836   96.31909943    4.55999994    2.55999994
   12.39499950   96.31909943    4.59999990    2.55999994
   12.39916611  104.66500092    4.57999992    2.55999994
   12.39972210   98.62429810    4.57999992    2.55999994
   12.40305519  100.29900360    4.51000023    2.55999994
   12.40611076  104.64499664    4.53999996    2.57999992
   12.40944386  103.20400238    4.55999994    2.55999994
   12.41249943   95.49459839    4.53999996    2.55999994
   12.41583252  109.12599945    4.57999992    2.55999994
   12.41916656  101.16500092    4.57999992    2.55999994
   12.42222214  101.56099701    4.61999989    2.55999994
   12.42555618   94.76450348    4.65999985    2.57999992
   12.42888927   95.18450165    4.63999987    2.55999994
   12.43194485   98.31970215    4.65999985    2.55999994
   12.43249989   97.84069824    4.63999987    2.55999994
   12.43805599   97.84069824    4.71999979    2.57999992
   12.44194412   94.45200348    4.63999987    2.57999992
   12.44527817   90.90390015    4.65999985    2.55999994
   12.44861126   99.29219818    4.67999983    2.55999994
   12.45166683  101.85500336    4.65999985    2.57999992
   12.45499992   94.10240173    4.67999983    2.55999994
   12.45833302   95.84230042    4.69999981    2.55999994
   12.46138859   96.68470001    4.67999983    2.55999994
   12.46472168  106.69400024    4.73999977    2.57999992
   12.46583271  102.65699768    4.67999983    2.57999992
   12.46833324   97.76619720    4.80000019    2.57999992
   12.47166634   97.79699707    4.73999977    2.57999992
   12.47472191   96.20339966    4.71999979    2.59999990
   12.48083305   96.20339966    4.78000021    2.57999992
   12.48500061   94.16719818    4.67999983    2.55999994
   12.48805618  100.08000183    4.55999994    2.57999992
   12.49138927   91.12940216    4.71999979    2.57999992
   12.49472237   95.00060272    4.71999979    2.59999990
   12.49777794   97.26249695    4.80999994    2.57999992
   12.49944496   97.90709686    4.78000021    2.57999992
   12.50138855   94.88899994    4.80000019    2.57999992
   12.50472260  100.53500366    4.76000023    2.57999992
   12.50805569   99.50219727    4.80000019    2.57999992
   12.51111126   98.98739624    4.80000019    2.57999992
   12.51444435   99.46769714    4.80000019    2.57999992
   12.51749992   95.19699860    4.80999994    2.57999992
   12.52361107   95.19699860    4.82999992    2.59999990
   12.52777767   93.79419708    4.84999990    2.59999990
   12.53111076  105.91999817    4.86999989    2.59999990
   12.53277779   95.58119965    4.82999992    2.59999990
   12.53444481  106.98699951    4.80000019    2.57999992
   12.53777790  100.90899658    4.80999994    2.57999992
   12.54111195  101.92900085    4.82999992    2.57999992
   12.54416752  104.59899902    4.88999987    2.59999990
   12.54750061   96.29869843    4.86999989    2.57999992
   12.55055618   90.42230225    4.82999992    2.57999992
   12.55388927   92.76149750    4.82999992    2.59999990
   12.55722237   91.91889954    4.84999990    2.57999992
   12.56027794  102.38099670    4.88999987    2.57999992
   12.56638908  102.38099670    4.86999989    2.59999990
   12.57055569   92.19090271    4.90999985    2.59999990
   12.57388878   95.22669983    4.90999985    2.59999990
   12.57694435   94.09940338    4.90999985    2.59999990
   12.58027744   97.16439819    4.90999985    2.57999992
   12.58361053  108.89299774    4.90999985    2.59999990
   12.58666611  110.26799774    4.90999985    2.59999990
   12.59000015   93.06479645    4.90999985    2.59999990
   12.59333324   96.80390167    4.90999985    2.61999989
   12.59638882   87.33969879    4.90999985    2.59999990
   12.59944439   97.93800354    4.90999985    2.59999990
   12.60000038  101.84200287    4.90999985    2.59999990
   12.60333347  102.32199860    4.90999985    2.59999990
   12.60944462  102.32199860    4.90999985    2.61999989
   12.61361122   97.98560333    4.90999985    2.61999989
   12.61666679  100.10700226    4.90999985    2.59999990
   12.61999989   93.98370361    4.90999985    2.59999990
   12.62305546   89.08850098    4.90999985    2.61999989
   12.62638855   93.78040314    4.90999985    2.59999990
   12.62972260   89.07450104    4.90999985    2.59999990
   12.63277817   98.08699799    4.90999985    2.59999990
   12.63305569   94.06289673    4.90999985    2.59999990
   12.63638878   90.30870056    4.90999985    2.61999989
   12.63972187   98.18299866    4.90999985    2.59999990
   12.64277744   98.03070068    4.90999985    2.61999989
   12.64611053  100.29399872    4.90999985    2.61999989
   12.65222168  100.29399872    4.90999985    2.61999989
   12.65638828   95.07029724    4.90999985    2.61999989
   12.65972137   99.22029877    4.90999985    2.59999990
   12.66277695   98.16359711    4.90999985    2.64000010
   12.66611099  105.81800079    4.90999985    2.64000010
   12.66638851  102.18800354    4.90999985    2.64000010
   12.66972256   97.14830017    4.90999985    2.61999989
   12.67305565   96.57299805    4.90999985    2.61999989
   12.78388977   -1.00000000   -1.00000000   -1.00000000
   12.87833309   -1.00000000   -1.00000000   -1.00000000
   12.97999954   -1.00000000   -1.00000000   -1.00000000
   13.07305527   -1.00000000   -1.00000000   -1.00000000
   13.16888905   -1.00000000   -1.00000000   -1.00000000
   13.26805496   -1.00000000   -1.00000000   -1.00000000
   13.36111164   -1.00000000   -1.00000000   -1.00000000
   13.45638847   -1.00000000   -1.00000000   -1.00000000
   13.55805588   -1.00000000   -1.00000000   -1.00000000
   13.59111118   73.06060028    4.90999985    2.73000002
   13.59444427   93.78279877    4.90999985    2.73000002
   13.59833336   94.20590210    4.90999985    2.73000002
   13.60138893  103.44400024    4.90999985    2.73000002
   13.60472298  104.20899963    4.90999985    2.73000002
   13.61138916  104.20899963    4.90999985    2.73000002
   13.61555576   93.51450348    4.90999985    2.73000002
   13.61888885   93.96869659    4.90999985    2.73000002
   13.62222195   96.65650177    4.90999985    2.73000002
   13.62444496   89.31919861    4.90999985    2.73000002
   13.62583351   87.14610291    4.90999985    2.75000000
   13.62916660   91.27330017    4.90999985    2.73000002
   13.63222218   94.68540192    4.90999985    2.73000002
   13.63555527   85.28829956    4.90999985    2.73000002
   13.63888836   83.55410004    4.90999985    2.73000002
   13.64194393   93.19850159    4.90999985    2.73000002
   13.64527798   97.01730347    4.90999985    2.75000000
   13.64833355   -1.00000000    4.90999985    2.73000002
   13.65444374   -1.00000000    4.90999985    2.73000002
   13.65861034   97.07910156    4.90999985    2.73000002
   13.66249943   97.05169678    4.90999985    2.73000002
   13.66583252   90.02030182    4.90999985    2.73000002
   13.66916656   98.09760284    4.90999985    2.73000002
   13.67222214  100.52400208    4.90999985    2.75000000
   13.67555618   96.01319885    4.90999985    2.75000000
   13.67888927   94.95110321    4.90999985    2.73000002
   13.68194485   93.25749969    4.90999985    2.75000000
   13.68527794   84.42099762    4.90999985    2.73000002
   13.68861103   83.50489807    4.90999985    2.75000000
   13.69111156   86.45040131    4.90999985    2.73000002
   13.69194412   83.20729828    4.90999985    2.73000002
   13.69722271   83.20729828    4.90999985    2.75000000
   13.70138836   85.44129944    4.90999985    2.73000002
   13.70444393   84.26820374    4.90999985    2.73000002
   13.70777798   94.22640228    4.90999985    2.75000000
   13.71111107   92.71279907    4.90999985    2.73000002
   13.71416664   90.11229706    4.90999985    2.73000002
   13.71749973   88.83090210    4.90999985    2.75000000
   13.72083282   91.96250153    4.90999985    2.75000000
   13.72388840   91.80190277    4.90999985    2.75000000
   13.72472191   94.95040131    4.90999985    2.75000000
   13.72749996   84.15399933    4.90999985    2.75000000
   13.73083305   91.39890289    4.90999985    2.75000000
   13.73388958   85.41909790    4.90999985    2.75000000
   13.74000072   85.41909790    4.90999985    2.75000000
   13.74416733   94.40070343    4.90999985    2.75000000
   13.74750042   88.91860199    4.90999985    2.75000000
   13.75055599   88.55809784    4.90999985    2.75000000
   13.75388908   87.16410065    4.90999985    2.75000000
   13.75722218   87.74179840    4.90999985    2.75000000
   13.75805569   84.08260345    4.90999985    2.76999998
   13.76055527   90.44550323    4.90999985    2.75000000
   13.76388931   79.60970306    4.90999985    2.73000002
   13.76694393   91.99169922    4.90999985    2.75000000
   13.77027798   87.41419983    4.90999985    2.75000000
   13.77361107   86.77870178    4.90999985    2.73000002
   13.77666664   93.93399811    4.90999985    2.75000000
   13.78277779   93.93399811    4.90999985    2.75000000
   13.78694534   92.14250183    4.90999985    2.75000000
   13.79027843  104.73899841    4.90999985    2.75000000
   13.79138947   86.93910217    4.90999985    2.75000000
   13.79388905   92.51779938    4.90999985    2.75000000
   13.79722309   97.14340210    4.90999985    2.75000000
   13.80055618   85.86160278    4.90999985    2.75000000
   13.80361176   97.58090210    4.90999985    2.75000000
   13.80694485   96.19439697    4.90999985    2.75000000
   13.81000042   99.58049774    4.90999985    2.75000000
   13.81333351   89.58779907    4.90999985    2.75000000
   13.81666660   98.02919769    4.90999985    2.75000000
   13.81972218   84.14959717    4.90999985    2.75000000
   13.82583332   84.14959717    4.90999985    2.75000000
   13.82999992   89.14610291    4.90999985    2.73000002
   13.83305550  107.11499786    4.90999985    2.75000000
   13.83638859   90.23629761    4.90999985    2.75000000
   13.83944416   89.24880219    4.90999985    2.76999998
   13.84277725   84.05500031    4.90999985    2.75000000
   13.84611034   81.31349945    4.90999985    2.75000000
   13.84916592   81.42700195    4.90999985    2.75000000
   13.85249996   92.17489624    4.90999985    2.75000000
   13.85583401   84.41020203    4.90999985    2.75000000
   13.85805607   84.55059814    4.90999985    2.75000000
   13.85916710   86.40699768    4.90999985    2.75000000
   13.86250019   91.83979797    4.90999985    2.75000000
   13.86861134   91.83979797    4.90999985    2.75000000
   13.87277794   88.56060028    4.90999985    2.75000000
   13.87611103  101.61299896    4.90999985    2.75000000
   13.87916660  101.00199890    4.90999985    2.75000000
   13.88249969   98.70390320    4.90999985    2.75000000
   13.88555527   94.44770050    4.90999985    2.75000000
   13.88888836   94.42040253    4.90999985    2.76999998
   13.89138889   92.22170258    4.90999985    2.76999998
   13.89249992   86.66580200    4.90999985    2.76999998
   13.89583302   96.18340302    4.90999985    2.76999998
   13.89888859   91.08309937    4.90999985    2.76999998
   13.90222168   84.45480347    4.90999985    2.76999998
   13.90555477   87.96019745    4.90999985    2.75000000
   13.91138840   87.96019745    4.90999985    2.75000000
   13.91555500   89.70149994    4.90999985    2.76999998
   13.91888905   98.63089752    4.90999985    2.76999998
   13.92194462   89.95980072    4.90999985    2.75000000
   13.92472267  101.84100342    4.90999985    2.76999998
   13.92555618   88.93599701    4.90999985    2.75000000
   13.92888927  100.64800262    4.90999985    2.76999998
   13.93194485   92.25779724    4.90999985    2.75000000
   13.93527794   92.91960144    4.90999985    2.76999998
   13.93861103   87.49610138    4.90999985    2.75000000
   13.94166660   96.83589935    4.90999985    2.76999998
   13.94499969   96.85420227    4.90999985    2.76999998
   13.94833374   86.62799835    4.90999985    2.76999998
   13.95444393   86.62799835    4.90999985    2.76999998
   13.95833302   96.12770081    4.90999985    2.76999998
   13.96166611   95.19580078    4.90999985    2.76999998
   13.96500015   89.96739960    4.90999985    2.76999998
   13.96805477   85.39559937    4.90999985    2.75000000
   13.97138882   95.82969666    4.90999985    2.76999998
   13.97444439   89.69460297    4.90999985    2.76999998
   13.97777748  101.73600006    4.90999985    2.76999998
   13.98111057  100.57800293    4.90999985    2.76999998
   13.98416710   94.91590118    4.90999985    2.75000000
   13.98750019   94.43329620    4.90999985    2.76999998
   13.99083328   92.67330170    4.90999985    2.75000000
   13.99138927   91.03990173    4.90999985    2.75000000
   13.99722290   91.03990173    4.90999985    2.76999998
   14.00138855   97.75689697    4.90999985    2.76999998
   14.00444412   89.77610016    4.90999985    2.76999998
   14.00777817   87.21189880    4.90999985    2.76999998
   14.01083374   92.39839935    4.90999985    2.76999998
   14.01416683  102.88899994    4.90999985    2.76999998
   14.01749992   90.77970123    4.90999985    2.76999998
   14.02055550   83.70249939    4.90999985    2.76999998
   14.02388859   87.11029816    4.90999985    2.75000000
   14.02472210   87.83319855    4.90999985    2.76999998
   14.02750015   95.33190155    4.90999985    2.76999998
   14.03083324  108.00900269    4.90999985    2.76999998
   14.03388977  103.96399689    4.90999985    2.76999998
   14.04000092  103.96399689    4.90999985    2.75000000
   14.04416752   97.85189819    4.90999985    2.76999998
   14.04722309   99.31790161    4.90999985    2.78999996
   14.05055618   94.28260040    4.90999985    2.76999998
   14.05388927   97.31379700    4.90999985    2.76999998
   14.05694485   85.83830261    4.90999985    2.76999998
   14.05805588   97.74459839    4.90999985    2.78999996
   14.06055546   96.53330231    4.90999985    2.76999998
   14.06388950  109.06500244    4.90999985    2.76999998
   14.06722260   90.04060364    4.90999985    2.76999998
   14.07027817  101.11599731    4.90999985    2.78999996
   14.07361126   99.92530060    4.90999985    2.78999996
   14.07694435  105.83000183    4.90999985    2.76999998
   14.08277798  105.83000183    4.90999985    2.76999998
   14.08694458  104.67299652    4.90999985    2.78999996
   14.09027767   90.88670349    4.90999985    2.76999998
   14.09138870   94.86519623    4.90999985    2.76999998
   14.09388828  106.75099945    4.90999985    2.76999998
   14.09722233   93.07080078    4.90999985    2.76999998
   14.10055637   98.03929901    4.90999985    2.76999998
   14.10361195   89.25669861    4.90999985    2.78999996
   14.10694504   97.37770081    4.90999985    2.76999998
   14.11027813  100.01799774    4.90999985    2.76999998
   14.11333370   97.01909637    4.90999985    2.76999998
   14.11666679   95.20639801    4.90999985    2.76999998
   14.11972237   88.97450256    4.90999985    2.76999998
   14.12583351   88.97450256    4.90999985    2.76999998
   14.12972260   93.44110107    4.90999985    2.76999998
   14.13305569  102.38899994    4.90999985    2.76999998
   14.13638878   98.94660187    4.90999985    2.76999998
   14.13944435   91.67880249    4.90999985    2.78999996
   14.14277744  106.53800201    4.90999985    2.78999996
   14.14611053   99.74359894    4.90999985    2.76999998
   14.14916611   92.23719788    4.90999985    2.76999998
   14.15249920  103.29499817    4.90999985    2.76999998
   14.15555477   93.40360260    4.90999985    2.76999998
   14.15805531  115.20099640    4.90999985    2.76999998
   14.15916634   93.06900024    4.90999985    2.76999998
   14.16249943  109.99400330    4.90999985    2.78999996
   14.16861153  109.99400330    4.90999985    2.76999998
   14.17277813  102.79499817    4.90999985    2.76999998
   14.17583370   99.70929718    4.90999985    2.76999998
   14.17916679   90.32920074    4.90999985    2.76999998
   14.18222237   92.87010193    4.90999985    2.78999996
   14.18555546   83.31230164    4.90999985    2.78999996
   14.18888855   84.36799622    4.90999985    2.78999996
   14.19138908   83.49340057    4.90999985    2.76999998
   14.19250011   87.73970032    4.90999985    2.76999998
   14.19583321   86.87270355    4.90999985    2.76999998
   14.19916630   84.09739685    4.90999985    2.76999998
   14.20222187   90.67040253    4.90999985    2.78999996
   14.20555496   92.46450043    4.90999985    2.78999996
   14.21138859   92.46450043    4.90999985    2.78999996
   14.21555519   92.56600189    4.90999985    2.78999996
   14.21861076   89.95600128    4.90999985    2.78999996
   14.22194386   89.01270294    4.90999985    2.78999996
   14.22472191   90.40090179    4.90999985    2.76999998
   14.22555542   91.13970184    4.90999985    2.76999998
   14.22888851   90.16300201    4.90999985    2.78999996
   14.23222160   87.05310059    4.90999985    2.76999998
   14.23527813   85.54540253    4.90999985    2.76999998
   14.23861122   88.86019897    4.90999985    2.78999996
   14.24166679   91.49759674    4.90999985    2.76999998
   14.24499989   93.53309631    4.90999985    2.78999996
   14.24833393   90.88670349    4.90999985    2.76999998
   14.25416660   90.88670349    4.90999985    2.78999996
   14.25833321   95.31279755    4.90999985    2.78999996
   14.26166630   89.26429749    4.90999985    2.78999996
   14.26472187   93.76930237    4.90999985    2.78999996
   14.26805496   91.42130280    4.90999985    2.78999996
   14.27138901   93.86540222    4.90999985    2.78999996
   14.27444458   88.66919708    4.90999985    2.76999998
   14.27777767   85.68979645    4.90999985    2.76999998
   14.28083324   96.60659790    4.90999985    2.78999996
   14.28416729   92.18419647    4.90999985    2.78999996
   14.28750038   87.93489838    4.90999985    2.76999998
   14.29055595   88.64510345    4.90999985    2.78999996
   14.29138947   96.77259827    4.90999985    2.78999996
   14.29694462   96.77259827    4.90999985    2.78999996
   14.30111122   82.97010040    4.90999985    2.76999998
   14.30444431   88.89009857    4.90999985    2.78999996
   14.30777836   88.41999817    4.90999985    2.76999998
   14.31083393   84.13159943    4.90999985    2.78999996
   14.31416702   89.28220367    4.90999985    2.78999996
   14.31722260   90.47609711    4.90999985    2.76999998
   14.32055569   98.41719818    4.90999985    2.78999996
   14.32388878   91.60240173    4.90999985    2.78999996
   14.32472229   90.71779633    4.90999985    2.78999996
   14.32722187   91.10320282    4.90999985    2.78999996
   14.33055592   90.76570129    4.90999985    2.78999996
   14.33388901   99.20929718    4.90999985    2.78999996
   14.34000015   99.20929718    4.90999985    2.78999996
   14.34416676   90.62560272    4.90999985    2.78999996
   14.34722233   92.61669922    4.90999985    2.78999996
   14.35055637   91.50720215    4.90999985    2.78999996
   14.35361195   91.53589630    4.90999985    2.76999998
   14.35694504   90.39459991    4.90999985    2.78999996
   14.35805607   87.88430023    4.90999985    2.78999996
   14.36055565   91.49040222    4.90999985    2.78999996
   14.36388969   94.70709991    4.90999985    2.78999996
   14.36722279   91.29219818    4.90999985    2.78999996
   14.37027836   94.58209991    4.90999985    2.78999996
   14.37361145   88.75740051    4.90999985    2.78999996
   14.37694454   90.12619781    4.90999985    2.78999996
   14.38277817   90.12619781    4.90999985    2.78999996
   14.38694477   85.24919891    4.90999985    2.76999998
   14.39000034   99.43969727    4.90999985    2.78999996
   14.39138889   90.34880066    4.90999985    2.78999996
   14.39361095  105.69699860    4.90999985    2.78999996
   14.39694405   92.13179779    4.90999985    2.78999996
   14.40027714   87.57420349    4.90999985    2.78999996
   14.40333271   95.36940002    4.90999985    2.78999996
   14.40666676   87.57109833    4.90999985    2.78999996
   14.40999985   89.39129639    4.90999985    2.78999996
   14.41305542   91.86859894    4.90999985    2.78999996
   14.41638851   81.26540375    4.90999985    2.78999996
   14.41944504   86.92880249    4.90999985    2.78999996
   14.42555618   86.92880249    4.90999985    2.78999996
   14.42972279   86.76509857    4.90999985    2.78999996
   14.43305588   83.09179688    4.90999985    2.78999996
   14.43611145   87.56600189    4.90999985    2.78999996
   14.43944454   90.13690186    4.90999985    2.78999996
   14.44277763   86.18840027    4.90999985    2.78999996
   14.44583321   88.65270233    4.90999985    2.78999996
   14.44916630   88.38040161    4.90999985    2.78999996
   14.45222187   91.83180237    4.90999985    2.78999996
   14.45555496   86.26999664    4.90999985    2.78999996
   14.45805550   94.84940338    4.90999985    2.78999996
   14.45916653   83.73349762    4.90999985    2.78999996
   14.46249962   81.82019806    4.90999985    2.78999996
   14.46833324   81.82019806    4.90999985    2.78999996
   14.47249985   86.27279663    4.90999985    2.78999996
   14.47583294   90.30999756    4.90999985    2.80999994
   14.47916603   90.24859619    4.90999985    2.78999996
   14.48222160   93.10880280    4.90999985    2.78999996
   14.48555565   87.62529755    4.90999985    2.78999996
   14.48888874   87.37110138    4.90999985    2.76999998
   14.49138927   87.08979797    4.90999985    2.78999996
   14.49222279   97.48719788    4.90999985    2.78999996
   14.49555588   87.38120270    4.90999985    2.78999996
   14.49888897   90.59829712    4.90999985    2.78999996
   14.50194454   90.32610321    4.90999985    2.78999996
   14.50527763   94.89219666    4.90999985    2.78999996
   14.51138878   94.89219666    4.90999985    2.78999996
   14.51527786   79.46579742    4.90999985    2.78999996
   14.51861095   87.64450073    4.90999985    2.78999996
   14.52194405   90.41580200    4.90999985    2.78999996
   14.52472210   88.55660248    4.90999985    2.78999996
   14.52555561   94.77839661    4.90999985    2.78999996
   14.52888870   91.74410248    4.90999985    2.78999996
   14.53222179   92.74919891    4.90999985    2.78999996
   14.53527832  100.72699738    4.90999985    2.78999996
   14.53861141   92.38230133    4.90999985    2.78999996
   14.54194450   92.57340240    4.90999985    2.78999996
   14.54500008   86.82980347    4.90999985    2.78999996
   14.54833412   86.29010010    4.90999985    2.78999996
   14.55416679   86.29010010    4.90999985    2.78999996
   14.55833340   88.12729645    4.90999985    2.78999996
   14.56138897   84.55239868    4.90999985    2.78999996
   14.56472206   85.69689941    4.90999985    2.78999996
   14.56805515   89.22930145    4.90999985    2.78999996
   14.57111073   86.78330231    4.90999985    2.78999996
   14.57444477   88.72260284    4.90999985    2.78999996
   14.57750034   89.18650055    4.90999985    2.78999996
   14.58083344   87.68190002    4.90999985    2.78999996
   14.58416653   91.27290344    4.90999985    2.78999996
   14.58722210   88.85520172    4.90999985    2.78999996
   14.59055519   93.52539825    4.90999985    2.78999996
   14.59138870   86.57180023    4.90999985    2.78999996
   14.61222267   86.57180023    4.90999985    2.78999996
   14.61611176   85.27030182    4.90999985    2.78999996
   14.61944485   82.40470123    4.90999985    2.78999996
   14.62277794   86.69339752    4.90999985    2.76999998
   14.62472248   83.59200287    4.90999985    2.78999996
   14.62638855   85.77989960    4.90999985    2.78999996
   14.62944412   90.98809814    4.90999985    2.78999996
   14.63277817   89.73660278    4.90999985    2.78999996
   14.63583279  102.82299805    4.90999985    2.78999996
   14.63916683   86.94529724    4.90999985    2.78999996
   14.64249992   94.04650116    4.90999985    2.78999996
   14.64555550   91.62210083    4.90999985    2.78999996
   14.64888859   93.90679932    4.90999985    2.78999996
   14.65499973   93.90679932    4.90999985    2.80999994
   14.65888882   96.81909943    4.90999985    2.78999996
   14.66222191  102.38999939    4.90999985    2.78999996
   14.66555500   94.22879791    4.90999985    2.78999996
   14.66861153   90.02469635    4.90999985    2.78999996
   14.67194462   -1.00000000    4.90999985    2.78999996
   14.67500019   92.31140137    4.90999985    2.78999996
   14.67833328   95.12069702    4.90999985    2.78999996
   14.68166733   85.85659790    4.90999985    2.78999996
   14.68472195   89.53209686    4.90999985    2.78999996
   14.68805599   83.67150116    4.90999985    2.78999996
   14.69138908   93.35729980    4.90999985    2.78999996
   14.69194412   99.72440338    4.90999985    2.78999996
   14.69777775   99.72440338    4.90999985    2.78999996
   14.70194435   83.59030151    4.90999985    2.78999996
   14.70499992   88.40820313    4.90999985    2.80999994
   14.70833302   97.83489990    4.90999985    2.78999996
   14.71138859   96.65799713    4.90999985    2.78999996
   14.71472168   92.00229645    4.90999985    2.78999996
   14.71805477   91.66529846    4.90999985    2.80999994
   14.72111034   -1.00000000    4.90999985    2.80999994
   14.72444439   -1.00000000    4.90999985    2.78999996
   14.72527695   90.69850159    4.90999985    2.80999994
   14.72805500   88.58110046    4.90999985    2.78999996
   14.73138809   89.66860199    4.90999985    2.80999994
   14.73444462   88.21849823    4.90999985    2.80999994
   14.74055576   88.21849823    4.90999985    2.80999994
   14.74472237   87.00219727    4.90999985    2.78999996
   14.74777794   89.01519775    4.90999985    2.78999996
   14.75111103   90.88040161    4.90999985    2.78999996
   14.75444412   80.94850159    4.90999985    2.80999994
   14.75749969   88.48880005    4.90999985    2.80999994
   14.75861073   85.34739685    4.90999985    2.80999994
   14.76111126   90.03350067    4.90999985    2.80999994
   14.76444435   96.25319672    4.90999985    2.78999996
   14.76749992   85.55989838    4.90999985    2.78999996
   14.77083302   -1.00000000    4.90999985    2.78999996
   14.77416611   -1.00000000    4.90999985    2.78999996
   14.77722168   95.58049774    4.90999985    2.78999996
   14.78333378   95.58049774    4.90999985    2.78999996
   14.78750038   86.98110199    4.90999985    2.78999996
   14.79083347   90.46530151    4.90999985    2.78999996
   14.79194450   92.70839691    4.90999985    2.78999996
   14.79444504   93.85089874    4.90999985    2.78999996
   14.79777813   91.75849915    4.90999985    2.78999996
   14.80083370   85.21440125    4.90999985    2.78999996
   14.80416679   88.87760162    4.90999985    2.78999996
   14.80749989   95.87419891    4.90999985    2.78999996
   14.81055546   93.14990234    4.90999985    2.78999996
   14.81388950   94.40339661    4.90999985    2.78999996
   14.81722260   82.97730255    4.90999985    2.78999996
   14.82027817   -1.00000000    4.90999985    2.78999996
   14.82638836   -1.00000000    4.90999985    2.78999996
   14.83027744   88.98449707    4.90999985    2.80999994
   14.83361053   89.03150177    4.90999985    2.80999994
   14.83694458   91.43329620    4.90999985    2.78999996
   14.84000015   94.07929993    4.90999985    2.80999994
   14.84333324   93.34539795    4.90999985    2.78999996
   14.84638882   93.44049835    4.90999985    2.78999996
   14.84972191  101.70500183    4.90999985    2.78999996
   14.85305595   93.27549744    4.90999985    2.78999996
   14.85611153   92.95220184    4.90999985    2.80999994
   14.85861111   85.27600098    4.90999985    2.78999996
   14.85972214   94.52760315    4.90999985    2.78999996
   14.86305618   94.46430206    4.90999985    2.78999996
   14.86916637   94.46430206    4.90999985    2.78999996
   14.87333393   -1.00000000    4.90999985    2.80999994
   14.87638855   89.81069946    4.90999985    2.78999996
   14.87972260   95.67420197    4.90999985    2.78999996
   14.88277817  102.20300293    4.90999985    2.78999996
   14.88611126   88.06189728    4.90999985    2.78999996
   14.88944435   95.13809967    4.90999985    2.78999996
   14.89194393   91.84110260    4.90999985    2.78999996
   14.89305496   95.67590332    4.90999985    2.78999996
   14.89638901   86.51059723    4.90999985    2.78999996
   14.89972210   82.01719666    4.90999985    2.78999996
   14.90277767   85.99150085    4.90999985    2.78999996
   14.90611076   82.99279785    4.90999985    2.78999996
   14.91194439   82.99279785    4.90999985    2.80999994
   14.91611099   83.58470154    4.90999985    2.80999994
   14.91916656   84.58149719    4.90999985    2.78999996
   14.92250061   -1.00000000    4.90999985    2.78999996
   14.92527771  101.23699951    4.90999985    2.78999996
   14.92611122   92.22550201    4.90999985    2.78999996
   14.92944431   92.31559753    4.90999985    2.78999996
   14.93249989   91.54219818    4.90999985    2.78999996
   14.93583298  107.60900116    4.90999985    2.78999996
   14.93916702   99.28479767    4.90999985    2.80999994
   14.94222260   89.93730164    4.90999985    2.80999994
   14.94555569   90.95939636    4.90999985    2.80999994
   14.94888878   82.48539734    4.90999985    2.80999994
   14.95472240   82.48539734    4.90999985    2.82999992
   14.95888901   87.90370178    4.90999985    2.80999994
   14.96222210   85.38980103    4.90999985    2.80999994
   14.96527767   92.69560242    4.90999985    2.80999994
   14.96861076   86.53510284    4.90999985    2.80999994
   14.97194386   -1.00000000    4.90999985    2.78999996
   14.97499943  224.75599670    4.90999985    2.78999996
   14.97833252   83.07319641    4.90999985    2.80999994
   14.98138809   84.24590302    4.90999985    2.78999996
   14.98472214   81.61689758    4.90999985    2.80999994
   14.98805618   92.49590302    4.90999985    2.78999996
   14.99111176   80.48500061    4.90999985    2.80999994
   14.99194431   81.92400360    4.90999985    2.80999994
   14.99750042   81.92400360    4.90999985    2.78999996
   15.00166702   99.71839905    4.90999985    2.78999996
   15.00500011   83.81120300    4.90999985    2.80999994
   15.00833321   87.30570221    4.90999985    2.78999996
   15.01138878   91.46160126    4.90999985    2.80999994
   15.01472187   88.02500153    4.90999985    2.80999994
   15.01805496   83.13780212    4.90999985    2.80999994
   15.02111053   -1.00000000    4.90999985    2.78999996
   15.02444458   -1.00000000    4.90999985    2.80999994
   15.02805519   82.80020142    4.90999985    2.80999994
   15.03138828  111.40899658    4.90999985    2.80999994
   15.03444481   90.54509735    4.90999985    2.80999994
   15.04055595   90.54509735    4.90999985    2.80999994
   15.04472256  102.51399994    4.90999985    2.80999994
   15.04777813   94.64790344    4.90999985    2.80999994
   15.05111122   92.65899658    4.90999985    2.80999994
   15.05416679   84.14830017    4.90999985    2.80999994
   15.05749989   88.24939728    4.90999985    2.80999994
   15.05861092   96.52390289    4.90999985    2.80999994
   15.06111145   97.85739899    4.90999985    2.80999994
   15.06444454   93.38140106    4.90999985    2.80999994
   15.06777763  107.37799835    4.90999985    2.80999994
   15.07083321   -1.00000000    4.90999985    2.82999992
   15.07416630   -1.00000000    4.90999985    2.80999994
   15.07722187  112.96299744    4.90999985    2.80999994
   15.08333302  112.96299744    4.90999985    2.82999992
   15.08749962   91.34580231    4.90999985    2.80999994
   15.09055519  123.33000183    4.90999985    2.80999994
   15.09194374  112.17800140    4.90999985    2.80999994
   15.09416676   89.79959869    4.90999985    2.80999994
   15.09749985  111.48500061    4.90999985    2.80999994
   15.10083389  110.22000122    4.90999985    2.80999994
   15.10388947  145.26300049    4.90999985    2.80999994
   15.10722256   91.40470123    4.90999985    2.80999994
   15.11055565  115.19100189    4.90999985    2.80999994
   15.11361122  131.22700500    4.90999985    2.80999994
   15.11694431   88.55879974    4.90999985    2.80999994
   15.11999989  138.80599976    4.90999985    2.80999994
   15.12611103  138.80599976    4.90999985    2.80999994
   15.13027763  112.14099884    4.90999985    2.78999996
   15.13361073   99.17530060    4.90999985    2.80999994
   15.13666630   90.45619965    4.90999985    2.80999994
   15.14000034  136.40400696    4.90999985    2.80999994
   15.14333344  126.17199707    4.90999985    2.80999994
   15.14638901  120.89199829    4.90999985    2.80999994
   15.14972210  132.90899658    4.90999985    2.80999994
   15.15277767  111.81900024    4.90999985    2.82999992
   15.15611076   87.78099823    4.90999985    2.80999994
   15.15861034  118.26699829    4.90999985    2.82999992
   15.15972137  103.65799713    4.90999985    2.82999992
   15.16305542  104.04599762    4.90999985    2.80999994
   15.16916656  104.04599762    4.90999985    2.80999994
   15.17333412   -1.00000000    4.90999985    2.80999994
   15.17638874  128.34599304    4.90999985    2.80999994
   15.17972279  119.69599915    4.90999985    2.82999992
   15.18305588  113.93299866    4.90999985    2.80999994
   15.18611145  106.40599823    4.90999985    2.80999994
   15.18944454  106.25900269    4.90999985    2.80999994
   15.19194412  122.23400116    4.90999985    2.82999992
   15.19305515  109.91999817    4.90999985    2.80999994
   15.19638920  135.20199585    4.90999985    2.80999994
   15.19972229  117.87799835    4.90999985    2.82999992
   15.20277786  114.10800171    4.90999985    2.82999992
   15.20611095  126.36000061    4.90999985    2.80999994
   15.21194458  126.36000061    4.90999985    2.80999994
   15.21611118  128.58299255    4.90999985    2.80999994
   15.21916580  144.20899963    4.90999985    2.80999994
   15.22249985   -1.00000000    4.90999985    2.80999994
   15.22611046  132.77299500    4.90999985    2.82999992
   15.22944355  158.11799622    4.90999985    2.82999992
   15.23249912  112.34500122    4.90999985    2.80999994
   15.23583317  143.67300415    4.90999985    2.80999994
   15.23916721  135.76499939    4.90999985    2.80999994
   15.24222279  151.14100647    4.90999985    2.80999994
   15.24555588  140.01400757    4.90999985    2.80999994
   15.24861145  135.89599609    4.90999985    2.80999994
   15.25472260  135.89599609    4.90999985    2.80999994
   15.25888920  144.49699402    4.90999985    2.80999994
   15.26194477  128.91099548    4.90999985    2.82999992
   15.26527786  144.31500244    4.90999985    2.82999992
   15.26861095  147.01400757    4.90999985    2.82999992
   15.27166653   -1.00000000    4.90999985    2.80999994
   15.27499962   -1.00000000    4.90999985    2.80999994
   15.27833271  157.35400391    4.90999985    2.80999994
   15.28138828  154.45399475    4.90999985    2.80999994
   15.28472233  148.44599915    4.90999985    2.80999994
   15.28777790  147.07600403    4.90999985    2.80999994
   15.29111195  136.14700317    4.90999985    2.80999994
   15.29194450  151.26899719    4.90999985    2.80999994
   15.29750061  151.26899719    4.90999985    2.80999994
   15.30166721  134.91200256    4.90999985    2.80999994
   15.30500031   97.62760162    4.90999985    2.82999992
   15.30805588  137.47700500    4.90999985    2.82999992
   15.31138897  108.16300201    4.90999985    2.82999992
   15.31472206  122.33799744    4.90999985    2.80999994
   15.31777763  118.08000183    4.90999985    2.80999994
   15.32111073   -1.00000000    4.90999985    2.80999994
   15.32444477   -1.00000000    4.90999985    2.80999994
   15.32777786  112.97899628    4.90999985    2.80999994
   15.33111095  126.18599701    4.90999985    2.80999994
   15.33416653  108.92900085    4.90999985    2.80999994
   15.34027767  108.92900085    4.90999985    2.80999994
   15.34444427  113.60900116    4.90999985    2.80999994
   15.34805489  133.52699280    4.90999985    2.80999994
   15.35138893  145.91900635    4.90999985    2.82999992
   15.35444450  111.88600159    4.90999985    2.80999994
   15.35777855  125.24299622    4.90999985    2.82999992
   15.35861111  128.89999390    4.90999985    2.80999994
   15.36138916  143.64799500    4.90999985    2.80999994
   15.36472225  133.73399353    4.90999985    2.80999994
   15.36805534  122.20600128    4.90999985    2.80999994
   15.37111092  128.55799866    4.90999985    2.82999992
   15.37444496  142.20300293    4.90999985    2.82999992
   15.37777805  134.83999634    4.90999985    2.80999994
   15.38333321  134.83999634    4.90999985    2.82999992
   15.38722229  138.04899597    4.90999985    2.82999992
   15.39055538  132.07299805    4.90999985    2.80999994
   15.39194393  138.41499329    4.90999985    2.80999994
   15.39416695  119.24400330    4.90999985    2.80999994
   15.39750004  120.67500305    4.90999985    2.82999992
   15.40083313  103.83999634    4.90999985    2.80999994
   15.40416622  125.33000183    4.90999985    2.82999992
   15.40722179  129.57499695    4.90999985    2.82999992
   15.41055489  107.34400177    4.90999985    2.82999992
   15.41361046  110.47699738    4.90999985    2.82999992
   15.41694450  134.07099915    4.90999985    2.80999994
   15.42027855  125.00800323    4.90999985    2.82999992
   15.42611122  125.00800323    4.90999985    2.80999994
   15.43027782  134.01899719    4.90999985    2.82999992
   15.43333340  137.56900024    4.90999985    2.82999992
   15.43666649  131.18299866    4.90999985    2.82999992
   15.44000053  145.69299316    4.90999985    2.82999992
   15.44305515  130.16700745    4.90999985    2.82999992
   15.44638920   96.91159821    4.90999985    2.82999992
   15.44972229  141.72099304    4.90999985    2.78999996
   15.45277786  103.96399689    4.90999985    2.80999994
   15.45611095  115.71499634    4.90999985    2.80999994
   15.45861053  120.23300171    4.90999985    2.80999994
   15.45944405  122.27700043    4.90999985    2.80999994
   15.46277714  132.51899719    4.90999985    2.80999994
   15.46888828  132.51899719    4.90999985    2.82999992
   15.47305489  110.67500305    4.90999985    2.82999992
   15.47638798  110.34200287    4.90999985    2.82999992
   15.47944355  119.66000366    4.90999985    2.82999992
   15.48277760  123.54199982    4.90999985    2.82999992
   15.48583317   90.21810150    4.90999985    2.80999994
   15.48916721  112.13600159    4.90999985    2.82999992
   15.49194431  117.41799927    4.90999985    2.80999994
   15.49305534  113.63500214    4.90999985    2.80999994
   15.49611092   88.37609863    4.90999985    2.80999994
   15.49944496  114.74900055    4.90999985    2.80999994
   15.50249958  118.61199951    4.90999985    2.80999994
   15.50583363  120.72000122    4.90999985    2.80999994
   15.51166630  120.72000122    4.90999985    2.82999992
   15.51583290  115.57099915    4.90999985    2.80999994
   15.51916599  101.69000244    4.90999985    2.82999992
   15.52222157  105.13200378    4.90999985    2.82999992
   15.52527714  112.62200165    4.90999985    2.80999994
   15.52611065  124.19699860    4.90999985    2.80999994
   15.52916622  113.44000244    4.90999985    2.80999994
   15.53249931  132.62899780    4.90999985    2.80999994
   15.53555584  106.00099945    4.90999985    2.80999994
   15.53888893  125.94300079    4.90999985    2.80999994
   15.54222298   92.34850311    4.90999985    2.82999992
   15.54527855  125.42900085    4.90999985    2.82999992
   15.54861164   88.42230225    4.90999985    2.82999992
   15.55472279   88.42230225    4.90999985    2.82999992
   15.55861092   87.58429718    4.90999985    2.80999994
   15.56194496   87.40969849    4.90999985    2.80999994
   15.56527805   98.29019928    4.90999985    2.80999994
   15.56833363   99.68499756    4.90999985    2.80999994
   15.57166672   91.50530243    4.90999985    2.80999994
   15.57499981  110.83999634    4.90999985    2.80999994
   15.57805538  127.63200378    4.90999985    2.80999994
   15.58138847   94.92459869    4.90999985    2.82999992
   15.58444405  110.83499908    4.90999985    2.82999992
   15.58777714   90.54139709    4.90999985    2.82999992
   15.59111118  102.31199646    4.90999985    2.82999992
   15.59194374  100.30100250    4.90999985    2.82999992
   15.59749985  100.30100250    4.90999985    2.80999994
   15.60166740   92.24160004    4.90999985    2.82999992
   15.60472298   92.84950256    4.90999985    2.80999994
   15.60805607   97.42939758    4.90999985    2.82999992
   15.62555599   91.70200348    4.90999985    2.82999992
   15.62805557   90.55139923    4.90999985    2.80999994
   15.63111115   96.63770294    4.90999985    2.80999994
   15.63444424   99.77739716    4.90999985    2.82999992
   15.64055538   99.77739716    4.90999985    2.80999994
   15.64472198   97.50229645    4.90999985    2.80999994
   15.64777756   98.50270081    4.90999985    2.80999994
   15.65111065  102.71700287    4.90999985    2.80999994
   15.65416622   89.32189941    4.90999985    2.82999992
   15.65749931   99.75479889    4.90999985    2.82999992
   15.65888882   98.23509979    4.90999985    2.80999994
   15.66138840   91.47019958    4.90999985    2.82999992
   15.66444397   94.83799744    4.90999985    2.82999992
   15.66777802   85.56890106    4.90999985    2.82999992
   15.67111111   83.22709656    4.90999985    2.80999994
   15.67416668   94.93599701    4.90999985    2.80999994
   15.67750072  101.69000244    4.90999985    2.80999994
   15.68333340  101.69000244    4.90999985    2.80999994
   15.68750000  100.84999847    4.90999985    2.82999992
   15.69055557   91.11219788    4.90999985    2.80999994
   15.69222260   89.64659882    4.90999985    2.80999994
   15.69416714   98.07430267    4.90999985    2.80999994
   15.69750023   88.22779846    4.90999985    2.82999992
   15.70083332   85.79789734    4.90999985    2.82999992
   15.70388889   88.86569977    4.90999985    2.80999994
   15.70722198   99.66899872    4.90999985    2.80999994
   15.71055508  107.67900085    4.90999985    2.80999994
   15.71361065   89.42729950    4.90999985    2.80999994
   15.71694374   95.96459961    4.90999985    2.82999992
   15.71999931  119.67700195    4.90999985    2.82999992
   15.72611046  119.67700195    4.90999985    2.80999994
   15.73027706  106.32599640    4.90999985    2.82999992
   15.73361111  100.49299622    4.90999985    2.82999992
   15.73666668   91.50499725    4.90999985    2.82999992
   15.74000072   86.90019989    4.90999985    2.82999992
   15.74333382  103.95800018    4.90999985    2.82999992
   15.74638939  102.59100342    4.90999985    2.82999992
   15.74972248   91.52369690    4.90999985    2.82999992
   15.75277805   93.87030029    4.90999985    2.80999994
   15.75611115  100.09500122    4.90999985    2.82999992
   15.75916672   82.37640381    4.90999985    2.80999994
   15.76027775   89.18419647    4.90999985    2.82999992
   15.76333332   98.57479858    4.90999985    2.82999992
   15.76888847   98.57479858    4.90999985    2.82999992
   15.77305508   80.76390076    4.90999985    2.82999992
   15.77638817   87.58540344    4.90999985    2.82999992
   15.77972221   80.07350159    4.90999985    2.80999994
   15.78277779  106.56400299    4.90999985    2.82999992
   15.78611183   97.12049866    4.90999985    2.82999992
   15.78916740   87.84929657    4.90999985    2.82999992
   15.79222298   86.66549683    4.90999985    2.80999994
   15.79305553   94.49919891    4.90999985    2.82999992
   15.79611111  100.84999847    4.90999985    2.80999994
   15.79944515   90.89589691    4.90999985    2.82999992
   15.80249977   85.05629730    4.90999985    2.82999992
   15.80583382   92.23090363    4.90999985    2.82999992
   15.81194496   92.23090363    4.90999985    2.82999992
   15.81611156   94.83660126    4.90999985    2.80999994
   15.81916618  101.84700012    4.90999985    2.82999992
   15.82250023   99.77600098    4.90999985    2.80999994
   15.82555580   91.80419922    4.90999985    2.82999992
   15.82611084  103.72599792    4.90999985    2.82999992
   15.82916641   99.44280243    4.90999985    2.80999994
   15.83249950   98.03250122    4.90999985    2.80999994
   15.83555508  108.29000092    4.90999985    2.80999994
   15.83888817   88.45050049    4.90999985    2.82999992
   15.84222221   88.85659790    4.90999985    2.82999992
   15.84527779   90.66649628    4.90999985    2.82999992
   15.84861088  100.10600281    4.90999985    2.80999994
   15.85472298  100.10600281    4.90999985    2.80999994
   15.85888958   95.25420380    4.90999985    2.82999992
   15.85944462  106.89499664    4.90999985    2.82999992
   15.86250019   92.01170349    4.90999985    2.82999992
   15.86583328   97.19580078    4.90999985    2.80999994
   15.86888885  112.22000122    4.90999985    2.80999994
   15.87222195   93.26670074    4.90999985    2.82999992
   15.87555599  111.18499756    4.90999985    2.82999992
   15.87861156  103.95300293    4.90999985    2.82999992
   15.88194466   99.31839752    4.90999985    2.82999992
   15.88527775   86.86319733    4.90999985    2.80999994
   15.88833332   90.92579651    4.90999985    2.82999992
   15.89166641   86.51830292    4.90999985    2.80999994
   15.89222240  103.54699707    4.90999985    2.82999992
   15.89750004  103.54699707    4.90999985    2.82999992
   15.90166664   99.63539886    4.90999985    2.82999992
   15.90499973   97.75969696    4.90999985    2.82999992
   15.90805531   92.17839813    4.90999985    2.80999994
   15.91138840   99.93789673    4.90999985    2.82999992
   15.91472149   94.51689911    4.90999985    2.82999992
   15.91777802   92.30149841    4.90999985    2.80999994
   15.92111111   99.56199646    4.90999985    2.80999994
   15.92416668   94.15409851    4.90999985    2.82999992
   15.92555618   99.17990112    4.90999985    2.80999994
   15.92805576   92.48840332    4.90999985    2.80999994
   15.93111134   86.26550293    4.90999985    2.82999992
   15.93444443   83.01039886    4.90999985    2.80999994
   15.94027805   83.01039886    4.90999985    2.80999994
   15.94444466   91.97619629    4.90999985    2.80999994
   15.94777775  101.32499695    4.90999985    2.80999994
   15.95111084   90.48320007    4.90999985    2.80999994
   15.95416641   89.66539764    4.90999985    2.80999994
   15.95749950   91.69979858    4.90999985    2.80999994
   15.95888901   94.95469666    4.90999985    2.82999992
   15.96111107   85.64179993    4.90999985    2.82999992
   15.96416664   95.41809845    4.90999985    2.80999994
   15.96749973  102.51000214    4.90999985    2.80999994
   15.97083282   92.95709991    4.90999985    2.82999992
   15.97388840   94.95999908    4.90999985    2.80999994
   15.97722149   94.71119690    4.90999985    2.80999994
   15.98333359   94.71119690    4.90999985    2.82999992
   15.98750019   94.51270294    4.90999985    2.82999992
   15.99055576   94.57800293    4.90999985    2.82999992
   15.99222279   89.53810120    4.90999985    2.80999994
   15.99444485   90.32649994    4.90999985    2.82999992
   15.99777794   96.74559784    4.90999985    2.80999994
   16.00083351   88.78890228    4.90999985    2.82999992
   16.00416756   83.03289795    4.90999985    2.80999994
   16.00722313   83.37370300    4.90999985    2.82999992
   16.01055527   89.36329651    4.90999985    2.82999992
   16.01388931   84.48210144    4.90999985    2.82999992
   16.01694489   86.45890045    4.90999985    2.80999994
   16.02027702   91.90119934    4.90999985    2.80999994
   16.02611160   91.90119934    4.90999985    2.82999992
   16.03027725   85.25550079    4.90999985    2.82999992
   16.03333282   82.90049744    4.90999985    2.82999992
   16.03666687   80.86100006    4.90999985    2.80999994
   16.03999901   95.61519623    4.90999985    2.80999994
   16.04305458   80.82489777    4.90999985    2.80999994
   16.04638863   83.18389893    4.90999985    2.80999994
   16.04972076   85.30090332    4.90999985    2.80999994
   16.05277634   89.10980225    4.90999985    2.82999992
   16.05611038   88.38069916    4.90999985    2.73000002
   16.05888748  124.60700226    4.90999985    2.66000009
   16.05972099  100.83699799    4.90999985    2.01999998
   16.06277657   85.62339783    4.90999985    2.80999994
   16.06888962   85.62339783    4.90999985    2.80999994
   16.07305717   86.23280334    4.90999985    2.80999994
   16.07638931   86.46859741    4.90999985    2.80999994
   16.07944489   89.67389679    4.90999985    2.82999992
   16.08277893   86.59439850    4.90999985    2.82999992
   16.08611107   86.51090240    4.90999985    2.80999994
   16.08916664   87.77490234    4.90999985    2.80999994
   16.09222221   96.80269623    4.90999985    2.82999992
   16.09305573   85.40380096    4.90999985    2.82999992
   16.09611130  100.66200256    4.90999985    2.82999992
   16.09944534   85.60659790    4.90999985    2.82999992
   16.10277748   87.17279816    4.90999985    2.82999992
   16.10583305   93.14150238    4.90999985    2.80999994
   16.11166763   93.14150238    4.90999985    2.80999994
   16.11583328   83.41339874    4.90999985    2.82999992
   16.11916733   90.49069977    4.90999985    2.80999994
   16.12249947  103.40399933    4.90999985    2.80999994
   16.12555504   92.09899902    4.90999985    2.80999994
   16.12611198   95.97039795    4.90999985    2.82999992
   16.12916756   89.37770081    4.90999985    2.82999992
   16.13249969   85.94989777    4.90999985    2.82999992
   16.13583374   95.41770172    4.90999985    2.80999994
   16.13888931   90.62110138    4.90999985    2.80999994
   16.14222145   82.70510101    4.90999985    2.80999994
   16.14527702   80.00060272    4.90999985    2.80999994
   16.14861107   90.56860352    4.90999985    2.80999994
   16.15472221   90.56860352    4.90999985    2.80999994
   16.15888786   81.55719757    4.90999985    2.80999994
   16.15916634   91.14430237    4.90999985    2.80999994
   16.16250038   95.08249664    4.90999985    2.80999994
   16.16583252   96.67259979    4.90999985    2.80999994
   16.16916656  107.04699707    4.90999985    2.80999994
   16.17222214   81.96340179    4.90999985    2.82999992
   16.17555428   89.43730164    4.90999985    2.82999992
   16.17860985   88.74620056    4.90999985    2.82999992
   16.18194389   85.91549683    4.90999985    2.82999992
   16.18527603   88.11650085    4.90999985    2.46000004
   16.18833160   90.72940063    4.90999985    2.82999992
   16.19166565   97.97760010    4.90999985    2.82999992
   16.19249916   85.46189880    4.90999985    2.82999992
   16.19749832   85.46189880    4.90999985    2.78999996
   16.20166779   93.75189972    4.90999985    2.82999992
   16.20472336   89.26879883    4.90999985    2.82999992
   16.20805550   85.73090363    4.90999985    2.82999992
   16.21138954   85.22959900    4.90999985    2.84999990
   16.21444511   90.88390350    4.90999985    2.61999989
   16.21777916   89.23449707    4.90999985    2.42000008
   16.22111130   88.67389679    4.90999985    2.82999992
   16.22416687   87.92610168    4.90999985    2.86999989
   16.22611237   92.76360321    4.90999985    2.86999989
   16.22777748   98.24349976    4.90999985    2.80999994
   16.23111153  252.13600159    4.90999985    2.94000006
   16.23416710   -1.00000000    4.90999985    1.36000001
   16.24444389   -1.00000000    4.90999985    0.56999999
   16.24749947   99.76039886    4.90999985    1.86000001
   16.25083351   97.05660248    4.90999985    2.78999996
   16.25416756  128.13999939    4.90999985    2.94000006
   16.25722313  105.37599945    4.90999985    2.26999998
   16.26083374   -1.00000000    4.90999985    2.09999990
   16.26388931  120.55999756    4.90999985    0.80000001
   16.26722145  161.68299866    4.90999985    1.98000002
   16.27055550   94.95680237    4.90999985    2.53999996
   16.27361107  102.01799774    4.90999985    2.82999992
   16.27694511  100.55400085    4.90999985    2.80999994
   16.28305435  100.55400085    4.90999985    2.80999994
   16.28722191   93.75460052    4.90999985    2.80999994
   16.29055595   90.72640228    4.90999985    2.82999992
   16.29277802   94.99150085    4.90999985    2.80999994
   16.29416656   91.49420166    4.90999985    2.80999994
   16.29749870   93.56220245    4.90999985    2.80999994
   16.30055428   80.58280182    4.90999985    2.80999994
   16.30388832   90.19960022    4.90999985    2.80999994
   16.30722237   90.34230042    4.90999985    2.80999994
   16.31027794   87.50530243    4.90999985    2.80999994
   16.31361008   91.85679626    4.90999985    2.80999994
   16.31694603   89.36990356    4.90999985    2.80999994
   16.32000160   91.97160339    4.90999985    2.80999994
   16.32611275   91.97160339    4.90999985    2.80999994
   16.33000183   85.92330170    4.90999985    2.80999994
   16.33333397   91.14019775    4.90999985    2.82999992
   16.33666801   81.39279938    4.90999985    2.80999994
   16.33972359   86.73470306    4.90999985    2.80999994
   16.34305573   93.30660248    4.90999985    2.80999994
   16.34638977   81.70159912    4.90999985    2.80999994
   16.34944534   89.95510101    4.90999985    2.82999992
   16.35277748   89.50720215    4.90999985    2.82999992
   16.35583305   86.63590240    4.90999985    2.80999994
   16.35916710   77.69819641    4.90999985    2.80999994
   16.36111069   86.23500061    4.90999985    2.80999994
   16.36277771   80.31060028    4.90999985    2.82999992
   16.36888885   80.31060028    4.90999985    2.80999994
   16.37305641   83.50229645    4.90999985    2.80999994
   16.37611198   80.67189789    4.90999985    2.80999994
   16.37944412   96.09670258    4.90999985    2.82999992
   16.38277817   88.08399963    4.90999985    2.82999992
   16.38583374   91.37229919    4.90999985    2.82999992
   16.38916588   83.16290283    4.90999985    2.80999994
   16.39222145   95.94329834    4.90999985    2.80999994
   16.39444351   81.39309692    4.90999985    2.80999994
   16.39583397   87.69319916    4.90999985    2.80999994
   16.39916611   90.46839905    4.90999985    2.82999992
   16.40250015   96.99530029    4.90999985    2.82999992
   16.40555573   81.62280273    4.90999985    2.80999994
   16.41166687   81.62280273    4.90999985    2.80999994
   16.41583252   78.76660156    4.90999985    2.80999994
   16.41916656   82.17639923    4.90999985    2.82999992
   16.42222214   80.75039673    4.90999985    2.82999992
   16.42555428   81.37989807    4.90999985    2.82999992
   16.42805481   77.94409943    4.90999985    2.82999992
   16.42916679   88.43029785    4.90999985    2.80999994
   16.43249893   80.16799927    4.90999985    2.78999996
   16.43555450   83.84680176    4.90999985    2.80999994
   16.43888855   89.42630005    4.90999985    2.80999994
   16.44222069   91.28810120    4.90999985    2.80999994
   16.44527626   85.32779694    4.90999985    2.80999994
   16.44861031   90.22119904    4.90999985    2.82999992
   16.45444489   90.22119904    4.90999985    2.78999996
   16.45861244   81.99400330    4.90999985    2.80999994
   16.46138954   87.98210144    4.90999985    2.80999994
   16.46222305   80.81510162    4.90999985    2.82999992
   16.46555710   91.00980377    4.90999985    2.84999990
   16.46861076   89.54329681    4.90999985    2.86999989
   16.47194481   86.79109955    4.90999985    2.93000007
   16.47527885   90.10209656    4.90999985    2.32999992
   16.47833443   90.45639801    4.90999985    2.64000010
   16.48166656   90.34349823    4.90999985    2.80999994
   16.48500061   92.25710297    4.90999985    2.80999994
   16.48805618   84.55220032    4.90999985    2.82999992
   16.49138832  116.25599670    4.90999985    2.82999992
   16.49749947  116.25599670    4.90999985    2.51999998
   16.50138855   93.73459625    4.90999985    2.80999994
   16.50472260   94.52760315    4.90999985    2.80999994
   16.50805473   79.23650360    4.90999985    2.80999994
   16.51111031   79.26660156    4.90999985    2.80999994
   16.51444435   86.40779877    4.90999985    2.80999994
   16.51777840   86.23729706    4.90999985    2.80999994
   16.52083397   89.29250336    4.90999985    2.80999994
   16.52416611   86.23950195    4.90999985    2.80999994
   16.52750015   81.82430267    4.90999985    2.80999994
   16.52833366   79.68240356    4.90999985    2.80999994
   16.53083229   89.31289673    4.90999985    2.80999994
   16.53416634   87.42500305    4.90999985    2.80999994
   16.54027748   87.42500305    4.90999985    2.80999994
   16.54444313   88.78510284    4.90999985    2.80999994
   16.54749870   90.40489960    4.90999985    2.80999994
   16.55083275   90.10790253    4.90999985    2.80999994
   16.55416679   84.94550323    4.90999985    2.82999992
   16.55722237   87.87290192    4.90999985    2.80999994
   16.56055450   91.07949829    4.90999985    2.80999994
   16.56166649   90.65709686    4.90999985    2.82999992
   16.56388855   91.66909790    4.90999985    2.82999992
   16.56722260   90.43090057    4.90999985    2.80999994
   16.57055664   93.45960236    4.90999985    2.80999994
   16.57361221   90.79329681    4.90999985    2.80999994
   16.57694626   87.86070251    4.90999985    2.78999996
   16.58305550   87.86070251    4.90999985    2.80999994
   16.58722305   91.22949982    4.90999985    2.80999994
   16.59055710   86.60929871    4.90999985    2.80999994
   16.59361267   82.49810028    4.90999985    2.82999992
   16.59527779   84.03209686    4.90999985    2.80999994
   16.59722328   86.54570007    4.90999985    2.82999992
   16.60055542   91.52649689    4.90999985    2.82999992
   16.60388947   83.51210022    4.90999985    2.80999994
   16.60694504   90.40769958    4.90999985    2.80999994
   16.61027908   85.46600342    4.90999985    2.80999994
   16.61333466   88.29679871    4.90999985    2.80999994
   16.61666679   83.89469910    4.90999985    2.80999994
   16.62000084   83.20610046    4.90999985    2.80999994
   16.62583351   83.20610046    4.90999985    2.80999994
   16.64444351   84.96279907    4.90999985    2.82999992
   16.64749908   79.09049988    4.90999985    2.80999994
   16.65083313   81.61609650    4.90999985    2.80999994
   16.65388870   88.04779816    4.90999985    2.82999992
   16.65722275   90.65509796    4.90999985    2.80999994
   16.66055489   89.99690247    4.90999985    2.80999994
   16.66361046   81.69969940    4.90999985    2.80999994
   16.66916656   81.69969940    4.90999985    2.80999994
   16.67305565   88.20469666    4.90999985    2.80999994
   16.67638779   85.93009949    4.90999985    2.80999994
   16.67749977   90.99980164    4.90999985    2.80999994
   16.68000031   83.48899841    4.90999985    2.80999994
   16.68333244   85.90989685    4.90999985    2.80999994
   16.68638802   81.68579865    4.90999985    2.82999992
   16.68972206   85.26039886    4.90999985    2.80999994
   16.69305420   84.11859894    4.90999985    2.80999994
   16.69610977   81.50839996    4.90999985    2.80999994
   16.69944382   82.10030365    4.90999985    2.80999994
   16.70277786   87.02120209    4.90999985    2.82999992
   16.70583344   84.64119720    4.90999985    2.80999994
   16.71194458   84.64119720    4.90999985    2.82999992
   16.71611214   85.53859711    4.90999985    2.80999994
   16.71916771   94.89279938    4.90999985    2.80999994
   16.72249985   85.90859985    4.90999985    2.80999994
   16.72583389   82.68180084    4.90999985    2.82999992
   16.72888947   88.66639709    4.90999985    2.80999994
   16.73222351   90.23560333    4.90999985    2.80999994
   16.73527718   85.96369934    4.90999985    2.80999994
   16.73861122   93.77449799    4.90999985    2.80999994
   16.74194527   86.06410217    4.90999985    2.78999996
   16.74416733   84.20580292    4.90999985    2.78999996
   16.74555588   86.82319641    4.90999985    2.82999992
   16.74888992   86.33640289    4.90999985    2.80999994
   16.75472260   86.33640289    4.90999985    2.78999996
   16.75888824   84.86949921    4.90999985    2.80999994
   16.76222229   89.53040314    4.90999985    2.78999996
   16.76527786   82.57399750    4.90999985    2.80999994
   16.76861000   86.87940216    4.90999985    2.80999994
   16.77166557   88.97260284    4.90999985    2.80999994
   16.77499962  100.60800171    4.90999985    2.80999994
   16.77750015   89.07299805    4.90999985    2.80999994
   16.77861023   92.90360260    4.90999985    2.80999994
   16.78194427   82.31770325    4.90999985    2.80999994
   16.78527641   81.26869965    4.90999985    2.80999994
   16.78833199   87.41970062    4.90999985    2.80999994
   16.79166603   81.58570099    4.90999985    2.80999994
   16.79749870   81.58570099    4.90999985    2.80999994
   16.80166626   79.17579651    4.90999985    2.80999994
   16.80499840   89.71900177    4.90999985    2.80999994
   16.80805397   83.96250153    4.90999985    2.80999994
   16.81083298   80.86170197    4.90999985    2.80999994
   16.81166649   85.21929932    4.90999985    2.80999994
   16.81499863   84.74810028    4.90999985    2.80999994
   16.81833458   80.31649780    4.90999985    2.78999996
   16.82139015   80.10179901    4.90999985    2.80999994
   16.82472229   76.09449768    4.90999985    2.82999992
   16.82777786   82.64779663    4.90999985    2.80999994
   16.83111191   85.36170197    4.90999985    2.80999994
   16.83444595   85.42150116    4.90999985    2.80999994
   16.84027863   85.42150116    4.90999985    2.80999994
   16.84444427   -1.00000000    4.90999985    1.75000000
   16.84777832  114.73999786    4.90999985    1.46000004
   16.85111237  122.84100342    4.90999985    2.84999990
   16.85416794   97.32749939    4.90999985    1.55999994
   16.85750008   88.74690247    4.90999985    2.75000000
   16.86055565   87.78829956    4.90999985    2.82999992
   16.86388969   93.83170319    4.90999985    2.80999994
   16.86722183   92.72200012    4.90999985    2.80999994
   16.87027740   88.66030121    4.90999985    2.78999996
   16.87361145   85.96469879    4.90999985    2.80999994
   16.87694550   81.22740173    4.90999985    2.80999994
   16.87750053   80.61869812    4.90999985    2.78999996
   16.88333321   80.61869812    4.90999985    2.80999994
   16.88750076   80.55909729    4.90999985    2.80999994
   16.89055634   78.46179962    4.90999985    2.80999994
   16.89388847   82.23979950    4.90999985    2.80999994
   16.89722252   85.58249664    4.90999985    2.80999994
   16.90027809   83.85880280    4.90999985    2.80999994
   16.90361023   84.83450317    4.90999985    2.80999994
   16.90666580   87.34989929    4.90999985    2.80999994
   16.90999985   87.69640350    4.90999985    2.82999992
   16.91083336   86.24610138    4.90999985    2.84999990
   16.91361046   85.42929840    4.90999985    2.84999990
   16.91694450  131.85000610    4.90999985    2.28999996
   16.92027664  114.03399658    4.90999985    2.46000004
   16.92611122  114.03399658    4.90999985    2.82999992
   16.93027687   85.24199677    4.90999985    2.78999996
   16.93333244   84.85679626    4.90999985    2.80999994
   16.93666649   82.51200104    4.90999985    2.80999994
   16.93999863   83.97530365    4.90999985    2.80999994
   16.94305420   79.20500183    4.90999985    2.80999994
   16.94416618   79.70539856    4.90999985    2.80999994
   16.94666672   89.22160339    4.90999985    2.80999994
   16.95000076   81.39219666    4.90999985    2.80999994
   16.95333481   87.47250366    4.90999985    2.80999994
   16.95639038   82.16130066    4.90999985    2.80999994
   16.95972252   96.41590118    4.90999985    2.82999992
   16.96277809   88.39160156    4.90999985    2.82999992
   16.96888924   88.39160156    4.90999985    2.80999994
   16.97305679   79.77320099    4.90999985    2.80999994
   16.97638893   84.69619751    4.90999985    2.80999994
   16.97750092   85.94920349    4.90999985    2.80999994
   16.97972298   87.48860168    4.90999985    2.80999994
   16.98305511   83.30059814    4.90999985    2.80999994
   16.98638916   83.60350037    4.90999985    2.80999994
   16.98944473   87.89420319    4.90999985    2.80999994
   16.99277878   88.94709778    4.90999985    2.80999994
   16.99611092   93.95459747    4.90999985    2.80999994
   16.99916649   86.28479767    4.90999985    2.82999992
   17.00250053   90.78359985    4.90999985    2.80999994
   17.00555611   92.09739685    4.90999985    2.80999994
   17.01166725   92.09739685    4.90999985    2.80999994
   17.01583290   85.40670013    4.90999985    2.80999994
   17.01916695   90.58470154    4.90999985    2.78999996
   17.02249908   88.39510345    4.90999985    2.80999994
   17.02555466   84.99870300    4.90999985    2.80999994
   17.02888870   83.28369904    4.90999985    2.80999994
   17.03222275   92.10549927    4.90999985    2.80999994
   17.03527641   85.43579865    4.90999985    2.82999992
   17.03861046   84.69979858    4.90999985    2.80999994
   17.04166603   91.13950348    4.90999985    2.80999994
   17.04416656   92.69950104    4.90999985    2.84999990
   17.04527664   91.41840363    4.90999985    2.84999990
   17.04861069  147.00100708    4.90999985    2.86999989
   17.05472183  147.00100708    4.90999985    2.30999994
   17.05888748   -1.00000000    4.90999985    0.95999998
   17.06194305   -1.00000000    4.90999985    0.13000000
   17.06527710   -1.00000000    4.90999985    0.19000000
   17.06833458   97.35949707    4.90999985    0.67000002
   17.07166672   87.48380280    4.90999985    1.25000000
   17.07500076   88.05419922    4.90999985    2.89000010
   17.07750130   88.26360321    4.90999985    2.86999989
   17.07833481   90.49069977    4.90999985    2.84999990
   17.08166695   92.33290100    4.90999985    2.82999992
   17.08500099   91.50479889    4.90999985    2.80999994
   17.08805656   87.86070251    4.90999985    2.80999994
   17.09138870   86.34269714    4.90999985    2.80999994
   17.09749985   86.34269714    4.90999985    2.80999994
   17.10166740   91.67269897    4.90999985    2.80999994
   17.10472298   90.87310028    4.90999985    2.80999994
   17.10805511   88.88439941    4.90999985    2.82999992
   17.11083412   80.50839996    4.90999985    2.80999994
   17.11166763   85.27159882    4.90999985    2.82999992
   17.11499977   93.75710297    4.90999985    2.80999994
   17.11833382   93.90830231    4.90999985    2.80999994
   17.12138939   94.82730103    4.90999985    2.78999996
   17.12472153   91.79599762    4.90999985    2.80999994
   17.12805557   88.06259918    4.90999985    2.80999994
   17.13111115   95.13559723    4.90999985    2.80999994
   17.13444519   98.68550110    4.90999985    2.78999996
   17.14027786   98.68550110    4.90999985    2.82999992
   17.14444351   94.12560272    4.90999985    2.82999992
   17.14777756   92.17449951    4.90999985    2.80999994
   17.15083313  102.94100189    4.90999985    2.80999994
   17.15416718   91.35019684    4.90999985    2.80999994
   17.15749931   95.71620178    4.90999985    2.80999994
   17.16055489   90.26879883    4.90999985    2.78999996
   17.16388893   87.81549835    4.90999985    2.80999994
   17.16694450  106.03900146    4.90999985    2.80999994
   17.17027664   91.65299988    4.90999985    2.82999992
   17.17361069   96.41310120    4.90999985    2.80999994
   17.17666626   97.42949677    4.90999985    2.80999994
   17.17749977   91.89859772    4.90999985    2.80999994
   17.18305397   91.89859772    4.90999985    2.80999994
   17.18722153   97.71820068    4.90999985    2.80999994
   17.19055557   92.34110260    4.90999985    2.80999994
   17.19388771   91.64050293    4.90999985    2.80999994
   17.19694328   87.96089935    4.90999985    2.80999994
   17.20027924   94.45500183    4.90999985    2.80999994
   17.20333481   90.40260315    4.90999985    2.80999994
   17.20666695   90.13710022    4.90999985    2.80999994
   17.21000099   89.42019653    4.90999985    2.78999996
   17.21083450   86.16950226    4.90999985    2.78999996
   17.21333504   86.73159790    4.90999985    2.80999994
   17.21666718   85.81459808    4.90999985    2.80999994
   17.22000122   86.74739838    4.90999985    2.80999994
   17.22611237   86.74739838    4.90999985    2.80999994
   17.23027802   90.93060303    4.90999985    2.80999994
   17.23333359   86.65789795    4.90999985    2.80999994
   17.23666763   80.20439911    4.90999985    2.78999996
   17.23972321   86.27239990    4.90999985    2.80999994
   17.24305534   86.16400146    4.90999985    2.80999994
   17.24416733   85.21610260    4.90999985    2.80999994
   17.24694443   86.11340332    4.90999985    2.80999994
   17.25000000   86.39530182    4.90999985    2.80999994
   17.25333405   83.69219971    4.90999985    2.80999994
   17.25638962   84.76799774    4.90999985    2.78999996
   17.25972176   91.30159760    4.90999985    2.80999994
   17.26305580   77.69259644    4.90999985    2.80999994
   17.26888847   77.69259644    4.90999985    2.80999994
   17.27305603   84.70829773    4.90999985    2.80999994
   17.27611160   84.46360016    4.90999985    2.80999994
   17.27750015   89.89330292    4.90999985    2.80999994
   17.28000069   83.56960297    4.90999985    2.78999996
   17.28305435   82.03099823    4.90999985    2.80999994
   17.28638840   82.89179993    4.90999985    2.80999994
   17.28944397   85.27559662    4.90999985    2.80999994
   17.29277802   87.77050018    4.90999985    2.80999994
   17.29611015   82.48719788    4.90999985    2.80999994
   17.29916573   82.71170044    4.90999985    2.80999994
   17.30249977   80.80079651    4.90999985    2.80999994
   17.30583191   83.34870148    4.90999985    2.80999994
   17.31166649   83.34870148    4.90999985    2.80999994
   17.31583214   88.67839813    4.90999985    2.80999994
   17.31916809   88.41220093    4.90999985    2.80999994
   17.32222366   95.36419678    4.90999985    2.80999994
   17.32555580   90.77570343    4.90999985    2.80999994
   17.32888985   84.51989746    4.90999985    2.78999996
   17.33194542   91.29530334    4.90999985    2.80999994
   17.33527756   90.24009705    4.90999985    2.80999994
   17.33833313   85.57099915    4.90999985    2.80999994
   17.34166718   90.65460205    4.90999985    2.80999994
   17.34416771   88.60520172    4.90999985    2.80999994
   17.34555626   88.06220245    4.90999985    2.80999994
   17.34861183   93.40579987    4.90999985    2.80999994
   17.35444450   93.40579987    4.90999985    2.80999994
   17.35861206   90.02259827    4.90999985    2.80999994
   17.36194420   91.22519684    4.90999985    2.78999996
   17.36527824   80.35130310    4.90999985    2.80999994
   17.36833382   87.45870209    4.90999985    2.78999996
   17.37166595   87.42369843    4.90999985    2.80999994
   17.37472153   88.41040039    4.90999985    2.80999994
   17.37750053   93.22239685    4.90999985    2.80999994
   17.37861061   87.80919647    4.90999985    2.80999994
   17.38166618   90.92829895    4.90999985    2.80999994
   17.38500023   82.40889740    4.90999985    2.80999994
   17.38805580   91.50129700    4.90999985    2.80999994
   17.39138794   90.09200287    4.90999985    2.80999994
   17.39749908   90.09200287    4.90999985    2.80999994
   17.40166664   88.14900208    4.90999985    2.80999994
   17.40472221   78.74040222    4.90999985    2.78999996
   17.40805435   78.45110321    4.90999985    2.80999994
   17.41083336   85.15560150    4.90999985    2.78999996
   17.41138840   88.26560211    4.90999985    2.80999994
   17.41472244   87.15560150    4.90999985    2.78999996
   17.41805458   92.54499817    4.90999985    2.80999994
   17.42111015   89.98329926    4.90999985    2.80999994
   17.42444420   91.26039886    4.90999985    2.78999996
   17.42777634   91.65049744    4.90999985    2.80999994
   17.43083191   90.01380157    4.90999985    2.80999994
   17.43416595   87.82409668    4.90999985    2.82999992
   17.44027710   87.82409668    4.90999985    2.80999994
   17.44444275   89.01860046    4.90999985    2.80999994
   17.44749832   88.21859741    4.90999985    2.80999994
   17.45083427   85.10540009    4.90999985    2.80999994
   17.45416832   87.01799774    4.90999985    2.80999994
   17.45722389   95.07050323    4.90999985    2.80999994
   17.46055603   97.41490173    4.90999985    2.80999994
   17.46389008   92.80229950    4.90999985    2.80999994
   17.46694565   97.10949707    4.90999985    2.80999994
   17.47027779   93.48320007    4.90999985    2.80999994
   17.47333336   76.94969940    4.90999985    2.80999994
   17.47666740   80.14530182    4.90999985    2.80999994
   17.47750092   89.99130249    4.90999985    2.80999994
   17.48305511   89.99130249    4.90999985    2.78999996
   17.48722267   99.04139709    4.90999985    2.80999994
   17.49055672  112.21499634    4.90999985    2.80999994
   17.49361229  105.53500366    4.90999985    2.80999994
   17.49694443  103.17299652    4.90999985    2.78999996
   17.50027847  156.83099365    4.90999985    2.80999994
   17.50333405  114.11599731    4.90999985    2.80999994
   17.50666618  137.25000000    4.90999985    2.78999996
   17.50972176  149.29400635    4.90999985    2.80999994
   17.51083374  139.61399841    4.90999985    2.78999996
   17.51361084  122.12599945    4.90999985    2.80999994
   17.51666641  133.33799744    4.90999985    2.78999996
   17.52000046  121.38500214    4.90999985    2.80999994
   17.52583313  121.38500214    4.90999985    2.80999994
   17.53000069   79.08550262    4.90999985    2.82999992
   17.53333282  104.60600281    4.90999985    2.78999996
   17.53666687   98.31310272    4.90999985    2.78999996
   17.53972244   99.26529694    4.90999985    2.82999992
   17.54305458  100.60199738    4.90999985    2.80999994
   17.54416656   76.12539673    4.90999985    2.78999996
   17.54666710   75.50289917    4.90999985    2.80999994
   17.54972076   84.13469696    4.90999985    2.80999994
   17.55305481   88.81340027    4.90999985    2.80999994
   17.55638885   86.80829620    4.90999985    2.78999996
   17.55944443   76.73930359    4.90999985    2.80999994
   17.56277657   79.05359650    4.90999985    2.78999996
   17.56888962   79.05359650    4.90999985    2.80999994
   17.57305717   85.70899963    4.90999985    2.78999996
   17.57611275   76.95510101    4.90999985    2.78999996
   17.57750130  100.21600342    4.90999985    2.80999994
   17.58000183   82.74009705    4.90999985    2.80999994
   17.58305550   85.34719849    4.90999985    2.80999994
   17.58638954   82.26840210    4.90999985    2.80999994
   17.58972359   81.83779907    4.90999985    2.80999994
   17.59305573   81.31620026    4.90999985    2.78999996
   17.59611130   89.14559937    4.90999985    2.78999996
   17.59944534   93.63249969    4.90999985    2.78999996
   17.60250092   89.91619873    4.90999985    2.80999994
   17.60583305   88.36000061    4.90999985    2.80999994
   17.61166763   88.36000061    4.90999985    1.58000004
   17.61583328   88.77760315    4.90999985    2.78999996
   17.61888885   81.75360107    4.90999985    2.78999996
   17.62222290   84.13569641    4.90999985    2.82999992
   17.62555504   93.18260193    4.90999985    2.78999996
   17.62861061   81.58789825    4.90999985    2.78999996
   17.63194466   88.85829926    4.90999985    2.80999994
   17.63527679   90.28410339    4.90999985    2.78999996
   17.63833237   96.55460358    4.90999985    2.80999994
   17.64166641   94.39050293    4.90999985    2.78999996
   17.64416695   88.04799652    4.90999985    2.80999994
   17.66472244   88.04799652    4.90999985    2.78999996
   17.66888809   94.35839844    4.90999985    2.80999994
   17.67222214   88.30930328    4.90999985    2.78999996
   17.67527771   89.96620178    4.90999985    2.78999996
   17.67749977   91.72429657    4.90999985    2.78999996
   17.67916679   85.16729736    4.90999985    2.78999996
   17.68222237   82.49559784    4.90999985    2.78999996
   17.68555450   90.06420135    4.90999985    2.78999996
   17.68888855   91.39379883    4.90999985    2.78999996
   17.69194412   89.01450348    4.90999985    2.78999996
   17.69527626   91.00350189    4.90999985    2.78999996
   17.69833183   92.84329987    4.90999985    2.78999996
   17.70166779   96.49050140    4.90999985    2.78999996
   17.70750046   96.49050140    4.90999985    2.80999994
   17.71166801   86.31050110    4.90999985    2.80999994
   17.71500015   84.25399780    4.90999985    2.80999994
   17.71805573   81.43340302    4.90999985    2.80999994
   17.72138977   84.65760040    4.90999985    2.80999994
   17.72472191   84.37139893    4.90999985    2.80999994
   17.72777748   87.39119720    4.90999985    2.80999994
   17.73111153   84.46649933    4.90999985    2.80999994
   17.73444557   83.55139923    4.90999985    2.80999994
   17.73750114   82.15309906    4.90999985    2.80999994
   17.74083328   85.99030304    4.90999985    2.80999994
   17.74416733   81.44719696    4.90999985    2.80999994
   17.74444389   82.02439880    4.90999985    2.80999994
   17.75027847   82.02439880    4.90999985    2.80999994
   17.75444412   79.19380188    4.90999985    2.82999992
   17.75777817   84.51830292    4.90999985    2.80999994
   17.76111031   82.23290253    4.90999985    2.78999996
   17.76416588   82.74980164    4.90999985    2.80999994
   17.76749992   81.97129822    4.90999985    2.80999994
   17.77055550   81.16349792    4.90999985    2.80999994
   17.77388954   87.84889984    4.90999985    2.80999994
   17.77722168   80.08760071    4.90999985    2.80999994
   17.77777672   83.82890320    4.90999985    2.80999994
   17.78083229   85.17829895    4.90999985    2.80999994
   17.78416634   88.69660187    4.90999985    2.80999994
   17.78722191   86.18460083    4.90999985    2.80999994
   17.79333305   86.18460083    4.90999985    2.80999994
   17.79749870   91.54399872    4.90999985    2.80999994
   17.80055428   85.17880249    4.90999985    2.80999994
   17.80388832   89.64179993    4.90999985    2.80999994
   17.80694389   80.06060028    4.90999985    2.80999994
   17.81027794   92.96849823    4.90999985    2.80999994
   17.81110954   91.92990112    4.90999985    2.80999994
   17.81388855   90.68679810    4.90999985    2.80999994
   17.81722260   89.76180267    4.90999985    2.80999994
   17.82027817  104.75800323    4.90999985    2.80999994
   17.82361221  106.78299713    4.90999985    2.80999994
   17.82694626  101.24500275    4.90999985    2.82999992
   17.83000183  111.52400208    4.90999985    2.80999994
   17.83611107  111.52400208    4.90999985    2.78999996
   17.84027863  120.64099884    4.90999985    2.80999994
   17.84333420  156.66600037    4.90999985    2.80999994
   17.84472275  151.83099365    4.90999985    2.80999994
   17.84694481  165.72900391    4.90999985    2.80999994
   17.85027885  216.06799316    4.90999985    2.80999994
   17.85333443   95.25440216    4.90999985    2.80999994
   17.85666656   90.69429779    4.90999985    2.80999994
   17.86000061  113.02899933    4.90999985    2.80999994
   17.86305618   -1.00000000    4.90999985    2.80999994
   17.86638832   -1.00000000    4.90999985    2.80999994
   17.86944389   -1.00000000    4.90999985    2.80999994
   17.87277794   -1.00000000    4.90999985    2.80999994
   17.88305473   -1.00000000    4.90999985    2.80999994
   17.88611031   -1.00000000    4.90999985    2.80999994
   17.88944435   -1.00000000    4.90999985    2.80999994
   17.89277840   91.54820251    4.90999985    2.80999994
   17.89583397   92.61750031    4.90999985    2.80999994
   17.89916611   95.58249664    4.90999985    2.80999994
   17.90250015   90.58329773    4.90999985    2.80999994
   17.90555573   -1.00000000    4.90999985    2.80999994
   17.90888786   -1.00000000    4.90999985    2.80999994
   17.91250038   -1.00000000    4.90999985    2.78999996
   17.91583252   -1.00000000    4.90999985    2.80999994
   17.92583275   -1.00000000    4.90999985    2.80999994
   17.92888832   -1.00000000    4.90999985    2.78999996
   17.93222237   -1.00000000    4.90999985    2.78999996
   17.93555450   -1.00000000    4.90999985    2.78999996
   17.93861008   99.75460052    4.90999985    2.78999996
   17.94194412   83.81670380    4.90999985    2.78999996
   17.94472122   86.95459747    4.90999985    2.78999996
   17.94555473   87.47299957    4.90999985    2.80999994
   17.94888878   -1.00000000    4.90999985    2.80999994
   17.95194435   -1.00000000    4.90999985    2.80999994
   17.95527840   -1.00000000    4.90999985    2.80999994
   17.95861244   -1.00000000    4.90999985    2.80999994
   17.96861076   -1.00000000    4.90999985    2.78999996
   17.97194481   -1.00000000    4.90999985    2.78999996
   17.97500038   -1.00000000    4.90999985    2.80999994
   17.97861099   -1.00000000    4.90999985    2.80999994
   17.98166656   90.89969635    4.90999985    2.80999994
   17.98500061   -1.00000000   -1.00000000   -1.00000000
   17.98833275   92.41799927    4.90999985    2.78999996
   17.99138832   86.35780334    4.90999985    2.78999996
   17.99472237   -1.00000000    4.90999985    2.78999996
   17.99805641   -1.00000000    4.90999985    2.76999998
   18.00111198   -1.00000000    4.90999985    2.80999994
   18.01138878   -1.00000000    4.90999985    2.80999994
   18.01472282   -1.00000000    4.90999985    2.80999994
   18.01805496   -1.00000000    4.90999985    2.78999996
   18.02111053   -1.00000000    4.90999985    2.80999994
   18.02444458   -1.00000000    4.90999985    2.80999994
   18.02750015   -1.00000000    4.90999985    2.78999996
   18.03083229   90.45639801    4.90999985    2.78999996
   18.03416634   86.04329681    4.90999985    2.80999994
   18.03722191   -1.00000000    4.90999985    2.78999996
   18.04055595   -1.00000000    4.90999985    2.78999996
   18.04388809   -1.00000000    4.90999985    2.78999996
   18.05444336   -1.00000000    4.90999985    2.78999996
   18.05749893   -1.00000000    4.90999985    2.78999996
   18.06083298   -1.00000000    4.90999985    2.78999996
   18.06388855   -1.00000000    4.90999985    2.80999994
   18.06722260   -1.00000000    4.90999985    2.78999996
   18.07055664   -1.00000000    4.90999985    2.80999994
   18.07361221   -1.00000000    4.90999985    2.78999996
   18.07694626   91.04889679    4.90999985    2.78999996
   18.07805634   96.77749634    4.90999985    2.78999996
   18.08055687   97.16840363    4.90999985    2.78999996
   18.08388901   91.73040009    4.90999985    2.78999996
   18.08694458   90.99340057    4.90999985    2.78999996
   18.09305573   90.99340057    4.90999985    2.78999996
   18.09722328   98.10070038    4.90999985    2.78999996
   18.10055542   96.87640381    4.90999985    2.78999996
   18.10388947  102.79299927    4.90999985    2.80999994
   18.10694504   93.02200317    4.90999985    2.80999994
   18.11027908   90.08599854    4.90999985    2.78999996
   18.11138916   95.60540009    4.90999985    2.78999996
   18.11388969   93.59100342    4.90999985    2.78999996
   18.11722183   98.07409668    4.90999985    2.80999994
   18.12027740   91.83830261    4.90999985    2.78999996
   18.12361145   90.89689636    4.90999985    2.78999996
   18.12694550   94.63939667    4.90999985    2.78999996
   18.13000107   93.44490051    4.90999985    2.78999996
   18.13611031   93.44490051    4.90999985    2.78999996
   18.13999939   91.42389679    4.90999985    2.78999996
   18.14333344   86.32450104    4.90999985    2.80999994
   18.14472198   86.71849823    4.90999985    2.78999996
   18.14694405   86.46880341    4.90999985    2.80999994
   18.15027809   85.87709808    4.90999985    2.78999996
   18.15333366   91.55740356    4.90999985    2.78999996
   18.15666580   90.26399994    4.90999985    2.78999996
   18.15999985   87.50309753    4.90999985    2.78999996
   18.16305542   85.13279724    4.90999985    2.80999994
   18.16638756   86.53399658    4.90999985    2.80999994
   18.16972160   83.72029877    4.90999985    2.78999996
   18.17277718   92.38320160    4.90999985    2.80999994
   18.17888832   92.38320160    4.90999985    2.78999996
   18.18305397   93.73970032    4.90999985    2.78999996
   18.18610954   89.07700348    4.90999985    2.78999996
   18.18944359   90.53060150    4.90999985    2.80999994
   18.19277763   88.35729980    4.90999985    2.78999996
   18.19583321   95.57810211    4.90999985    2.80999994
   18.19916534  100.13700104    4.90999985    2.78999996
   18.20222282   95.00469971    4.90999985    2.78999996
   18.20555687   93.92109680    4.90999985    2.78999996
   18.20888901   88.98249817    4.90999985    2.78999996
   18.21138954   87.86180115    4.90999985    2.80999994
   18.21250153   88.52339935    4.90999985    2.78999996
   18.21583366   94.72260284    4.90999985    2.78999996
   18.22166634   94.72260284    4.90999985    2.78999996
   18.22583389  111.81199646    4.90999985    2.80999994
   18.22888947  102.61799622    4.90999985    2.78999996
   18.23222351  106.28099823    4.90999985    2.78999996
   18.23555565   91.73650360    4.90999985    2.78999996
   18.23861122   89.65229797    4.90999985    2.78999996
   18.24194527   91.62570190    4.90999985    2.76999998
   18.24472237  104.56900024    4.90999985    2.78999996
   18.24555588   99.31919861    4.90999985    2.78999996
   18.24888992   98.34449768    4.90999985    2.78999996
   18.25194359   91.04900360    4.90999985    2.78999996
   18.25527763   99.59809875    4.90999985    2.78999996
   18.25861168   99.09190369    4.90999985    2.78999996
   18.26444435   99.09190369    4.90999985    2.78999996
   18.26861000  108.55699921    4.90999985    2.78999996
   18.27194405  113.76100159    4.90999985    2.78999996
   18.27499962  115.11100006    4.90999985    2.78999996
   18.27805519  119.17600250    4.90999985    2.78999996
   18.27861023   96.59100342    4.90999985    2.78999996
   18.28194427  100.00199890    4.90999985    2.78999996
   18.28499985  128.17100525    4.90999985    2.78999996
   18.28833199  126.37400055    4.90999985    2.78999996
   18.29166603  118.34600067    4.90999985    2.80999994
   18.29472160  134.83599854    4.90999985    2.78999996
   18.29805565  138.61799622    4.90999985    2.78999996
   18.30138779  180.26100159    4.90999985    2.78999996
   18.30749893  180.26100159    4.90999985    2.78999996
   18.31138802  220.82600403    4.90999985    2.78999996
   18.31472206  294.12100220    4.90999985    2.78999996
   18.31805611  293.30599976    4.90999985    2.78999996
   18.32111168  275.65301514    4.90999985    2.78999996
   18.32444572  120.87500000    4.90999985    2.78999996
   18.32750130   65.75099945    4.90999985    2.78999996
   18.33083344   -1.00000000    4.90999985    2.78999996
   18.33416748   -1.00000000    4.90999985    2.78999996
   18.33722305   -1.00000000    4.90999985    2.78999996
   18.34055710   -1.00000000    4.90999985    2.78999996
   18.34388924   -1.00000000    4.90999985    2.78999996
   18.35027885   -1.00000000    4.90999985    2.78999996
   18.35444450   -1.00000000    4.90999985    2.78999996
   18.35750008   -1.00000000    4.90999985    2.78999996
   18.36083412   -1.00000000    4.90999985    2.76999998
   18.36388969   -1.00000000    4.90999985    2.78999996
   18.36722183   -1.00000000    4.90999985    2.78999996
   18.37055588   -1.00000000    4.90999985    2.78999996
   18.37361145   -1.00000000    4.90999985    2.78999996
   18.37694550   -1.00000000    4.90999985    2.78999996
   18.38055611   -1.00000000    4.90999985    2.76999998
   18.38388824   -1.00000000    4.90999985    2.78999996
   18.38694382   -1.00000000    4.90999985    2.78999996
   18.39722252   -1.00000000    4.90999985    2.78999996
   18.40027809   -1.00000000    4.90999985    2.78999996
   18.40361023   -1.00000000    4.90999985    2.78999996
   18.40666580   -1.00000000    4.90999985    2.78999996
   18.40999985   -1.00000000    4.90999985    2.78999996
   18.41361046   -1.00000000    4.90999985    2.78999996
   18.41694450   -1.00000000    4.90999985    2.78999996
   18.42000008   -1.00000000    4.90999985    2.78999996
   18.42333221   92.64929962    4.90999985    2.78999996
   18.42666626  102.36499786    4.90999985    2.78999996
   18.42972183   98.33940125    4.90999985    2.78999996
   18.43583298   98.33940125    4.90999985    2.78999996
   18.43999863   90.10929871    4.90999985    2.78999996
   18.44333267   93.04920197    4.90999985    2.78999996
   18.44472122   96.99359894    4.90999985    2.78999996
   18.44666672   97.00669861    4.90999985    2.78999996
   18.45000076   94.77010345    4.90999985    2.78999996
   18.45333481   95.59829712    4.90999985    2.78999996
   18.45639038   93.91670227    4.90999985    2.78999996
   18.45972252   95.51730347    4.90999985    2.78999996
   18.46277809   96.33480072    4.90999985    2.78999996
   18.46611214   89.28450012    4.90999985    2.78999996
   18.46944427   87.26799774    4.90999985    2.78999996
   18.47249985   86.03170013    4.90999985    2.78999996
   18.47888947   86.03170013    4.90999985    2.78999996
   18.48277855   88.84750366    4.90999985    2.80999994
   18.48611069   84.24639893    4.90999985    2.78999996
   18.48944473   87.50399780    4.90999985    2.78999996
   18.49250031   85.79340363    4.90999985    2.78999996
   18.49583435   99.44460297    4.90999985    2.78999996
   18.49888992   98.00700378    4.90999985    2.78999996
   18.50222206  103.46499634    4.90999985    2.78999996
   18.50555611   93.93099976    4.90999985    2.78999996
   18.50861168   93.53869629    4.90999985    2.78999996
   18.51138878  101.94400024    4.90999985    2.78999996
   18.51222229   92.87750244    4.90999985    2.78999996
   18.51555634   95.76180267    4.90999985    2.78999996
   18.52166557   95.76180267    4.90999985    2.78999996
   18.52583313   80.73000336    4.90999985    2.78999996
   18.52888870   88.73809814    4.90999985    2.78999996
   18.53222275   94.56800079    4.90999985    2.78999996
   18.53555489   90.03459930    4.90999985    2.78999996
   18.53861046  100.18000031    4.90999985    2.78999996
   18.54194450   89.22940063    4.90999985    2.78999996
   18.54472160   89.81900024    4.90999985    2.78999996
   18.54555511   86.54270172    4.90999985    2.78999996
   18.54888916   92.59549713    4.90999985    2.78999996
   18.55222130   91.24269867    4.90999985    2.78999996
   18.55527687   87.72669983    4.90999985    2.80999994
   18.55861092   94.61840057    4.90999985    2.78999996
   18.56444359   94.61840057    4.90999985    2.78999996
   18.56861115  104.87400055    4.90999985    2.78999996
   18.57166672   99.35079956    4.90999985    2.78999996
   18.57500076   97.87220001    4.90999985    2.78999996
   18.57805634  100.58599854    4.90999985    2.78999996
   18.57861137  106.93900299    4.90999985    2.78999996
   18.58194542  118.85900116    4.90999985    2.78999996
   18.58527756  116.00399780    4.90999985    2.78999996
   18.58833313  145.88000488    4.90999985    2.78999996
   18.59166718  142.97900391    4.90999985    2.78999996
   18.59472275  165.90499878    4.90999985    2.78999996
   18.59805679  166.97099304    4.90999985    2.78999996
   18.60138893  204.61300659    4.90999985    2.78999996
   18.60722351  204.61300659    4.90999985    2.78999996
   18.61138916  233.48300171    4.90999985    2.78999996
   18.61472321  135.33700562    4.90999985    2.78999996
   18.61777878   38.48949814    4.90999985    2.76999998
   18.62111092   -1.00000000    4.90999985    2.78999996
   18.62444496   -1.00000000    4.90999985    2.76999998
   18.62750053   -1.00000000    4.90999985    2.76999998
   18.63083267   -1.00000000    4.90999985    2.76999998
   18.63388824   -1.00000000    4.90999985    2.76999998
   18.63722229   -1.00000000    4.90999985    2.76999998
   18.64055634   -1.00000000    4.90999985    2.76999998
   18.64361191   -1.00000000    4.90999985    2.78999996
   18.65027809   -1.00000000    4.90999985    2.78999996
   18.65416718   -1.00000000    4.90999985    2.76999998
   18.65749931   -1.00000000    4.90999985    2.78999996
   18.66083336   -1.00000000    4.90999985    2.78999996
   18.68055534   -1.00000000    4.90999985    2.76999998
   18.68388748   -1.00000000    4.90999985    2.76999998
   18.68694305   -1.00000000    4.90999985    2.78999996
   18.69722176   -1.00000000    4.90999985    2.78999996
   18.70055580   -1.00000000    4.90999985    2.78999996
   18.70361137   -1.00000000    4.90999985    2.78999996
   18.70694542   -1.00000000    4.90999985    2.78999996
   18.71000099   -1.00000000    4.90999985    2.78999996
   18.71361160   -1.00000000    4.90999985    2.76999998
   18.71694565   -1.00000000    4.90999985    2.78999996
   18.72000122   -1.00000000    4.90999985    2.76999998
   18.72333336   -1.00000000    4.90999985    2.78999996
   18.72638893   -1.00000000    4.90999985    2.78999996
   18.72972298   -1.00000000    4.90999985    2.76999998
   18.73999977   -1.00000000    4.90999985    2.76999998
   18.74333382   -1.00000000    4.90999985    2.76999998
   18.74694443   -1.00000000    4.90999985    2.76999998
   18.75027847   -1.00000000    4.90999985    2.78999996
   18.75333405   -1.00000000    4.90999985    2.76999998
   18.75666618   -1.00000000    4.90999985    2.76999998
   18.75972176   -1.00000000    4.90999985    2.76999998
   18.76305580   -1.00000000    4.90999985    2.76999998
   18.76638794   -1.00000000    4.90999985    2.78999996
   18.76944351   -1.00000000    4.90999985    2.78999996
   18.77277756   -1.00000000    4.90999985    2.76999998
   18.78277779   -1.00000000    4.90999985    2.76999998
   18.78610992   -1.00000000    4.90999985    2.78999996
   18.78944397   -1.00000000    4.90999985    2.78999996
   18.79249954   -1.00000000    4.90999985    2.76999998
   18.79583359   -1.00000000    4.90999985    2.76999998
   18.79916573   -1.00000000    4.90999985    2.76999998
   18.80222130   -1.00000000    4.90999985    2.76999998
   18.80555534   -1.00000000    4.90999985    2.78999996
   18.80861092   -1.00000000    4.90999985    2.76999998
   18.81222153   -1.00000000    4.90999985    2.76999998
   18.81527710   -1.00000000    4.90999985    2.76999998
   18.82583427   -1.00000000    4.90999985    2.76999998
   18.82888985   -1.00000000    4.90999985    2.76999998
   18.83222389   -1.00000000    4.90999985    2.76999998
   18.83555603   -1.00000000    4.90999985    2.76999998
   18.83861160   -1.00000000    4.90999985    2.76999998
   18.84194565   -1.00000000    4.90999985    2.76999998
   18.84555626   -1.00000000    4.90999985    2.76999998
   18.84861183   -1.00000000    4.90999985    2.76999998
   18.85194397   -1.00000000    4.90999985    2.76999998
   18.85527802   -1.00000000    4.90999985    2.76999998
   18.85833359   -1.00000000    4.90999985    2.76999998
   18.86861038   -1.00000000    4.90999985    2.76999998
   18.87194443   -1.00000000    4.90999985    2.75000000
   18.87500000   -1.00000000    4.90999985    2.76999998
   18.87861061   -1.00000000    4.90999985    2.75000000
   18.88194466   -1.00000000    4.90999985    2.76999998
   18.88500023   -1.00000000    4.90999985    2.76999998
   18.88833237   -1.00000000    4.90999985    2.76999998
   18.89138794   -1.00000000    4.90999985    2.76999998
   18.89472198   -1.00000000    4.90999985    2.76999998
   18.89805603   -1.00000000    4.90999985    2.75000000
   18.90111160   -1.00000000    4.90999985    2.76999998
   18.91138840   -1.00000000    4.90999985    2.75000000
   18.91499901   -1.00000000    4.90999985    2.76999998
   18.91833305   -1.00000000    4.90999985    2.75000000
   18.92166519   -1.00000000    4.90999985    2.75000000
   18.92472076   -1.00000000    4.90999985    2.76999998
   18.92805481   96.37840271    4.90999985    2.76999998
   18.93138885  101.25399780    4.90999985    2.75000000
   18.93444443   98.45149994    4.90999985    2.76999998
   18.93777657   96.22699738    4.90999985    2.75000000
   18.94111061  103.63600159    4.90999985    2.76999998
   18.94444275   93.99690247    4.90999985    2.76999998
   18.94527626  101.33499908    4.90999985    2.76999998
   18.95027924  101.33499908    4.90999985    2.76999998
   18.95444489   91.20169830    4.90999985    2.76999998
   18.95750046   98.73030090    4.90999985    2.75000000
   18.96083450  107.51300049    4.90999985    2.76999998
   18.96416664   99.67859650    4.90999985    2.76999998
   18.96722221  102.00700378    4.90999985    2.76999998
   18.97055626   93.92590332    4.90999985    2.76999998
   18.97361183  106.13899994    4.90999985    2.75000000
   18.97694588   97.48780060    4.90999985    2.75000000
   18.97861099   93.69650269    4.90999985    2.75000000
   18.98055649  100.67900085    4.90999985    2.76999998
   18.98361206   94.54560089    4.90999985    2.76999998
   18.98694420   90.22049713    4.90999985    2.75000000
   18.99305534   90.22049713    4.90999985    2.75000000
   18.99722290   93.94400024    4.90999985    2.75000000
   19.00055504   98.90019989    4.90999985    2.75000000
   19.00361061  103.99800110    4.90999985    2.75000000
   19.00694466   90.88169861    4.90999985    2.76999998
   19.01000023   93.92440033    0.67000002    2.89000010
   19.01194382   99.47329712    0.17000000    0.70999998
   19.01388931   86.94719696    0.09000000    0.51999998
   19.01694489   99.45870209    0.05000000    0.28000000
   19.02027702   83.84549713    0.03000000    0.01000000
   19.02361107   91.51470184    0.03000000    0.01000000
   19.02666664   92.01010132    0.03000000    0.01000000
   19.03000069   89.03780365    0.03000000    0.01000000
   19.03583336   89.03780365    0.03000000    0.01000000
   19.03999901   90.25060272    0.03000000    0.01000000
   19.04333305   89.07209778    0.03000000    0.01000000
   19.04527664   89.42620087    0.03000000    0.01000000
   19.04694366   94.05180359    0.03000000    0.01000000
   19.04999924   98.68669891    0.03000000    0.01000000
   19.05333328   85.68099976    0.03000000    0.01000000
   19.05666542   85.83689880    0.03000000    0.01000000
   19.05972099   86.84449768    0.03000000    0.01000000
   19.06305504   96.04900360    0.03000000    0.01000000
   19.06638718   91.92690277    0.03000000    0.01000000
   19.06944466  101.53600311    0.03000000    0.01000000
   19.07277870  101.50900269    0.03000000    0.01000000
   19.07888985  101.50900269    0.03000000    0.01000000
   19.08277893   87.09559631    0.03000000    0.01000000
   19.08611107   87.16120148    0.03000000    0.01000000
   19.08944511   99.31590271    0.03000000    0.01000000
   19.09250069   85.85720062    0.03000000    0.01000000
   19.09583473   85.66709900    0.03000000    0.01000000
   19.09916687   87.69860077    0.03000000    0.01000000
   19.10222244   82.26499939    0.03000000    0.01000000
   19.10555649   85.63159943    0.03000000    0.01000000
   19.10861206   87.01969910    0.03000000    0.01000000
   19.11194420   82.89659882    0.03000000    0.01000000
   19.11250114   82.14969635    0.03000000    0.01000000
   19.11555672   81.76679993    0.03000000    0.01000000
   19.12166595   81.76679993    0.03000000    0.01000000
   19.12583351   89.54519653    0.03000000    0.01000000
   19.12888908   86.84929657    0.03000000    0.01000000
   19.13222313   86.30809784    0.03000000    0.01000000
   19.13555527   89.88819885    0.03000000    0.01000000
   19.13861084   91.98840332    0.03000000    0.01000000
   19.14194489   91.99970245    0.03000000    0.01000000
   19.14500046   92.46790314    0.03000000    0.01000000
   19.14555550   95.44059753    0.03000000    0.01000000
   19.14888954   96.55680084    0.03000000    0.01000000
   19.15222168   98.29789734    0.03000000    0.01000000
   19.15527725   91.39409637    0.03000000    0.01000000
   19.15861130   89.57540131    0.03000000    0.01000000
   19.16444397   89.57540131    0.03000000    0.01000000
   19.16860962   90.74909973    0.03000000    0.01000000
   19.17194366   94.91230011    0.03000000    0.01000000
   19.17499924   90.14520264    0.03000000    0.01000000
   19.17833328   87.77100372    0.03000000    0.01000000
   19.17888832   84.33319855    0.03000000    0.01000000
   19.18194389   89.87799835    0.03000000    0.01000000
   19.18527603   86.41120148    0.03000000    0.01000000
   19.18833160   87.14689636    0.03000000    0.01000000
   19.19166565   84.90989685    0.03000000    0.01000000
   19.19499969   89.00029755    0.03000000    0.01000000
   19.19805527   88.06410217    0.03000000    0.01000000
   19.20138931   92.74909973    0.03000000    0.01000000
   19.20722389   92.74909973    0.03000000    0.01000000
   19.21138954   91.73770142    0.03000000    0.01000000
   19.21222305   90.66709900    0.03000000    0.01000000
   19.21500015   90.77030182    0.03000000    0.01000000
   19.21833420   93.40190125    0.03000000    0.01000000
   19.22138977   88.44709778    0.03000000    0.01000000
   19.22472191   92.65609741    0.03000000    0.01000000
   19.22805595   91.16400146    0.03000000    0.01000000
   19.23111153   95.38130188    0.03000000    0.01000000
   19.23444557   95.73370361    0.03000000    0.01000000
   19.23750114   88.58550262    0.03000000    0.01000000
   19.24083328   88.30169678    0.03000000    0.01000000
   19.24416733   84.89910126    0.03000000    0.01000000
   19.24555588  100.01899719    0.03000000    0.01000000
   19.25027847  100.01899719    0.03000000    0.01000000
   19.25416756   85.42140198    0.03000000    0.01000000
   19.25749969   93.22969818    0.03000000    0.01000000
   19.26083374   96.93579865    0.03000000    0.01000000
   19.26388931   89.88269806    0.03000000    0.01000000
   19.26722145   84.22329712    0.03000000    0.01000000
   19.27055550   88.10659790    0.03000000    0.01000000
   19.27361107   90.90640259    0.03000000    0.01000000
   19.27694511   94.95939636    0.03000000    0.01000000
   19.27888870   87.97579956    0.03000000    0.01000000
   19.28055573   87.61239624    0.03000000    0.01000000
   19.28388786   84.71230316    0.03000000    0.01000000
   19.28694344   91.39749908    0.03000000    0.01000000
   19.29305458   91.39749908    0.03000000    0.01000000
   19.29722214   87.38009644    0.03000000    0.01000000
   19.30027771   87.60189819    0.03000000    0.01000000
   19.30360985   88.08300018    0.03000000    0.01000000
   19.30694389   89.39669800    0.03000000    0.01000000
   19.30999947   85.81369781    0.03000000    0.01000000
   19.31222153   88.96720123    0.03000000    0.01000000
   19.31361008   88.84480286    0.03000000    0.01000000
   19.31694603   84.93910217    0.03000000    0.01000000
   19.32000160   90.10009766    0.03000000    0.01000000
   19.32333374   88.07720184    0.03000000    0.01000000
   19.32666779   83.79360199    0.03000000    0.01000000
   19.32972336   87.04440308    0.03000000    0.01000000
   19.33583450   87.04440308    0.03000000    0.01000000
   19.34000015   96.93160248    0.03000000    0.01000000
   19.34333420   87.94680023    0.03000000    0.01000000
   19.34555626   93.68699646    0.03000000    0.01000000
   19.34694481   92.04470062    0.03000000    0.01000000
   19.35027885   90.12110138    0.03000000    0.01000000
   19.35333443   87.96990204    0.03000000    0.01000000
   19.35666656   90.09490204    0.03000000    0.01000000
   19.36000061   93.96510315    0.03000000    0.01000000
   19.36305618   91.19779968    0.03000000    0.01000000
   19.36638832   91.58809662    0.03000000    0.01000000
   19.36944389   88.96350098    0.03000000    0.01000000
   19.37277794   88.87879944    0.03000000    0.01000000
   19.37861061   88.87879944    0.03000000    0.01000000
   19.38277817   87.96440125    0.03000000    0.01000000
   19.38611031   90.70040131    0.03000000    0.01000000
   19.38916588   88.87899780    0.03000000    0.01000000
   19.39249992   89.37409973    0.03000000    0.01000000
   19.39583397   87.36579895    0.03000000    0.01000000
   19.39888954   90.46309662    0.03000000    0.01000000
   19.40222168   82.73870087    0.03000000    0.01000000
   19.40555573   90.04199982    0.03000000    0.01000000
   19.40861130   96.55220032    0.03000000    0.01000000
   19.41194344   93.06279755    0.03000000    0.01000000
   19.41361046  101.26399994    0.03000000    0.01000000
   19.41555595   89.81929779    0.03000000    0.01000000
   19.42166519   89.81929779    0.03000000    0.01000000
   19.42555428   91.61560059    0.03000000    0.01000000
   19.42888832   93.35700226    0.03000000    0.01000000
   19.43222237   92.29620361    0.03000000    0.01000000
   19.43527603   87.35350037    0.03000000    0.01000000
   19.43861008   91.84480286    0.03000000    0.01000000
   19.44166565   86.64040375    0.03000000    0.01000000
   19.44499969   84.69290161    0.03000000    0.01000000
   19.44694328   85.77249908    0.03000000    0.01000000
   19.44861031   88.35959625    0.03000000    0.01000000
   19.45194435   86.63960266    0.03000000    0.01000000
   19.45499992   81.40809631    0.03000000    0.01000000
   19.45833397   82.71579742    0.03000000    0.01000000
   19.46444511   82.71579742    0.03000000    0.01000000
   19.46861076   92.14350128    0.03000000    0.01000000
   19.47166634   87.80999756    0.03000000    0.01000000
   19.47500038   86.54820251    0.03000000    0.01000000
   19.47805595   87.78040314    0.03000000    0.01000000
   19.48055649   88.58419800    0.03000000    0.01000000
   19.48194504   88.74990082    0.03000000    0.01000000
   19.48500061   89.71320343    0.03000000    0.01000000
   19.48833275   88.94270325    0.03000000    0.01000000
   19.49166679   91.88610077    0.03000000    0.01000000
   19.49472237   89.32749939    0.03000000    0.01000000
   19.49805641   92.77369690    0.03000000    0.01000000
   19.50138855   94.52089691    0.03000000    0.01000000
   19.50722313   94.52089691    0.03000000    0.01000000
   19.51138878   94.67859650    0.03000000    0.01000000
   19.51388931   89.36940002    0.03000000    0.01000000
   19.51499939   88.37920380    0.03000000    0.01000000
   19.51805496   86.14550018    0.03000000    0.01000000
   19.52138901   85.02709961    0.03000000    0.01000000
   19.52472115   88.61679840    0.03000000    0.01000000
   19.52777672   87.35220337    0.03000000    0.01000000
   19.53111076   90.15869904    0.03000000    0.01000000
   19.53444481   84.63379669    0.03000000    0.01000000
   19.53750038   85.65480042    0.03000000    0.01000000
   19.54083252   87.81050110    0.03000000    0.01000000
   19.54388809   88.00959778    0.03000000    0.01000000
   19.54999924   88.00959778    0.03000000    0.01000000
   19.55416679   84.08209991    0.03000000    0.01000000
   19.55749893   82.13089752    0.03000000    0.01000000
   19.56055450   88.78289795    0.03000000    0.01000000
   19.56388855   84.26889801    0.03000000    0.01000000
   19.56722260   76.62300110    0.03000000    0.01000000
   19.57027817   81.98809814    0.03000000    0.01000000
   19.57361221   89.16200256    0.03000000    0.01000000
   19.57666779   88.81040192    0.03000000    0.01000000
   19.58000183  105.97000122    0.03000000    0.01000000
   19.58083344   90.14559937    0.03000000    0.01000000
   19.58361244   89.00879669    0.03000000    0.01000000
   19.58694458   92.20279694    0.03000000    0.01000000
   19.59277916   92.20279694    0.03000000    0.01000000
   19.59694481   93.24539948    0.03000000    0.01000000
   19.60027885   93.65750122    0.03000000    0.01000000
   19.60361099   92.27050018    0.03000000    0.01000000
   19.60666656   93.27510071    0.03000000    0.01000000
   19.61000061   95.62490082    0.03000000    0.01000000
   19.61305618   95.21440125    0.03000000    0.01000000
   19.61416626   87.76940155    0.03000000    0.01000000
   19.61666679   91.73429871    0.03000000    0.01000000
   19.62000084   89.91000366    0.03000000    0.01000000
   19.62305641   91.00759888    0.03000000    0.01000000
   19.62638855   87.42420197    0.03000000    0.01000000
   19.62972260   91.79599762    0.03000000    0.01000000
   19.63583374   91.79599762    0.03000000    0.01000000
   19.63999939   89.66329956    0.03000000    0.01000000
   19.64305496   91.19480133    0.03000000    0.01000000
   19.64638901   86.03179932    0.03000000    0.01000000
   19.64777756   89.19819641    0.03000000    0.01000000
   19.64999962   91.98390198    0.03000000    0.01000000
   19.65305519   91.81610107    0.03000000    0.01000000
   19.65638924   90.69190216    0.03000000    0.01000000
   19.65972137   91.14019775    0.03000000    0.01000000
   19.66277695   93.16780090    0.03000000    0.01000000
   19.66611099   95.32369995    0.03000000    0.01000000
   19.66944313   85.89399719    0.03000000    0.01000000
   19.67249870   88.16159821    0.03000000    0.01000000
   19.67860985   88.16159821    0.03000000    0.01000000
   19.69694328   89.87650299    0.03000000    0.01000000
   19.70027924   83.65070343    0.03000000    0.01000000
   19.70333481   88.11280060    0.03000000    0.01000000
   19.70666695   84.72920227    0.03000000    0.01000000
   19.71000099   85.69400024    0.03000000    0.01000000
   19.71305656   90.36879730    0.03000000    0.01000000
   19.71638870   88.05919647    0.03000000    0.01000000
   19.72166634   88.05919647    0.03000000    0.01000000
   19.72583389   93.74600220    0.03000000    0.01000000
   19.72916794   90.38849640    0.03000000    0.01000000
   19.73000145   89.84300232    0.03000000    0.01000000
   19.73277855   88.15840149    0.03000000    0.01000000
   19.73583412   93.99410248    0.03000000    0.01000000
   19.73916626   95.77839661    0.03000000    0.01000000
   19.74250031   91.99829865    0.03000000    0.01000000
   19.74555588   94.87729645    0.03000000    0.01000000
   19.74888992   91.57969666    0.03000000    0.01000000
   19.75222206   94.22270203    0.03000000    0.01000000
   19.75527763   98.59470367    0.03000000    0.01000000
   19.75861168   94.42539978    0.03000000    0.01000000
   19.76444435   94.42539978    0.03000000    0.01000000
   19.76861000   96.89779663    0.03000000    0.01000000
   19.77194405   97.03959656    0.03000000    0.01000000
   19.77499962   91.80039978    0.03000000    0.01000000
   19.77833366   89.94560242    0.03000000    0.01000000
   19.78166580   96.66339874    0.03000000    0.01000000
   19.78472137   96.14949799    0.03000000    0.01000000
   19.78805542   85.16850281    0.03000000    0.01000000
   19.79138756   89.95120239    0.03000000    0.01000000
   19.79444313   91.47270203    0.03000000    0.01000000
   19.79666710   89.73999786    0.03000000    0.01000000
   19.79805565   87.81800079    0.03000000    0.01000000
   19.80111122   91.36560059    0.03000000    0.01000000
   19.80749893   91.36560059    0.03000000    0.01000000
   19.81166649   90.01619720    0.03000000    0.01000000
   19.81472206   81.61039734    0.03000000    0.01000000
   19.81805611   89.69570160    0.03000000    0.01000000
   19.82111168   88.43270111    0.03000000    0.01000000
   19.82444572   88.89279938    0.03000000    0.01000000
   19.82777786   98.50279999    0.03000000    0.01000000
   19.83000183  104.32900238    0.03000000    0.01000000
   19.83139038   96.14730072    0.03000000    0.01000000
   19.83444595   95.48670197    0.03000000    0.01000000
   19.83777809   99.57620239    0.03000000    0.01000000
   19.84111214   88.36440277    0.03000000    0.01000000
   19.84416771   89.69580078    0.03000000    0.01000000
   19.85027885   89.69580078    0.03000000    0.01000000
   19.85444450   92.76100159    0.03000000    0.01000000
   19.85750008   92.68810272    0.03000000    0.01000000
   19.86083412   91.31649780    0.03000000    0.01000000
   19.86333466   90.11409760    0.03000000    0.01000000
   19.86444473   91.47319794    0.03000000    0.01000000
   19.86750031   91.66010284    0.03000000    0.01000000
   19.87083435   92.47109985    0.03000000    0.01000000
   19.87416649   93.76100159    0.03000000    0.01000000
   19.87722206   85.75250244    0.03000000    0.01000000
   19.88055611   90.43939972    0.03000000    0.01000000
   19.88388824   86.67019653    0.03000000    0.01000000
   19.88694382   87.33940125    0.03000000    0.01000000
   19.89305496   87.33940125    0.03000000    0.01000000
   19.89722252   86.19609833    0.03000000    0.01000000
   19.90055466   91.15119934    0.03000000    0.01000000
   19.90361023   89.79299927    0.03000000    0.01000000
   19.90694427   89.82160187    0.03000000    0.01000000
   19.90999985   82.17259979    0.03000000    0.01000000
   19.91333389   89.07379913    0.03000000    0.01000000
   19.91666603   89.88739777    0.03000000    0.01000000
   19.91972160   88.82219696    0.03000000    0.01000000
   19.92305565   92.34799957    0.03000000    0.01000000
   19.92638779   94.86930084    0.03000000    0.01000000
   19.92944336   90.78199768    0.03000000    0.01000000
   19.93000031   82.69699860    0.03000000    0.01000000
   19.93583298   82.69699860    0.03000000    0.01000000
   19.93999863   91.01999664    0.03000000    0.01000000
   19.94333267   88.07990265    0.03000000    0.01000000
   19.94638824   86.61519623    0.03000000    0.01000000
   19.94972038   88.38600159    0.03000000    0.01000000
   19.95305634   83.85279846    0.03000000    0.01000000
   19.95611191   93.77940369    0.03000000    0.01000000
   19.95944595   84.40630341    0.03000000    0.01000000
   19.96277809   85.48560333    0.03000000    0.01000000
   19.96333504   94.34120178    0.03000000    0.01000000
   19.96638870   81.66929626    0.03000000    0.01000000
   19.96972275   86.12159729    0.03000000    0.01000000
   19.97277832   88.69190216    0.03000000    0.01000000
   19.97888947   88.69190216    0.03000000    0.01000000
   19.98277855   85.36299896    0.03000000    0.01000000
   19.98611069   86.89019775    0.03000000    0.01000000
   19.98944473   85.07890320    0.03000000    0.01000000
   19.99250031   91.33239746    0.03000000    0.01000000
   19.99583435   89.37100220    0.03000000    0.01000000
   19.99666786   89.22630310    0.03000000    0.01000000
   19.99944496   88.27559662    0.03000000    0.01000000
   20.00277710   87.27580261    0.03000000    0.01000000
   20.00583267   86.41339874    0.03000000    0.01000000
   20.00916672   89.58580017    0.03000000    0.01000000
   20.01222229  101.09300232    0.03000000    0.01000000
   20.01555634   85.82520294    0.03000000    0.01000000
   20.02166557   85.82520294    0.03000000    0.01000000
   20.02583313   92.88099670    0.03000000    0.01000000
   20.02888870   87.17140198    0.03000000    0.01000000
   20.03000069   90.67269897    0.03000000    0.01000000
   20.03249931   87.42590332    0.03000000    0.01000000
   20.03583336   81.04669952    0.03000000    0.01000000
   20.03916550   85.92230225    0.03000000    0.01000000
   20.04222107   84.58910370    0.03000000    0.01000000
   20.04555511   79.92369843    0.03000000    0.01000000
   20.04861069   99.69740295    0.03000000    0.01000000
   20.05194283   91.37249756    0.03000000    0.01000000
   20.05527687   96.12770081    0.03000000    0.01000000
   20.05833244   87.90429688    0.03000000    0.01000000
   20.06444359   87.90429688    0.03000000    0.01000000
   20.06861115   90.43579865    0.03000000    0.01000000
   20.07194519   86.81300354    0.03000000    0.01000000
   20.07500076   91.26100159    0.03000000    0.01000000
   20.07833481   86.99600220    0.03000000    0.01000000
   20.08166695   88.93219757    0.03000000    0.01000000
   20.08472252   89.90850067    0.03000000    0.01000000
   20.08805656   91.91079712    0.03000000    0.01000000
