    HOUR (UT)   FLARE FACTOR    SKY TESTER    SUN TESTER
   11.07194424   -1.00000000   -1.00000000   -1.00000000
   11.16638851  486.47900391    4.90999985    2.01999998
   11.16944504  490.48498535    4.90999985    2.01999998
   11.17166710  485.24899292    4.90999985    2.03999996
   11.17277813  495.27301025    4.90999985    2.03999996
   11.17416668  499.08700562    4.90999985    2.03999996
   11.17555618  469.80499268    4.90999985    2.03999996
   11.17694473  482.28399658    4.90999985    2.03999996
   11.17833328  471.15899658    4.90999985    2.03999996
   11.17972279  475.44500732    4.90999985    2.03999996
   11.18111134  502.21701050    4.90999985    2.03999996
   11.18249989  482.88101196    4.90999985    2.05999994
   11.18388939  454.33898926    4.90999985    2.03999996
   11.18527794  492.69699097    4.90999985    2.03999996
   11.18666649  504.50698853    4.90999985    2.03999996
   11.18805599  502.28601074    4.90999985    2.03999996
   11.18944454  491.11499023    4.90999985    2.05999994
   11.19083309  485.50900269    4.90999985    2.05999994
   11.19222260  491.63699341    4.90999985    2.03999996
   11.19361115  492.96200562    4.90999985    2.03999996
   11.19499969  503.20901489    4.90999985    2.03999996
   11.19638920  482.62600708    4.90999985    2.05999994
   11.19777775  497.07400513    4.90999985    2.03999996
   11.19916630  485.49600220    4.90999985    2.05999994
   11.20055580  476.57699585    4.90999985    2.05999994
   11.20194435  491.39898682    4.90999985    2.05999994
   11.20333290  481.00698853    4.90999985    2.03999996
   11.20472240  485.52499390    4.90999985    2.05999994
   11.20611095  492.00900269    4.90999985    2.05999994
   11.20749950  489.90200806    4.90999985    2.05999994
   11.20888901  445.15301514    4.90999985    2.05999994
   11.21027756  479.19100952    4.90999985    2.05999994
   11.21166611  450.70901489    4.90999985    2.05999994
   11.21305561  466.73498535    4.90999985    2.07999992
   11.21444416  479.22500610    4.90999985    2.05999994
   11.21583271  457.62600708    4.90999985    2.05999994
   11.21722221  467.32800293    4.90999985    2.05999994
   11.21861076  482.40100098    4.90999985    2.05999994
   11.21999931  449.27899170    4.90999985    2.05999994
   11.22138882  536.03997803    4.90999985    2.07999992
   11.22277737  490.32199097    4.90999985    2.07999992
   11.22416592  458.54800415    4.90999985    2.05999994
   11.22555542  436.29098511    4.90999985    2.07999992
   11.22694397  459.67300415    4.90999985    2.05999994
   11.22833252  452.16299438    4.90999985    2.07999992
   11.22999954  449.65600586    4.90999985    2.05999994
   11.23138809  466.49200439    4.90999985    2.05999994
   11.23249912  441.63800049    4.90999985    2.05999994
   11.23416710  450.63900757    4.90999985    2.07999992
   11.23527813  442.20401001    4.90999985    2.07999992
   11.23666668  485.70001221    4.90999985    2.07999992
   11.23805618  444.55801392    4.90999985    2.07999992
   11.23944473  451.96099854    4.90999985    2.07999992
   11.24083328  508.98400879    4.90999985    2.07999992
   11.24222279  469.86300659    4.90999985    2.07999992
   11.24361134  457.49499512    4.90999985    2.07999992
   11.24499989  424.11499023    4.90999985    2.07999992
   11.24638939  508.60400391    4.90999985    2.07999992
   11.24777794  463.50900269    4.90999985    2.09999990
   11.24916649  490.31500244    4.90999985    2.09999990
   11.25055599  438.75698853    4.90999985    2.07999992
   11.25194454  438.65798950    4.90999985    2.07999992
   11.25333309  436.57598877    4.90999985    2.07999992
   11.25472260  453.99301147    4.90999985    2.09999990
   11.25611115  455.54501343    4.90999985    2.09999990
   11.25749969  451.65100098    4.90999985    2.07999992
   11.25888920  444.73400879    4.90999985    2.07999992
   11.26027775  442.76599121    4.90999985    2.07999992
   11.26166630  423.07299805    4.90999985    2.09999990
   11.26305580  466.64801025    4.90999985    2.09999990
   11.26444435  474.78298950    4.90999985    2.07999992
   11.26583290  457.01901245    4.90999985    2.09999990
   11.26722240  436.81799316    4.90999985    2.09999990
   11.26861095  438.80999756    4.90999985    2.09999990
   11.26999950  424.56698608    4.90999985    2.09999990
   11.27138901  447.00100708    4.90999985    2.09999990
   11.27277756  441.63800049    4.90999985    2.09999990
   11.27416611  427.12500000    4.90999985    2.09999990
   11.27555561  438.70300293    4.90999985    2.09999990
   11.27694416  433.45001221    4.90999985    2.09999990
   11.27833271  467.63800049    4.90999985    2.09999990
   11.27972221  442.81600952    4.90999985    2.09999990
   11.28111076  427.66101074    4.90999985    2.11999989
   11.28249931  437.64999390    4.90999985    2.09999990
   11.28388977  438.35900879    4.90999985    2.09999990
   11.28527832  407.24398804    4.90999985    2.09999990
   11.28666687  415.05200195    4.90999985    2.09999990
   11.28805637  434.72500610    4.90999985    2.11999989
   11.28944492  408.03698730    4.90999985    2.09999990
   11.29083347  408.40600586    4.90999985    2.11999989
   11.29222298  420.36700439    4.90999985    2.11999989
   11.29361153  391.70300293    4.90999985    2.11999989
   11.29500008  411.57501221    4.90999985    2.09999990
   11.29638958  413.80200195    4.90999985    2.09999990
   11.29777813  420.23098755    4.90999985    2.11999989
   11.29916668  426.40100098    4.90999985    2.11999989
   11.30055618  400.59100342    4.90999985    2.11999989
   11.30194473  400.05999756    4.90999985    2.11999989
   11.30333328  413.95199585    4.90999985    2.11999989
   11.30472279  414.26501465    4.90999985    2.11999989
   11.30611134  408.78399658    4.90999985    2.11999989
   11.30749989  409.32699585    4.90999985    2.11999989
   11.30888939  398.77999878    4.90999985    2.11999989
   11.31027794  388.55398560    4.90999985    2.11999989
   11.31166649  397.17599487    4.90999985    2.11999989
   11.31305599  406.03100586    4.90999985    2.13000011
   11.31444454  400.02999878    4.90999985    2.11999989
   11.31583309  387.53500366    4.90999985    2.11999989
   11.31722260  394.62600708    4.90999985    2.11999989
   11.31861115  402.79699707    4.90999985    2.13000011
   11.31999969  394.16799927    4.90999985    2.13000011
   11.32138920  390.98098755    4.90999985    2.11999989
   11.32277775  393.41598511    4.90999985    2.11999989
   11.32416630  405.16598511    4.90999985    2.13000011
   11.32555580  399.42599487    4.90999985    2.13000011
   11.32694435  394.49499512    4.90999985    2.13000011
   11.32833290  397.86401367    4.90999985    2.11999989
   11.32972240  403.75698853    4.90999985    2.13000011
   11.33111095  405.62500000    4.90999985    2.13000011
   11.33249950  396.40200806    4.90999985    2.13000011
   11.33388901  404.61300659    4.90999985    2.13000011
   11.33527756  418.96301270    4.90999985    2.13000011
   11.33666611  419.20999146    4.90999985    2.11999989
   11.33805561  412.37500000    4.90999985    2.11999989
   11.33944416  407.20599365    4.90999985    2.13000011
   11.34083271  389.09799194    4.90999985    2.11999989
   11.34222221  407.55801392    4.90999985    2.13000011
   11.34361076  403.15200806    4.90999985    2.13000011
   11.34499931  402.94500732    4.90999985    2.13000011
   11.34638882  396.03298950    4.90999985    2.13000011
   11.34777737  378.23599243    4.90999985    2.15000010
   11.34916592  375.11199951    4.90999985    2.13000011
   11.35055637  384.44799805    4.90999985    2.13000011
   11.35194492  376.08801270    4.90999985    2.13000011
   11.35333347  401.71701050    4.90999985    2.13000011
   11.35472298  377.09899902    4.90999985    2.13000011
   11.35611153  393.00799561    4.90999985    2.13000011
   11.35750008  373.77700806    4.90999985    2.13000011
   11.35888958  381.40301514    4.90999985    2.13000011
   11.36027813  401.91500854    4.90999985    2.13000011
   11.36166668  375.29901123    4.90999985    2.15000010
   11.36305618  358.62500000    4.90999985    2.13000011
   11.36444473  377.55099487    4.90999985    2.13000011
   11.36583328  371.84698486    4.90999985    2.15000010
   11.36722279  390.28698730    4.90999985    2.15000010
   11.36861134  382.49398804    4.90999985    2.13000011
   11.36999989  389.91900635    4.90999985    2.15000010
   11.37138939  390.61700439    4.90999985    2.13000011
   11.37277794  389.37100220    4.90999985    2.15000010
   11.37416649  379.23300171    4.90999985    2.15000010
   11.37555599  381.62701416    4.90999985    2.15000010
   11.37694454  383.39999390    4.90999985    2.15000010
   11.37833309  376.10900879    4.90999985    2.15000010
   11.37972260  361.42700195    4.90999985    2.15000010
   11.38111115  378.94500732    4.90999985    2.15000010
   11.38249969  376.37799072    4.90999985    2.15000010
   11.38388920  379.43301392    4.90999985    2.17000008
   11.38527775  368.53601074    4.90999985    2.15000010
   11.38666630  382.51998901    4.90999985    2.15000010
   11.38805580  374.03601074    4.90999985    2.15000010
   11.38944435  373.40200806    4.90999985    2.17000008
   11.39083290  377.14300537    4.90999985    2.17000008
   11.39222240  366.80599976    4.90999985    2.15000010
   11.39361095  377.46398926    4.90999985    2.15000010
   11.39499950  374.22000122    4.90999985    2.17000008
   11.39638901  386.28698730    4.90999985    2.17000008
   11.39777756  356.90200806    4.90999985    2.17000008
   11.39916611  368.25000000    4.90999985    2.17000008
   11.40055561  368.48999023    4.90999985    2.15000010
   11.40194416  343.52200317    4.90999985    2.17000008
   11.40222168  490.48498535    4.90999985    2.01999998
   11.40277767  371.26000977    4.90999985    2.17000008
   11.40583324  345.07901001    4.90999985    2.17000008
   11.40916634  369.21499634    4.90999985    2.15000010
   11.41222191  368.29699707    4.90999985    2.17000008
   11.41555500  363.08099365    4.90999985    2.15000010
   11.41861153  358.80700684    4.90999985    2.17000008
   11.42277813  358.80700684    4.90999985    2.17000008
   11.42694473  368.61898804    4.90999985    2.17000008
   11.43027782  347.29199219    4.90999985    2.17000008
   11.43333340  364.38400269    4.90999985    2.17000008
   11.43583298  361.75500488    4.90999985    2.17000008
   11.43694496  343.69198608    4.90999985    2.17000008
   11.44000053  347.41598511    4.90999985    2.17000008
   11.44333363  350.46899414    4.90999985    2.19000006
   11.44638920  348.91799927    4.90999985    2.19000006
   11.44972229  363.47000122    4.90999985    2.17000008
   11.45305538  330.13500977    4.90999985    2.19000006
   11.45611095  355.39898682    4.90999985    2.19000006
   11.45944405  352.79199219    4.90999985    2.19000006
   11.46583271  352.79199219    4.90999985    2.21000004
   11.46972179  355.84899902    4.90999985    2.21000004
   11.47305489  339.07598877    4.90999985    2.21000004
   11.47638798  332.60501099    4.90999985    2.21000004
   11.47944355  346.60000610    4.90999985    2.19000006
   11.48277760  336.68600464    4.90999985    2.19000006
   11.48583317  328.94699097    4.90999985    2.21000004
   11.48916721  322.27200317    4.90999985    2.21000004
   11.49222279  325.79901123    4.90999985    2.21000004
   11.49555588  329.69500732    4.90999985    2.21000004
   11.49888897  315.23901367    4.90999985    2.21000004
   11.50194454  322.92999268    4.90999985    2.21000004
   11.50249958  331.89498901    4.90999985    2.21000004
   11.50861073  331.89498901    4.90999985    2.21000004
   11.51277733  332.31298828    4.90999985    2.21000004
   11.51583290  320.67199707    4.90999985    2.21000004
   11.51916599  339.13900757    4.90999985    2.21000004
   11.52222157  324.68499756    4.90999985    2.23000002
   11.52555561  349.64700317    4.90999985    2.21000004
   11.52861118  320.78698730    4.90999985    2.21000004
   11.53194427  320.02801514    4.90999985    2.23000002
   11.53527832  322.42098999    4.90999985    2.23000002
   11.53583336  319.59399414    4.90999985    2.23000002
   11.53888893  329.16198730    4.90999985    2.23000002
   11.54194450  317.05099487    4.90999985    2.23000002
   11.54527855  325.85699463    4.90999985    2.23000002
   11.55138874  325.85699463    4.90999985    2.23000002
   11.55555534  300.37298584    4.90999985    2.23000002
   11.55888939  305.21701050    4.90999985    2.23000002
   11.56194496  322.27999878    4.90999985    2.25000000
   11.56527805  327.47698975    4.90999985    2.23000002
   11.56833363  303.81500244    4.90999985    2.25000000
   11.56916618  306.12500000    4.90999985    2.25000000
   11.57194424  301.06201172    4.90999985    2.25000000
   11.57499981  304.66400146    4.90999985    2.25000000
   11.57833290  299.64700317    4.90999985    2.23000002
   11.58166695  303.48699951    4.90999985    2.25000000
   11.58472157  298.61898804    4.90999985    2.25000000
   11.58805561  306.77999878    4.90999985    2.25000000
   11.59416676  306.77999878    4.90999985    2.25000000
   11.59833336  290.79199219    4.90999985    2.25000000
   11.60166740  314.10299683    4.90999985    2.26999998
   11.60249996  301.31799316    4.90999985    2.25000000
   11.60527802  295.11199951    4.90999985    2.26999998
   11.60833359  303.06698608    4.90999985    2.25000000
   11.61166668  290.06698608    4.90999985    2.25000000
   11.61500072  285.39999390    4.90999985    2.25000000
   11.61805534  291.20300293    4.90999985    2.26999998
   11.62138939  287.11199951    4.90999985    2.25000000
   11.62444496  294.99200439    4.90999985    2.26999998
   11.62777805  290.56201172    4.90999985    2.25000000
   11.63083363  288.89599609    4.90999985    2.26999998
   11.63722229  288.89599609    4.90999985    2.26999998
   11.64138889  296.98098755    4.90999985    2.28999996
   11.64444447  315.96301270    4.90999985    2.26999998
   11.64777756  291.32199097    4.90999985    2.26999998
   11.65083313  292.10699463    4.90999985    2.26999998
   11.65416622  279.85501099    4.90999985    2.26999998
   11.65722179  282.72601318    4.90999985    2.28999996
   11.66055489  293.37899780    4.90999985    2.26999998
   11.66361046  288.35800171    4.90999985    2.26999998
   11.66694450  287.87100220    4.90999985    2.26999998
   11.66916656  281.98300171    4.90999985    2.26999998
   11.67055607  293.03601074    4.90999985    2.28999996
   11.67361164  287.96899414    4.90999985    2.28999996
   11.68000031  287.96899414    4.90999985    2.30999994
   11.68416691  273.63900757    4.90999985    2.28999996
   11.68722248  274.76400757    4.90999985    2.28999996
   11.69055557  269.98400879    4.90999985    2.28999996
   11.69361115  272.16299438    4.90999985    2.28999996
   11.69694424  287.50299072    4.90999985    2.28999996
   11.70027733  277.04000854    4.90999985    2.28999996
   11.70249939  296.95401001    4.90999985    2.28999996
   11.70388889  277.12899780    4.90999985    2.30999994
   11.70694447  276.95700073    4.90999985    2.30999994
   11.71027756  276.66101074    4.90999985    2.30999994
   11.71361065  271.21301270    4.90999985    2.28999996
   11.71666622  277.75399780    4.90999985    2.30999994
   11.72277737  277.75399780    4.90999985    2.30999994
   11.72694397  271.45700073    4.90999985    2.30999994
   11.73027706  269.42999268    4.90999985    2.30999994
   11.73333359  262.42800903    4.90999985    2.30999994
   11.73583317  286.43499756    4.90999985    2.30999994
   11.73694515  271.26199341    4.90999985    2.28999996
   11.74000072  264.40100098    4.90999985    2.30999994
   11.74333382  272.23199463    4.90999985    2.30999994
   11.74666691  287.83898926    4.90999985    2.30999994
   11.74972248  263.62100220    4.90999985    2.30999994
   11.75305557  255.61300659    4.90999985    2.30999994
   11.75611115  260.67098999    4.90999985    2.30999994
   11.75944424  252.36900330    4.90999985    2.30999994
   11.76555538  252.36900330    4.90999985    2.30999994
   11.76972198  263.34201050    4.90999985    2.32999992
   11.77305508  265.89999390    4.90999985    2.30999994
   11.77611065  275.92700195    4.90999985    2.30999994
   11.77944374  263.71499634    4.90999985    2.30999994
   11.78249931  261.55200195    4.90999985    2.30999994
   11.78583336  256.92098999    4.90999985    2.32999992
   11.78916740  262.30899048    4.90999985    2.32999992
   11.79222298  261.81399536    4.90999985    2.30999994
   11.79555607  253.68400574    4.90999985    2.30999994
   11.79861164  250.55799866    4.90999985    2.32999992
   11.80194473  241.14399719    4.90999985    2.32999992
   11.80249977  272.14498901    4.90999985    2.32999992
   11.80861092  272.14498901    4.90999985    2.32999992
   11.81250000  260.93798828    4.90999985    2.32999992
   11.81583309  257.25799561    4.90999985    2.32999992
   11.81916618  258.99301147    4.90999985    2.34999990
   11.82222176  263.11300659    4.90999985    2.32999992
   11.82555580  254.66200256    4.90999985    2.34999990
   11.82861137  284.58898926    4.90999985    2.34999990
   11.83194447  252.87600708    4.90999985    2.34999990
   11.83500004  252.44599915    4.90999985    2.34999990
   11.83583260  250.91600037    4.90999985    2.34999990
   11.83861065  258.36898804    4.90999985    2.32999992
   11.84194374  260.27999878    4.90999985    2.34999990
   11.84499931  260.55999756    4.90999985    2.34999990
   11.85138893  260.55999756    4.90999985    2.32999992
   11.85555553  259.73599243    4.90999985    2.34999990
   11.85861111  249.01199341    4.90999985    2.34999990
   11.86194515  243.40499878    4.90999985    2.34999990
   11.86500072  248.71200562    4.90999985    2.34999990
   11.86833382  249.83500671    4.90999985    2.34999990
   11.86916637  249.23800659    4.90999985    2.34999990
   11.87194443  236.34899902    4.90999985    2.36999989
   11.87527752  285.67599487    4.90999985    2.34999990
   11.87833309  268.33999634    4.90999985    2.34999990
   11.88166714  256.61700439    4.90999985    2.34999990
   11.88472176  250.52999878    4.90999985    2.36999989
   11.88805580  309.37399292    4.90999985    2.36999989
   11.89416695  309.37399292    4.90999985    2.36999989
   11.89833355  234.04499817    4.90999985    2.34999990
   11.90166664  244.39799500    4.90999985    2.34999990
   11.90249920  257.67199707    4.90999985    2.36999989
   11.90527725  261.92498779    4.90999985    2.36999989
   11.90861034  240.20899963    4.90999985    2.36999989
   11.91166592  242.51600647    4.90999985    2.34999990
   11.91499996  235.60200500    4.90999985    2.36999989
   11.91805553  263.68899536    4.90999985    2.36999989
   11.92138958  242.29100037    4.90999985    2.36999989
   11.92444515  242.90400696    4.90999985    2.36999989
   11.92777824  251.33399963    4.90999985    2.36999989
   11.93083382  243.56900024    4.90999985    2.36999989
   11.93694496  243.56900024    4.90999985    2.36999989
   11.94111156  244.86900330    4.90999985    2.36999989
   11.94444466  261.84399414    4.90999985    2.36999989
   11.94750023  244.25599670    4.90999985    2.39000010
   11.95083332  232.20199585    4.90999985    2.39000010
   11.95388889  247.72999573    4.90999985    2.39000010
   11.95722198  239.59399414    4.90999985    2.39000010
   11.96055508  215.67700195    4.90999985    2.39000010
   11.96361065  238.92799377    4.90999985    2.39000010
   11.96694374  235.32200623    4.90999985    2.39000010
   11.96916580  226.67399597    4.90999985    2.39000010
   11.97055531  235.77299500    4.90999985    2.39000010
   11.97388840  233.45500183    4.90999985    2.39000010
   11.97999954  233.45500183    4.90999985    2.39000010
   11.98388958  224.27900696    4.90999985    2.40000010
   11.98722267  226.02000427    4.90999985    2.40000010
   11.99055576  229.99400330    4.90999985    2.39000010
   11.99361134  227.37300110    4.90999985    2.40000010
   11.99694443  232.38600159    4.90999985    2.40000010
   12.00000000  232.19099426    4.90999985    2.39000010
   12.00249958  226.16299438    4.90999985    2.39000010
   12.00361156  222.46600342    4.90999985    2.40000010
   12.00694466  236.04600525    4.90999985    2.40000010
   12.01000023  240.44400024    4.90999985    2.40000010
   12.01333332  222.19900513    4.90999985    2.40000010
   12.01638889  221.52799988    4.90999985    2.39000010
   12.02277756  221.52799988    4.90999985    2.40000010
   12.02694416  241.44599915    4.90999985    2.40000010
   12.02999973  246.05599976    4.90999985    2.40000010
   12.03333378  232.78199768    4.90999985    2.40000010
   12.03611183  236.29899597    4.90999985    2.40000010
   12.03694534  220.17700195    4.90999985    2.40000010
   12.04027843  220.71699524    4.90999985    2.40000010
   12.04333401  228.30799866    4.90999985    2.40000010
   12.04666710  222.90800476    4.90999985    2.40000010
   12.04972267  215.79200745    4.90999985    2.40000010
   12.05305576  233.49499512    4.90999985    2.40000010
   12.05611134  218.96099854    4.90999985    2.40000010
   12.05944443  229.81500244    4.90999985    2.40000010
   12.06555557  229.81500244    4.90999985    2.40000010
   12.06972218  209.86300659    4.90999985    2.40000010
   12.07305527  212.28900146    4.90999985    2.42000008
   12.07611084  211.75900269    4.90999985    2.40000010
   12.07944393  218.78100586    4.90999985    2.40000010
   12.08249950  207.71800232    4.90999985    2.40000010
   12.08583260  222.45199585    4.90999985    2.42000008
   12.08888817  214.44000244    4.90999985    2.42000008
   12.09222221  199.57400513    4.90999985    2.42000008
   12.09527779  211.36300659    4.90999985    2.42000008
   12.09861088  231.94900513    4.90999985    2.42000008
   12.10194492  225.12600708    4.90999985    2.42000008
   12.10277843  215.37899780    4.90999985    2.42000008
   12.10833359  215.37899780    4.90999985    2.42000008
   12.11250019  219.80299377    4.90999985    2.42000008
   12.11583328  210.50599670    4.90999985    2.42000008
   12.11888885  233.38600159    4.90999985    2.42000008
   12.12222195  227.08599854    4.90999985    2.44000006
   12.12527752  217.44099426    4.90999985    2.42000008
   12.12861156  214.82099915    4.90999985    2.44000006
   12.13194466  212.45399475    4.90999985    2.42000008
   12.13500023  226.08099365    4.90999985    2.42000008
   12.13611126  240.17399597    4.90999985    2.42000008
   12.13861084  216.34199524    4.90999985    2.44000006
   12.14194393  210.41799927    4.90999985    2.42000008
   12.14499950  210.00300598    4.90999985    2.42000008
   12.15138817  210.00300598    4.90999985    2.42000008
   12.15527725  213.21499634    4.90999985    2.42000008
   12.15861034  230.66600037    4.90999985    2.42000008
   12.16194439  211.44799805    4.90999985    2.44000006
   12.16499996  211.24899292    4.90999985    2.44000006
   12.18333340  203.18899536    4.90999985    2.42000008
   12.18500042  217.78500366    4.90999985    2.44000006
   12.18805599  212.12399292    4.90999985    2.44000006
   12.19416714  212.12399292    4.90999985    2.44000006
   12.19833374  217.17199707    4.90999985    2.44000006
   12.20166683  206.19999695    4.90999985    2.44000006
   12.20472240  210.10800171    4.90999985    2.44000006
   12.20805550  203.01499939    4.90999985    2.44000006
   12.21111107  210.81700134    4.90999985    2.44000006
   12.21444416  191.64500427    4.90999985    2.46000004
   12.21666622  209.08500671    4.90999985    2.46000004
   12.21805477  213.37500000    4.90999985    2.46000004
   12.22111034  218.38099670    4.90999985    2.46000004
   12.22444439  195.75000000    4.90999985    2.46000004
   12.22749996  204.37899780    4.90999985    2.44000006
   12.23083305  195.86000061    4.90999985    2.46000004
   12.23722267  195.86000061    4.90999985    2.46000004
   12.24111176  206.22200012    4.90999985    2.44000006
   12.24444485  220.53100586    4.90999985    2.46000004
   12.24777794  208.77000427    4.90999985    2.46000004
   12.25000000  196.82800293    4.90999985    2.46000004
   12.25138855  203.25399780    4.90999985    2.46000004
   12.25444412  222.78300476    4.90999985    2.46000004
   12.25777817  216.22200012    4.90999985    2.46000004
   12.26083374  186.94500732    4.90999985    2.46000004
   12.26416683  214.39999390    4.90999985    2.48000002
   12.26749992  219.10499573    4.90999985    2.46000004
   12.27055550  180.10899353    4.90999985    2.48000002
   12.27388859  216.29499817    4.90999985    2.48000002
   12.27999973  216.29499817    4.90999985    2.46000004
   12.28416729  216.56399536    4.90999985    2.46000004
   12.28722286  238.98699951    4.90999985    2.46000004
   12.29055595  232.09199524    4.90999985    2.46000004
   12.29361153  219.82800293    4.90999985    2.48000002
   12.29694462  218.89399719    4.90999985    2.48000002
   12.30027771  231.60000610    4.90999985    2.46000004
   12.30333328  214.93099976    4.90999985    2.48000002
   12.30666733  202.61000061    4.90999985    2.46000004
   12.30972195  237.83799744    4.90999985    2.48000002
   12.31305599  209.63400269    4.90999985    2.46000004
   12.31638908  219.12199402    4.90999985    2.48000002
   12.31666660  211.76899719    4.90999985    2.48000002
   12.32277775  211.76899719    4.90999985    2.48000002
   12.32694435  174.15899658    4.90999985    2.46000004
   12.33027744  188.32099915    4.90999985    2.46000004
   12.33333302  209.89700317    4.90999985    2.48000002
   12.33666611  193.98899841    4.90999985    2.48000002
   12.33972168  207.47999573    4.90999985    2.48000002
   12.34305477  210.91700745    4.90999985    2.48000002
   12.34638882  211.47000122    4.90999985    2.48000002
   12.34944439  228.00000000    4.90999985    2.46000004
   12.35000038  187.69799805    4.90999985    2.46000004
   12.35305595  235.26499939    4.90999985    2.48000002
   12.35638905  231.29400635    4.90999985    2.48000002
   12.35944462  230.36300659    4.90999985    2.48000002
   12.36555576  230.36300659    4.90999985    2.48000002
   12.36972237  237.74099731    4.90999985    2.48000002
   12.37305546  272.17199707    4.90999985    2.48000002
   12.37611103  262.20199585    4.90999985    2.50000000
   12.37944412  258.63299561    4.90999985    2.48000002
   12.38277817  282.02499390    4.90999985    2.48000002
   12.38333321  232.06399536    4.90999985    2.48000002
   12.38638878  270.17199707    4.90999985    2.48000002
   12.38972187  282.51800537    4.90999985    2.48000002
   12.39277744  305.14199829    4.90999985    2.50000000
   12.39611053  284.45599365    4.90999985    2.48000002
   12.39916611  315.84100342    4.90999985    2.48000002
   12.40249920  296.83999634    4.90999985    2.48000002
   12.40861034  296.83999634    4.90999985    2.48000002
   12.41277695  391.19000244    4.90999985    2.50000000
   12.41583252  337.07400513    4.90999985    2.48000002
   12.41666698  348.43798828    4.90999985    2.48000002
   12.41944504  331.78100586    4.90999985    2.48000002
   12.42277813  364.36499023    4.90999985    2.48000002
   12.42583370  329.33700562    4.90999985    2.48000002
   12.42916679  311.55899048    4.90999985    2.50000000
   12.43222237  309.60000610    4.90999985    2.50000000
   12.43555546  327.77700806    4.90999985    2.50000000
   12.43861103  341.89801025    4.90999985    2.48000002
   12.44194412  346.55599976    4.90999985    2.48000002
   12.44527817  280.63598633    4.90999985    2.50000000
   12.45138836  280.63598633    4.90999985    2.50000000
   12.45555496  340.92401123    4.90999985    2.50000000
   12.45861053  322.18701172    4.90999985    2.50000000
   12.46194458  278.35000610    4.90999985    2.48000002
   12.46500015  304.99700928    4.90999985    2.48000002
   12.46833324  251.64999390    4.90999985    2.50000000
   12.47166634  298.20700073    4.90999985    2.50000000
   12.47472191  324.39498901    4.90999985    2.50000000
   12.47805500  263.60900879    4.90999985    2.48000002
   12.48111057  278.19299316    4.90999985    2.51999998
   12.48333359  243.30999756    4.90999985    2.50000000
   12.48472214  263.70498657    4.90999985    2.50000000
   12.48805618  293.86199951    4.90999985    2.50000000
   12.49416733  293.86199951    4.90999985    2.50000000
   12.49833393  228.22799683    4.90999985    2.50000000
   12.50166702  263.45401001    4.90999985    2.50000000
   12.50472260  255.77400208    4.90999985    2.50000000
   12.50805569  257.17999268    4.90999985    2.50000000
   12.51111126  287.26699829    4.90999985    2.51999998
   12.51444435  262.88101196    4.90999985    2.51999998
   12.51694393  276.51098633    4.90999985    2.50000000
   12.51805496  253.06100464    4.90999985    2.51999998
   12.52138901  252.50399780    4.90999985    2.51999998
   12.52444458  245.62500000    4.90999985    2.51999998
   12.52777767  242.49499512    4.90999985    2.50000000
   12.53083324  228.00100708    4.90999985    2.50000000
   12.53694534  228.00100708    4.90999985    2.50000000
   12.54111195  269.68200684    4.90999985    2.51999998
   12.54444504  296.13000488    4.90999985    2.51999998
   12.54750061  264.88000488    4.90999985    2.51999998
   12.55027771  275.73300171    4.90999985    2.51999998
   12.55111122  228.29899597    4.90999985    2.50000000
   12.55444431  295.28500366    4.90999985    2.53999996
   12.55749989  257.96701050    4.90999985    2.51999998
   12.56083393  244.45500183    4.90999985    2.51999998
   12.56388950  239.28399658    4.90999985    2.51999998
   12.56722260  222.23199463    4.90999985    2.51999998
   12.57027817  269.70001221    4.90999985    2.51999998
   12.57361126  235.34899902    4.90999985    2.51999998
   12.57999992  235.34899902    4.90999985    2.51999998
   12.58416653  239.66200256    4.90999985    2.51999998
   12.58722210  244.92100525    4.90999985    2.51999998
   12.59055519  232.84700012    4.90999985    2.51999998
   12.59361076  219.27099609    4.90999985    2.51999998
   12.59694386  243.42100525    4.90999985    2.51999998
   12.60000038  203.16299438    4.90999985    2.51999998
   12.60333347  215.81799316    4.90999985    2.50000000
   12.60638905  235.52400208    4.90999985    2.51999998
   12.60972214  196.09599304    4.90999985    2.51999998
   12.61305618  210.51300049    4.90999985    2.53999996
   12.61611176  231.06399536    4.90999985    2.53999996
   12.61694431  238.54800415    4.90999985    2.51999998
   12.62277794  238.54800415    4.90999985    2.53999996
   12.62694454  204.38499451    4.90999985    2.51999998
   12.63000011  239.31199646    4.90999985    2.51999998
   12.63333321  231.97900391    4.90999985    2.51999998
   12.63638878  207.85099792    4.90999985    2.53999996
   12.63972187  226.94099426    4.90999985    2.53999996
   12.64305496  221.43200684    4.90999985    2.53999996
   12.64611053  237.53500366    4.90999985    2.53999996
   12.64944458  231.55499268    4.90999985    2.53999996
   12.65027714  223.19799805    4.90999985    2.53999996
   12.65305519  240.62500000    4.90999985    2.51999998
   12.65638828  225.77400208    4.90999985    2.51999998
   12.65944386  201.53700256    4.90999985    2.53999996
   12.66555500  201.53700256    4.90999985    2.53999996
   12.66972256  212.18699646    4.90999985    2.53999996
   12.67305565  199.85899353    4.90999985    2.51999998
   12.67611122  216.36099243    4.90999985    2.51999998
   12.67944431  196.49400330    4.90999985    2.53999996
   12.68249989  232.02999878    4.90999985    2.53999996
   12.68361092  228.74400330    4.90999985    2.53999996
   12.68611145  198.85800171    4.90999985    2.53999996
   12.68944454  190.59899902    4.90999985    2.53999996
   12.69250011  213.77000427    4.90999985    2.53999996
   12.69583321  169.29400635    4.90999985    2.53999996
   12.69916630  208.13400269    4.90999985    2.55999994
   12.70222187  219.94000244    4.90999985    2.53999996
   12.70833302  219.94000244    4.90999985    2.53999996
   12.71249962  183.20700073    4.90999985    2.53999996
   12.71583271  184.83000183    4.90999985    2.53999996
   12.71694374  205.11799622    4.90999985    2.53999996
   12.71944427  221.89100647    4.90999985    2.55999994
   12.72277737  214.44900513    4.90999985    2.53999996
   12.72583294  179.44999695    4.90999985    2.51999998
   12.72916603  208.33200073    4.90999985    2.53999996
   12.73222160  200.68299866    4.90999985    2.53999996
   12.73555565  199.93899536    4.90999985    2.55999994
   12.73888874  211.29299927    4.90999985    2.55999994
   12.74194431  185.67999268    4.90999985    2.53999996
   12.74527836  194.45100403    4.90999985    2.53999996
   12.75138855  194.45100403    4.90999985    2.55999994
   12.75527763  193.02499390    4.90999985    2.55999994
   12.75861073  171.56700134    4.90999985    2.55999994
   12.76194477  195.24299622    4.90999985    2.55999994
   12.76500034  194.69599915    4.90999985    2.55999994
   12.76833344  192.98699951    4.90999985    2.55999994
   12.77138901  190.33200073    4.90999985    2.55999994
   12.77472210  196.38900757    4.90999985    2.55999994
   12.77777767  173.18899536    4.90999985    2.53999996
   12.78111076  210.25399780    4.90999985    2.55999994
   12.78361130  196.30499268    4.90999985    2.53999996
   12.78472233  170.22500610    4.90999985    2.55999994
   12.78805637  204.47099304    4.90999985    2.55999994
   12.79416752  204.47099304    4.90999985    2.55999994
   12.79833412  209.65299988    4.90999985    2.55999994
   12.80138874  165.26499939    4.90999985    2.55999994
   12.80472279  187.33599854    4.90999985    2.55999994
   12.80777836  210.97200012    4.90999985    2.55999994
   12.81111145  193.98699951    4.90999985    2.55999994
   12.81416702  200.27400208    4.90999985    2.55999994
   12.81694412  193.92700195    4.90999985    2.53999996
   12.81777763  179.42900085    4.90999985    2.55999994
   12.82111073  195.18099976    4.90999985    2.55999994
   12.82416630  202.48800659    4.90999985    2.57999992
   12.82750034  222.94700623    4.90999985    2.55999994
   12.83055592  193.28999329    4.90999985    2.55999994
   12.83694458  193.28999329    4.90999985    2.55999994
   12.84111118  180.74800110    4.90999985    2.55999994
   12.84416676  217.53500366    4.90999985    2.55999994
   12.84749985  220.98599243    4.90999985    2.55999994
   12.85027790  203.68299866    4.90999985    2.55999994
   12.85111141  209.33599854    4.90999985    2.55999994
   12.85444450  196.65299988    4.90999985    2.55999994
   12.85750008  240.01300049    4.90999985    2.55999994
   12.86083412  223.97599792    4.90999985    2.55999994
   12.86416721  221.43499756    4.90999985    2.57999992
   12.86722279  229.46899414    4.90999985    2.55999994
   12.87055588  218.10699463    4.90999985    2.53999996
   12.87361145  227.94500732    4.90999985    2.55999994
   12.87972260  227.94500732    4.90999985    2.55999994
   12.88388920  209.34899902    4.90999985    2.57999992
   12.88722229  240.34500122    4.90999985    2.55999994
   12.89027786  257.95098877    4.90999985    2.55999994
   12.89361095  218.92999268    4.90999985    2.57999992
   12.89666653  221.08399963    4.90999985    2.55999994
   12.89999962  221.13099670    4.90999985    2.55999994
   12.90333271  188.01699829    4.90999985    2.55999994
   12.90638828  192.82800293    4.90999985    2.55999994
   12.90972137  211.36599731    4.90999985    2.55999994
   12.91277695  195.41999817    4.90999985    2.55999994
   12.91611099  210.45300293    4.90999985    2.55999994
   12.91694450  182.67900085    4.90999985    2.57999992
   12.92277813  182.67900085    4.90999985    2.57999992
   12.92666721  212.10600281    4.90999985    2.59999990
   12.93000031  227.12600708    4.90999985    2.57999992
   12.93333340  229.97399902    4.90999985    2.57999992
   12.93638897  204.92700195    4.90999985    2.57999992
   12.93972206  228.88200378    4.90999985    2.57999992
   12.94277763  253.16000366    4.90999985    2.57999992
   12.94611073  221.07299805    4.90999985    2.57999992
   12.94944477  185.04400635    4.90999985    2.57999992
   12.95027733  224.63299561    4.90999985    2.57999992
   12.95277786  184.46200562    4.90999985    2.57999992
   12.95611095  213.41499329    4.90999985    2.59999990
   12.95916653  211.17399597    4.90999985    2.55999994
   12.96555519  211.17399597    4.90999985    2.57999992
   12.96972179  224.45899963    4.90999985    2.57999992
   12.97277737  207.64700317    4.90999985    2.57999992
   12.97611046  239.18600464    4.90999985    2.59999990
   12.97916603  186.63000488    4.90999985    2.59999990
   12.98249912  201.58799744    4.90999985    2.59999990
   12.98361111  208.28399658    4.90999985    2.59999990
   12.98611164  193.81700134    4.90999985    2.57999992
   12.98944473  204.54200745    4.90999985    2.59999990
   12.99250031  199.49299622    4.90999985    2.59999990
   12.99583340  192.11599731    4.90999985    2.59999990
   12.99916649  177.91299438    4.90999985    2.59999990
   13.00222206  177.35299683    4.90999985    2.59999990
   13.00833321  177.35299683    4.90999985    2.59999990
   13.01249981  174.17500305    4.90999985    2.59999990
   13.01583290  159.56900024    4.90999985    2.59999990
   13.01694393  154.07800293    4.90999985    2.57999992
   13.01916599  168.08099365    4.90999985    2.59999990
   13.02250004  159.15600586    4.90999985    2.59999990
   13.02555561  158.76199341    4.90999985    2.61999989
   13.02888870  166.14599609    4.90999985    2.61999989
   13.03222179  174.00000000    4.90999985    2.59999990
   13.03527832  157.09100342    4.90999985    2.59999990
   13.03861141  177.02299500    4.90999985    2.59999990
   13.04166698  167.74200439    4.90999985    2.59999990
   13.04500008  167.65100098    4.90999985    2.59999990
   13.05111122  167.65100098    4.90999985    2.61999989
   13.05527782  164.50100708    4.90999985    2.59999990
   13.05861092  185.35699463    4.90999985    2.59999990
   13.06166649  157.19400024    4.90999985    2.59999990
   13.06500053  175.70199585    4.90999985    2.61999989
   13.06805515  160.88900757    4.90999985    2.59999990
   13.07138920  175.73599243    4.90999985    2.59999990
   13.07472229  157.95899963    4.90999985    2.61999989
   13.07777786  185.58200073    4.90999985    2.61999989
   13.08111095  206.74600220    4.90999985    2.59999990
   13.08361053  193.60099792    4.90999985    2.59999990
   13.08444405  210.14399719    4.90999985    2.61999989
   13.08777714  175.53799438    4.90999985    2.59999990
   13.09416676  175.53799438    4.90999985    2.61999989
   13.09833336  185.11900330    4.90999985    2.61999989
   13.10138893  211.48800659    4.90999985    2.61999989
   13.10472298  190.66600037    4.90999985    2.61999989
   13.10777855  193.35000610    4.90999985    2.59999990
   13.11111164  212.00199890    4.90999985    2.59999990
   13.11416721  223.16999817    4.90999985    2.59999990
   13.11694431  194.16900635    4.90999985    2.59999990
   13.11777782  207.82400513    4.90999985    2.61999989
   13.12111092  207.07099915    4.90999985    2.59999990
   13.12416649  197.83200073    4.90999985    2.59999990
   13.12750053  225.96099854    4.90999985    2.59999990
   13.13083363  195.69500732    4.90999985    2.59999990
   13.13694477  195.69500732    4.90999985    2.61999989
   13.14111137  221.67599487    4.90999985    2.61999989
   13.14416695  219.33900452    4.90999985    2.61999989
   13.14750004  246.31399536    4.90999985    2.59999990
   13.15027714  258.54699707    4.90999985    2.59999990
   13.15083313  257.87500000    4.90999985    2.59999990
   13.15416622  253.69999695    4.90999985    2.59999990
   13.15749931  244.02600098    4.90999985    2.61999989
   13.16055489  224.51600647    4.90999985    2.59999990
   13.16388893  231.04400635    4.90999985    2.61999989
   13.16694450  251.87199402    4.90999985    2.61999989
   13.17027855  264.17599487    4.90999985    2.59999990
   13.17333412  257.87899780    4.90999985    2.61999989
   13.17972279  257.87899780    4.90999985    2.61999989
   13.20027733  244.15100098    4.90999985    2.61999989
   13.20361137  244.16600037    4.90999985    2.61999989
   13.20666695  261.37600708    4.90999985    2.61999989
   13.21000004  277.38299561    4.90999985    2.61999989
   13.21305561  292.13800049    4.90999985    2.59999990
   13.21638870  279.22799683    4.90999985    2.61999989
   13.21694374  262.58300781    4.90999985    2.61999989
   13.22277737  262.58300781    4.90999985    2.61999989
   13.22694397  300.36700439    4.90999985    2.61999989
   13.22999954  294.55599976    4.90999985    2.61999989
   13.23333359  263.90798950    4.90999985    2.61999989
   13.23638916  272.40499878    4.90999985    2.61999989
   13.23972225  284.15301514    4.90999985    2.61999989
   13.24305534  273.35598755    4.90999985    2.64000010
   13.24611092  218.56100464    4.90999985    2.64000010
   13.24944496  227.60699463    4.90999985    2.61999989
   13.25027752  242.77099609    4.90999985    2.64000010
   13.25277805  251.21499634    4.90999985    2.61999989
   13.25611115  257.38800049    4.90999985    2.61999989
   13.25944424  227.48599243    4.90999985    2.64000010
   13.26555538  227.48599243    4.90999985    2.64000010
   13.26972198  248.58900452    4.90999985    2.64000010
   13.27305508  261.15301514    4.90999985    2.64000010
   13.27611065  254.79499817    4.90999985    2.64000010
   13.27944374  269.01501465    4.90999985    2.61999989
   13.28249931  258.00399780    4.90999985    2.64000010
   13.28361130  274.51800537    4.90999985    2.61999989
   13.28611183  270.20599365    4.90999985    2.61999989
   13.28944492  250.55900574    4.90999985    2.61999989
   13.29277802  265.46398926    4.90999985    2.61999989
   13.29583359  298.16198730    4.90999985    2.61999989
   13.29916668  257.71099854    4.90999985    2.64000010
   13.30222225  264.25201416    4.90999985    2.61999989
   13.30833340  264.25201416    4.90999985    2.64000010
   13.31250000  255.85400391    4.90999985    2.64000010
   13.31583309  232.39900208    4.90999985    2.61999989
   13.31694412  255.77299500    4.90999985    2.64000010
   13.31916618  264.37100220    4.90999985    2.64000010
   13.32305527  276.50201416    4.90999985    2.64000010
   13.32638836  255.91400146    4.90999985    2.64000010
   13.32944393  205.10400391    4.90999985    2.64000010
   13.33277798  261.75500488    4.90999985    2.61999989
   13.33583260  239.76600647    4.90999985    2.64000010
   13.33916664  246.96400452    4.90999985    2.64000010
   13.34222221  217.99400330    4.90999985    2.64000010
   13.34555531  232.35699463    4.90999985    2.64000010
   13.35138893  232.35699463    4.90999985    2.64000010
   13.35555553  192.91799927    4.90999985    2.64000010
   13.35861111  214.35899353    4.90999985    2.64000010
   13.36194515  218.05799866    4.90999985    2.64000010
   13.36500072  223.26699829    4.90999985    2.61999989
   13.36833382   -1.00000000    4.90999985    2.64000010
   13.37138939   -1.00000000    4.90999985    2.64000010
   13.37472248   -1.00000000    4.90999985    2.64000010
   13.37805557   -1.00000000    4.90999985    2.64000010
   13.38111115   -1.00000000    4.90999985    2.64000010
   13.38361073  233.43099976    4.90999985    2.64000010
   13.38472176  203.45799255    4.90999985    2.64000010
   13.38805580  207.23199463    4.90999985    2.64000010
   13.39416695  207.23199463    4.90999985    2.64000010
   13.39833355  220.03300476    4.90999985    2.64000010
   13.40138817  240.39100647    4.90999985    2.66000009
   13.40472221  197.94799805    4.90999985    2.64000010
   13.40805531  230.24699402    4.90999985    2.64000010
   13.41111088  219.01699829    4.90999985    2.64000010
   13.41444397  207.34100342    4.90999985    2.64000010
   13.41694450  223.60299683    4.90999985    2.64000010
   13.41777802  197.64100647    4.90999985    2.66000009
   13.42111111  232.93899536    4.90999985    2.66000009
   13.42444515  233.42100525    4.90999985    2.64000010
   13.42750072  207.23800659    4.90999985    2.66000009
   13.43083382  222.67799377    4.90999985    2.66000009
   13.43694496  222.67799377    4.90999985    2.64000010
   13.44111156  226.56399536    4.90999985    2.64000010
   13.44444466  227.95500183    4.90999985    2.64000010
   13.44750023  249.31300354    4.90999985    2.66000009
   13.45027733  201.44700623    4.90999985    2.64000010
   13.45138836  217.74400330    4.90999985    2.64000010
   13.45444393  201.59899902    4.90999985    2.64000010
   13.45777798  223.86900330    4.90999985    2.66000009
   13.46083355  216.22599792    4.90999985    2.64000010
   13.46416664  202.80700684    4.90999985    2.64000010
   13.46722221  204.06700134    4.90999985    2.64000010
   13.47055531  241.35499573    4.90999985    2.64000010
   13.47361088  229.42199707    4.90999985    2.66000009
   13.47999954  229.42199707    4.90999985    2.66000009
   13.48388958  216.03700256    4.90999985    2.66000009
   13.48722267  200.66099548    4.90999985    2.67000008
   13.49055576  207.58099365    4.90999985    2.64000010
   13.49361134  181.24499512    4.90999985    2.64000010
   13.49694443  205.27000427    4.90999985    2.66000009
   13.50000000  167.93200684    4.90999985    2.64000010
   13.50333309  190.47999573    4.90999985    2.66000009
   13.50638866  190.70199585    4.90999985    2.66000009
   13.50972176  198.65499878    4.90999985    2.64000010
   13.51277733  194.60200500    4.90999985    2.66000009
   13.51611137  177.46699524    4.90999985    2.64000010
   13.51694393  199.85899353    4.90999985    2.64000010
   13.52277756  199.85899353    4.90999985    2.64000010
   13.52694416  188.22799683    4.90999985    2.66000009
   13.52999973  191.60400391    4.90999985    2.64000010
   13.53333378  173.33299255    4.90999985    2.64000010
   13.53638935  162.85899353    4.90999985    2.66000009
   13.53972244  185.07099915    4.90999985    2.66000009
   13.54277802  205.46000671    4.90999985    2.66000009
   13.54611111  183.28500366    4.90999985    2.66000009
   13.54916668  186.57000732    4.90999985    2.66000009
   13.55027771  190.42999268    4.90999985    2.66000009
   13.55305576  217.88299561    4.90999985    2.66000009
   13.55611134  197.68099976    4.90999985    2.66000009
   13.55944443  191.60400391    4.90999985    2.66000009
   13.56555557  191.60400391    4.90999985    2.66000009
   13.56972218  172.82099915    4.90999985    2.66000009
   13.57277775  181.24299622    4.90999985    2.66000009
   13.57611084  196.81300354    4.90999985    2.66000009
   13.57944393  193.48899841    4.90999985    2.66000009
   13.58249950  166.44200134    4.90999985    2.66000009
   13.58361053  201.01300049    4.90999985    2.66000009
   13.58638859  185.35899353    4.90999985    2.64000010
   13.58944416  180.92999268    4.90999985    2.66000009
   13.59277725  174.34199524    4.90999985    2.66000009
   13.59583282  159.80900574    4.90999985    2.67000008
   13.59916592  184.70100403    4.90999985    2.64000010
   13.60222244  201.43699646    4.90999985    2.66000009
   13.60833359  201.43699646    4.90999985    2.64000010
   13.61250019  204.26800537    4.90999985    2.66000009
   13.61583328  190.02699280    4.90999985    2.66000009
   13.61694431  190.50700378    4.90999985    2.66000009
   13.61944485  198.56100464    4.90999985    2.66000009
   13.62250042  191.43200684    4.90999985    2.66000009
   13.62583351  195.02900696    4.90999985    2.66000009
   13.62888908  196.21499634    4.90999985    2.66000009
   13.63222218  195.23699951    4.90999985    2.66000009
   13.63527775  181.92500305    4.90999985    2.66000009
   13.63861084  186.03900146    4.90999985    2.66000009
   13.64194393  182.96800232    4.90999985    2.66000009
   13.64499950  178.24299622    4.90999985    2.66000009
   13.65111065  178.24299622    4.90999985    2.66000009
   13.65527725  184.68400574    4.90999985    2.66000009
   13.65861034  177.97500610    4.90999985    2.66000009
   13.66166592  174.81300354    4.90999985    2.67000008
   13.66499996  190.92700195    4.90999985    2.67000008
   13.66833401  181.10699463    4.90999985    2.66000009
   13.67138958  192.44799805    4.90999985    2.66000009
   13.67472267  162.61000061    4.90999985    2.67000008
   13.67777824  173.79200745    4.90999985    2.66000009
   13.68111134  177.71699524    4.90999985    2.66000009
   13.68361092  172.94000244    4.90999985    2.67000008
   13.68472195  173.87500000    4.90999985    2.66000009
   13.68777752  171.57000732    4.90999985    2.69000006
   13.69416714  171.57000732    4.90999985    2.67000008
   13.69833374  180.59100342    4.90999985    2.66000009
   13.70138836  188.47900391    4.90999985    2.67000008
   13.70472240  189.16900635    4.90999985    2.67000008
   13.70777798  171.77299500    4.90999985    2.67000008
   13.71111107  181.69700623    4.90999985    2.67000008
   13.71416664  183.24800110    4.90999985    2.67000008
   13.71694374  169.05299377    4.90999985    2.66000009
   13.71805477  194.79100037    4.90999985    2.67000008
   13.72111034  181.75300598    4.90999985    2.67000008
   13.72444439  194.67500305    4.90999985    2.67000008
   13.72749996  182.30799866    4.90999985    2.66000009
   13.73083305  183.58500671    4.90999985    2.67000008
   13.73694515  183.58500671    4.90999985    2.67000008
   13.74111176  165.52299500    4.90999985    2.67000008
   13.74416733  165.57600403    4.90999985    2.67000008
   13.74750042  172.81700134    4.90999985    2.67000008
   13.75027752  184.52499390    4.90999985    2.67000008
   13.75111103  174.24299622    4.90999985    2.67000008
   13.75416660  151.69299316    4.90999985    2.67000008
   13.75749969  174.61199951    4.90999985    2.67000008
   13.76055527  180.58599854    4.90999985    2.67000008
   13.76388931  182.76699829    4.90999985    2.67000008
   13.76694393  164.90899658    4.90999985    2.69000006
   13.77027798  171.41799927    4.90999985    2.67000008
   13.77361107  176.67500305    4.90999985    2.67000008
   13.77972221  176.67500305    4.90999985    2.69000006
   13.78388977  151.76899719    4.90999985    2.69000006
   13.78722286  168.86799622    4.90999985    2.67000008
   13.79027843  166.30599976    4.90999985    2.69000006
   13.79361153  183.22999573    4.90999985    2.67000008
   13.79666710  182.77699280    4.90999985    2.67000008
   13.80000019  181.13400269    4.90999985    2.67000008
   13.80333328  181.16400146    4.90999985    2.69000006
   13.80638885  173.79899597    4.90999985    2.69000006
   13.80972195  190.36099243    4.90999985    2.69000006
   13.81277752  180.53100586    4.90999985    2.69000006
   13.81611156  169.39399719    4.90999985    2.69000006
   13.81694412  182.19999695    4.90999985    2.69000006
   13.82250023  182.19999695    4.90999985    2.69000006
   13.82666683  182.59399414    4.90999985    2.69000006
   13.82999992  183.64100647    4.90999985    2.69000006
   13.83305550  162.23599243    4.90999985    2.69000006
   13.83638859  172.48800659    4.90999985    2.69000006
   13.83972168  171.69799805    4.90999985    2.67000008
   13.84277725  174.19599915    4.90999985    2.69000006
   13.84611034  175.63499451    4.90999985    2.69000006
   13.84916592  179.04499817    4.90999985    2.69000006
   13.85027790  175.71400452    4.90999985    2.67000008
   13.85305595  163.01699829    4.90999985    2.69000006
   13.85611153  178.30700684    4.90999985    2.69000006
   13.85944462  192.45100403    4.90999985    2.69000006
   13.86555576  192.45100403    4.90999985    2.69000006
   13.86972237  183.43499756    4.90999985    2.67000008
   13.87277794  167.01400757    4.90999985    2.71000004
   13.87611103  171.27000427    4.90999985    2.69000006
   13.87916660  178.49099731    4.90999985    2.71000004
   13.88249969  190.85600281    4.90999985    2.69000006
   13.88361073  188.07699585    4.90999985    2.69000006
   13.88611126  186.78900146    4.90999985    2.69000006
   13.88916683  184.99000549    4.90999985    2.69000006
   13.89249992  187.24400330    4.90999985    2.71000004
   13.89555550  197.57000732    4.90999985    2.69000006
   13.89888859  171.71299744    4.90999985    2.69000006
   13.90222168  172.05200195    4.90999985    2.69000006
   13.90833282  172.05200195    4.90999985    2.69000006
   13.91249943  173.41799927    4.90999985    2.69000006
   13.91555500  165.80700684    4.90999985    2.69000006
   13.91694450  151.11500549    4.90999985    2.69000006
   13.91944504  169.13200378    4.90999985    2.69000006
   13.92250061  182.70500183    4.90999985    2.69000006
   13.92583370  201.54899597    4.90999985    2.69000006
   13.92888927  194.47000122    4.90999985    2.69000006
   13.93222237  198.29200745    4.90999985    2.67000008
   13.93555546  174.75900269    4.90999985    2.69000006
   13.93861103  204.52900696    4.90999985    2.71000004
   13.94194412  159.96600342    4.90999985    2.71000004
   13.94499969  174.61399841    4.90999985    2.69000006
   13.95111084  174.61399841    4.90999985    2.69000006
   13.95527744  194.77699280    4.90999985    2.69000006
   13.95861053  166.78300476    4.90999985    2.69000006
   13.96166611  158.28599548    4.90999985    2.69000006
   13.96500015  183.85000610    4.90999985    2.69000006
   13.96805477  149.73399353    4.90999985    2.69000006
   13.97138882  164.22099304    4.90999985    2.69000006
   13.97444439  172.73699951    4.90999985    2.71000004
   13.97777748  180.78700256    4.90999985    2.71000004
   13.98111057  159.79499817    4.90999985    2.69000006
   13.98361111  174.76600647    4.90999985    2.69000006
   13.98472214  157.76899719    4.90999985    2.69000006
   13.98777771  162.04800415    4.90999985    2.67000008
   13.99416733  162.04800415    4.90999985    2.69000006
   13.99805546  175.13099670    4.90999985    2.69000006
   14.00138855  166.61399841    4.90999985    2.69000006
   14.00444412  198.94000244    4.90999985    2.71000004
   14.00777817  176.07200623    4.90999985    2.69000006
   14.01111126  157.51899719    4.90999985    2.67000008
   14.01416683  186.03900146    4.90999985    2.71000004
   14.01694393  191.34300232    4.90999985    2.69000006
   14.01777744  165.57600403    4.90999985    2.69000006
   14.02083302  162.47500610    4.90999985    2.69000006
   14.02416611  177.24800110    4.90999985    2.71000004
   14.02722168  167.13699341    4.90999985    2.69000006
   14.03055573  190.67700195    4.90999985    2.69000006
   14.03694534  190.67700195    4.90999985    2.69000006
   14.04111195  187.17900085    4.90999985    2.69000006
   14.04416752  239.97900391    4.90999985    2.71000004
   14.04750061  230.40800476    4.90999985    2.69000006
   14.05027771  238.35200500    4.90999985    2.71000004
   14.05111122  206.17999268    4.90999985    2.71000004
   14.05416679  242.47599792    4.90999985    2.69000006
   14.05749989  201.98100281    4.90999985    2.71000004
   14.06055546  218.85299683    4.90999985    2.69000006
   14.06388950  250.21499634    4.90999985    2.69000006
   14.06722260  243.69400024    4.90999985    2.69000006
   14.07027817  258.05899048    4.90999985    2.69000006
   14.07361126  221.69299316    4.90999985    2.69000006
   14.07972240  221.69299316    4.90999985    2.71000004
   14.08388901  242.24400330    4.90999985    2.71000004
   14.08694458  214.27099609    4.90999985    2.69000006
   14.09027767  203.98599243    4.90999985    2.69000006
   14.09361076  218.86599731    4.90999985    2.69000006
   14.09666634  174.02799988    4.90999985    2.69000006
   14.10000038  177.48300171    4.90999985    2.69000006
   14.10305595  167.32299805    4.90999985    2.69000006
   14.10638905  150.17100525    4.90999985    2.69000006
   14.10944462  168.08599854    4.90999985    2.69000006
   14.11277771  169.42799377    4.90999985    2.69000006
   14.11583328  160.72700500    4.90999985    2.69000006
   14.11694431  190.05099487    4.90999985    2.71000004
   14.12250042  190.05099487    4.90999985    2.69000006
   14.12666702  201.47599792    4.90999985    2.69000006
   14.13000011  181.81399536    4.90999985    2.69000006
   14.13305569  204.35000610    4.90999985    2.69000006
   14.13638878  189.66700745    4.90999985    2.69000006
   14.13944435  205.04899597    4.90999985    2.69000006
   14.14277744  196.67100525    4.90999985    2.71000004
   14.14583302  188.20599365    4.90999985    2.69000006
   14.14916611  202.37800598    4.90999985    2.71000004
   14.15027714  209.41900635    4.90999985    2.71000004
   14.15277767  179.49800110    4.90999985    2.71000004
   14.15583324  206.98399353    4.90999985    2.71000004
   14.15916634  240.07699585    4.90999985    2.71000004
   14.16555500  240.07699585    4.90999985    2.71000004
   14.16944504  205.04400635    4.90999985    2.71000004
   14.17277813  197.11300659    4.90999985    2.71000004
   14.17583370  195.79100037    4.90999985    2.71000004
   14.17916679  235.59300232    4.90999985    2.71000004
   14.18249989  212.01499939    4.90999985    2.71000004
   14.18361092  193.79600525    4.90999985    2.71000004
   14.18611145  198.15100098    4.90999985    2.71000004
   14.18916702  198.46899414    4.90999985    2.71000004
   14.19250011  226.15499878    4.90999985    2.71000004
   14.19583321  232.82699585    4.90999985    2.71000004
   14.19888878  183.34199524    4.90999985    2.69000006
   14.22111034  183.34199524    4.90999985    2.71000004
   14.22527695  199.55299377    4.90999985    2.71000004
   14.22833252  213.13200378    4.90999985    2.69000006
   14.23166656  238.68099976    4.90999985    2.69000006
   14.23472214  267.92700195    4.90999985    2.71000004
   14.23805618  270.64099121    4.90999985    2.71000004
   14.24111176  269.27700806    4.90999985    2.71000004
   14.24444485  276.98400879    4.90999985    2.71000004
   14.24777794  266.85501099    4.90999985    2.71000004
   14.25083351  264.22500610    4.90999985    2.71000004
   14.25194454  259.97500610    4.90999985    2.71000004
   14.25444412  244.00100708    4.90999985    2.71000004
   14.25777817  274.29598999    4.90999985    2.73000002
   14.26388931  274.29598999    4.90999985    2.71000004
   14.26805496  199.04800415    4.90999985    2.71000004
   14.27111053  214.70100403    4.90999985    2.71000004
   14.27444458  167.20199585    4.90999985    2.73000002
   14.27750015  163.96699524    4.90999985    2.73000002
   14.28083324  180.34899902    4.90999985    2.71000004
   14.28388977  165.66600037    4.90999985    2.71000004
   14.28527832  226.70199585    4.90999985    2.73000002
   14.28750038  170.52299500    4.90999985    2.71000004
   14.29083347  184.64399719    4.90999985    2.71000004
   14.29388905  185.21099854    4.90999985    2.71000004
   14.29722309  240.22599792    4.90999985    2.71000004
   14.30055618  182.88099670    4.90999985    2.71000004
   14.30666733  182.88099670    4.90999985    2.71000004
   14.31083393  247.05099487    4.90999985    2.71000004
   14.31388950  212.82499695    4.90999985    2.73000002
   14.31722260  253.25100708    4.90999985    2.71000004
   14.31861115  215.73500061    4.90999985    2.71000004
   14.32083321  204.41200256    4.90999985    2.73000002
   14.32416630  273.41900635    4.90999985    2.73000002
   14.32722187  160.38800049    4.90999985    2.73000002
   14.33055592  210.13600159    4.90999985    2.71000004
   14.33361053  215.15899658    4.90999985    2.71000004
   14.33694458  217.27600098    4.90999985    2.73000002
   14.34000015  178.85000610    4.90999985    2.73000002
   14.34333324  213.22700500    4.90999985    2.71000004
   14.34944439  213.22700500    4.90999985    2.71000004
   14.35361195  162.36199951    4.90999985    2.73000002
   14.35694504  203.13800049    4.90999985    2.73000002
   14.36000061  185.09700012    4.90999985    2.73000002
   14.36333370  162.61500549    4.90999985    2.71000004
   14.36638927  186.58599854    4.90999985    2.73000002
   14.36972237  188.44200134    4.90999985    2.73000002
   14.37277794  204.59199524    4.90999985    2.71000004
   14.37611103  183.79400635    4.90999985    2.73000002
   14.37944412  206.24099731    4.90999985    2.71000004
   14.38249969  185.60800171    4.90999985    2.71000004
   14.38527775  205.30499268    4.90999985    2.71000004
   14.38611126  153.75900269    4.90999985    2.71000004
   14.39222240  153.75900269    4.90999985    2.71000004
   14.39638901  173.71200562    4.90999985    2.73000002
   14.39972210  196.34199524    4.90999985    2.73000002
   14.40277767  182.31799316    4.90999985    2.73000002
   14.40611076  195.58500671    4.90999985    2.73000002
   14.50305557   -1.00000000   -1.00000000   -1.00000000
   14.60888958   -1.00000000   -1.00000000   -1.00000000
   14.90333271   -1.00000000   -1.00000000   -1.00000000
   15.13944435  131.45500183    4.90999985    2.75000000
   15.14333344  216.59700012    4.90999985    2.75000000
   15.14638901  228.05200195    4.90999985    2.75000000
   15.14972210  222.74499512    4.90999985    2.76999998
   15.15305519  197.32299805    4.90999985    2.75000000
   15.15972137  197.32299805    4.90999985    2.75000000
   15.16388893  207.23199463    4.90999985    2.75000000
   15.16694450  219.87699890    4.90999985    2.75000000
   15.17027855  189.08399963    4.90999985    2.75000000
   15.17277813  221.12300110    4.90999985    2.75000000
   15.17388916  220.05999756    4.90999985    2.75000000
   15.17722225  211.96499634    4.90999985    2.75000000
   15.18055630  194.55700684    4.90999985    2.76999998
   15.18361092  188.72900391    4.90999985    2.75000000
   15.18694496  196.02099609    4.90999985    2.75000000
   15.19000053  197.00900269    4.90999985    2.76999998
   15.19333363  205.77699280    4.90999985    2.75000000
   15.19666672  203.07699585    4.90999985    2.75000000
   15.20249939  203.07699585    4.90999985    2.75000000
   15.20666695  183.74099731    4.90999985    2.75000000
   15.20972157  195.86399841    4.90999985    2.75000000
   15.21305561  192.30599976    4.90999985    2.75000000
   15.21638870  188.56900024    4.90999985    2.75000000
   15.21944427  171.84599304    4.90999985    2.73000002
   15.22277737  180.83799744    4.90999985    2.76999998
   15.22611046  202.77299500    4.90999985    2.75000000
   15.22916603  185.56900024    4.90999985    2.75000000
   15.23249912  200.76300049    4.90999985    2.75000000
   15.23555565  196.76400757    4.90999985    2.75000000
   15.23888874  166.95899963    4.90999985    2.75000000
   15.23944473  178.37899780    4.90999985    2.75000000
   15.24527836  178.37899780    4.90999985    2.75000000
   15.24944496  193.49200439    4.90999985    2.76999998
   15.25277805  203.34300232    4.90999985    2.75000000
   15.25583363  170.89799500    4.90999985    2.76999998
   15.25916672  165.77499390    4.90999985    2.78999996
   15.26249981  186.56100464    4.90999985    2.75000000
   15.26555538  183.53700256    4.90999985    2.76999998
   15.26888847  189.32499695    4.90999985    2.76999998
   15.27194405  191.82699585    4.90999985    2.76999998
   15.27277756  189.16400146    4.90999985    2.76999998
   15.27583313  166.66900635    4.90999985    2.75000000
   15.27888870  180.35699463    4.90999985    2.75000000
   15.28222179  190.28399658    4.90999985    2.75000000
   15.28805637  190.28399658    4.90999985    2.76999998
   15.29222298  180.66000366    4.90999985    2.76999998
   15.29555607  175.85400391    4.90999985    2.75000000
   15.29861164  193.84100342    4.90999985    2.76999998
   15.30194473  181.05099487    4.90999985    2.78999996
   15.30527782  196.03100586    4.90999985    2.76999998
   15.30611134  182.55700684    4.90999985    2.75000000
   15.30888939  190.69999695    4.90999985    2.76999998
   15.31194496  180.75100708    4.90999985    2.75000000
   15.31527805  196.39799500    4.90999985    2.76999998
   15.31861115  162.58500671    4.90999985    2.76999998
   15.32166672  178.41099548    4.90999985    2.75000000
   15.32499981  187.45500183    4.90999985    2.75000000
   15.33111095  187.45500183    4.90999985    2.76999998
   15.33527756  190.88400269    4.90999985    2.76999998
   15.33833313  188.25999451    4.90999985    2.76999998
   15.33944416  170.19099426    4.90999985    2.75000000
   15.34222221  172.33599854    4.90999985    2.76999998
   15.34527779  177.27999878    4.90999985    2.76999998
   15.34861088  180.55499268    4.90999985    2.76999998
   15.35194492  191.83500671    4.90999985    2.75000000
   15.35500050  181.20700073    4.90999985    2.75000000
   15.35833359  182.96000671    4.90999985    2.75000000
   15.36138916  166.52600098    4.90999985    2.75000000
   15.36472225  184.77400208    4.90999985    2.76999998
   15.36805534  181.87899780    4.90999985    2.76999998
   15.37388897  181.87899780    4.90999985    2.76999998
   15.37805557  162.76100159    4.90999985    2.76999998
   15.38111115  175.45199585    4.90999985    2.76999998
   15.38444424  177.53900146    4.90999985    2.75000000
   15.38777733  170.25900269    4.90999985    2.75000000
   15.39083290  181.54600525    4.90999985    2.76999998
   15.39416695  180.53799438    4.90999985    2.76999998
   15.39750004  177.03900146    4.90999985    2.76999998
   15.40055561  178.08399963    4.90999985    2.75000000
   15.40388870  153.76400757    4.90999985    2.76999998
   15.40611076  193.00100708    4.90999985    2.75000000
   15.40749931  169.74800110    4.90999985    2.75000000
   15.41055489  181.43400574    4.90999985    2.76999998
   15.41666698  181.43400574    4.90999985    2.75000000
   15.42083359  161.48800659    4.90999985    2.76999998
   15.42416668  175.83900452    4.90999985    2.75000000
   15.42722225  181.35200500    4.90999985    2.75000000
   15.43055630  164.16200256    4.90999985    2.76999998
   15.43388939  167.82400513    4.90999985    2.76999998
   15.43694496  164.01499939    4.90999985    2.76999998
   15.43944454  158.61500549    4.90999985    2.78999996
   15.44083309  166.57099915    4.90999985    2.78999996
   15.44388866  172.02999878    4.90999985    2.78999996
   15.44722271  176.44400024    4.90999985    2.76999998
   15.45055580  159.78700256    4.90999985    2.76999998
   15.45361137  151.02200317    4.90999985    2.78999996
   15.45944405  151.02200317    4.90999985    2.76999998
   15.46361065  159.20100403    4.90999985    2.76999998
   15.46694374  155.24499512    4.90999985    2.76999998
   15.46999931  155.75999451    4.90999985    2.76999998
   15.47277737  169.18200684    4.90999985    2.76999998
   15.47388840  157.93899536    4.90999985    2.76999998
   15.47694397  172.69599915    4.90999985    2.78999996
   15.48027706  160.25300598    4.90999985    2.76999998
   15.48333359  142.03799438    4.90999985    2.75000000
   15.48666668  145.83700562    4.90999985    2.76999998
   15.49000072  162.63299561    4.90999985    2.76999998
   15.49305534  155.03199768    4.90999985    2.76999998
   15.49638939  156.71400452    4.90999985    2.76999998
   15.50249958  156.71400452    4.90999985    2.76999998
   15.50638866  163.69400024    4.90999985    2.78999996
   15.50972176  156.82499695    4.90999985    2.76999998
   15.51305580  155.15899658    4.90999985    2.78999996
   15.51611137  164.11900330    4.90999985    2.76999998
   15.51944447  148.54100037    4.90999985    2.75000000
   15.52250004  167.25500488    4.90999985    2.76999998
   15.52583313  162.62300110    4.90999985    2.76999998
   15.52916622  155.82699585    4.90999985    2.76999998
   15.53222179  172.69799805    4.90999985    2.75000000
   15.53555584  167.70100403    4.90999985    2.76999998
   15.53888893  150.27499390    4.90999985    2.75000000
   15.53944492  153.40100098    4.90999985    2.75000000
   15.54527855  153.40100098    4.90999985    2.76999998
   15.54944515  160.32299805    4.90999985    2.75000000
   15.55249977  184.56799316    4.90999985    2.75000000
   15.55583382  155.28300476    4.90999985    2.76999998
   15.55916691  154.65299988    4.90999985    2.75000000
   15.56222248  168.44299316    4.90999985    2.76999998
   15.56555557  162.95399475    4.90999985    2.75000000
   15.56888866  185.43499756    4.90999985    2.78999996
   15.57194424  166.97599792    4.90999985    2.75000000
   15.57277775  164.12199402    4.90999985    2.78999996
   15.57555580  168.81399536    4.90999985    2.75000000
   15.57861137  167.96200562    4.90999985    2.75000000
   15.58194447  188.08999634    4.90999985    2.75000000
   15.58805561  188.08999634    4.90999985    2.76999998
   15.59222221  162.69799805    4.90999985    2.76999998
   15.59555531  170.00900269    4.90999985    2.76999998
   15.59861088  170.53999329    4.90999985    2.76999998
   15.60194492  175.83000183    4.90999985    2.76999998
   15.60500050  159.91299438    4.90999985    2.75000000
   15.60611153  176.34399414    4.90999985    2.75000000
   15.60888958  145.92199707    4.90999985    2.75000000
   15.61194515  167.32299805    4.90999985    2.76999998
   15.61527824  153.96400452    4.90999985    2.76999998
   15.61861134  167.97099304    4.90999985    2.76999998
   15.62166691  165.21200562    4.90999985    2.75000000
   15.62500000  152.02900696    4.90999985    2.78999996
   15.63083363  152.02900696    4.90999985    2.75000000
   15.63500023  163.56300354    4.90999985    2.75000000
   15.63833332  157.85400391    4.90999985    2.78999996
   15.63944435  176.66400146    4.90999985    2.76999998
   15.64194393  163.68400574    4.90999985    2.76999998
   15.64499950  158.46000671    4.90999985    2.76999998
   15.64833355  165.34500122    4.90999985    2.76999998
   15.65166664  164.75900269    4.90999985    2.76999998
   15.65472221  164.05000305    4.90999985    2.76999998
   15.65805531  143.71800232    4.90999985    2.76999998
   15.66138840  168.51400757    4.90999985    2.76999998
   15.66444397  143.83500671    4.90999985    2.80999994
   15.66777802  157.07200623    4.90999985    2.78999996
   15.67388916  157.07200623    4.90999985    2.76999998
   15.67777824  146.54400635    4.90999985    2.78999996
   15.68111134  161.97000122    4.90999985    2.78999996
   15.68444443  161.91999817    4.90999985    2.76999998
   15.68750000  161.20899963    4.90999985    2.76999998
   15.69083309  167.76699829    4.90999985    2.75000000
   15.69416714  165.20899963    4.90999985    2.76999998
   15.69722271  168.88499451    4.90999985    2.76999998
   15.70055580  176.06300354    4.90999985    2.76999998
   15.70361137  167.17900085    4.90999985    2.75000000
   15.70611095  159.26400757    4.90999985    2.76999998
   15.70749950  174.03599548    4.90999985    2.76999998
   15.71055508  165.99299622    4.90999985    2.75000000
   15.71666622  165.99299622    4.90999985    2.76999998
   15.72083282  163.40199280    4.90999985    2.76999998
   15.72388840  166.67199707    4.90999985    2.76999998
   15.72722149  170.72700500    4.90999985    2.75000000
   15.73055553  158.07600403    4.90999985    2.76999998
   15.73361111  176.19900513    4.90999985    2.76999998
   15.73694515  183.01100159    4.90999985    2.76999998
   15.73944473  153.10099792    4.90999985    2.76999998
   15.74055576  170.04499817    4.90999985    2.76999998
   15.74361134  191.05099487    4.90999985    2.76999998
   15.74694443  163.59899902    4.90999985    2.78999996
   15.75027752  160.52999878    4.90999985    2.76999998
   15.75333309  172.36300659    4.90999985    2.78999996
   15.75944424  172.36300659    4.90999985    2.76999998
   15.76361084  153.32800293    4.90999985    2.76999998
   15.76694393  168.19799805    4.90999985    2.76999998
   15.76999950  162.88000488    4.90999985    2.76999998
   15.77277756  151.88299561    4.90999985    2.76999998
   15.77361107  150.01400757    4.90999985    2.76999998
   15.77666664  160.24499512    4.90999985    2.76999998
   15.77999973  164.91499329    4.90999985    2.76999998
   15.78333378  159.27499390    4.90999985    2.76999998
   15.78638935  162.57000732    4.90999985    2.78999996
   15.78972244  164.95500183    4.90999985    2.78999996
   15.79277802  156.11300659    4.90999985    2.76999998
   15.79611111  158.56599426    4.90999985    2.76999998
   15.80222225  158.56599426    4.90999985    2.76999998
   15.80638885  160.73800659    4.90999985    2.76999998
   15.80972195  157.31799316    4.90999985    2.76999998
   15.81277752  167.43800354    4.90999985    2.78999996
   15.81611156  166.85299683    4.90999985    2.76999998
   15.81944466  162.01499939    4.90999985    2.76999998
   15.82250023  148.98199463    4.90999985    2.76999998
   15.82583332  158.28599548    4.90999985    2.78999996
   15.82916641  161.13499451    4.90999985    2.76999998
   15.83222198  154.21299744    4.90999985    2.76999998
   15.83555508  155.97500610    4.90999985    2.76999998
   15.83888817  159.20700073    4.90999985    2.76999998
   15.83944416  140.85600281    4.90999985    2.76999998
   15.84527779  140.85600281    4.90999985    2.76999998
   15.84916592  158.93299866    4.90999985    2.76999998
   15.85249996  165.44500732    4.90999985    2.76999998
   15.85583401  154.39599609    4.90999985    2.76999998
   15.85888958  142.44099426    4.90999985    2.78999996
   15.86222267  176.37199402    4.90999985    2.76999998
   15.86527824  168.38800049    4.90999985    2.76999998
   15.86861134  180.60299683    4.90999985    2.76999998
   15.87194443  172.85699463    4.90999985    2.76999998
   15.87277794  162.38200378    4.90999985    2.76999998
   15.87555599  213.32000732    4.90999985    2.76999998
   15.87861156  178.20500183    4.90999985    2.76999998
   15.88194466  181.32099915    4.90999985    2.76999998
   15.88805580  181.32099915    4.90999985    2.78999996
   15.89222240  183.05700684    4.90999985    2.76999998
   15.89527798  188.59399414    4.90999985    2.76999998
   15.89861107  179.41499329    4.90999985    2.76999998
   15.90166664  168.02900696    4.90999985    2.76999998
   15.90499973  155.75399780    4.90999985    2.76999998
   15.90611076  177.57200623    4.90999985    2.76999998
   15.90861034  171.39799500    4.90999985    2.76999998
   15.91166592  176.08099365    4.90999985    2.76999998
   15.91499996  173.33900452    4.90999985    2.75000000
   15.91833401  183.19900513    4.90999985    2.76999998
   15.92138958  185.77900696    4.90999985    2.78999996
   15.92472267  172.15299988    4.90999985    2.78999996
   15.93083382  172.15299988    4.90999985    2.78999996
   15.93500042  179.81700134    4.90999985    2.78999996
   15.93805599  187.96099854    4.90999985    2.76999998
   15.93944454  194.35800171    4.90999985    2.78999996
   15.94194412  199.96499634    4.90999985    2.78999996
   15.94499969  201.26300049    4.90999985    2.78999996
   15.94833374  178.01699829    4.90999985    2.78999996
   15.95166683  176.83399963    4.90999985    2.78999996
   15.95472240  196.13299561    4.90999985    2.78999996
   15.95805550  193.59399414    4.90999985    2.76999998
   15.96138859  219.78900146    4.90999985    2.78999996
   15.96444416  173.18299866    4.90999985    2.78999996
   15.96777725  195.71499634    4.90999985    2.78999996
   15.97361088  195.71499634    4.90999985    2.76999998
   15.97777748  171.38400269    4.90999985    2.76999998
   15.98111057  181.18099976    4.90999985    2.76999998
   15.98416710  190.59300232    4.90999985    2.78999996
   15.98750019  190.74899292    4.90999985    2.76999998
   15.99083328  177.29800415    4.90999985    2.78999996
   15.99388885  188.20199585    4.90999985    2.78999996
   15.99722290  183.69599915    4.90999985    2.76999998
   16.00027847  189.11799622    4.90999985    2.78999996
   16.00361061  196.65299988    4.90999985    2.78999996
   16.00611115  181.71400452    4.90999985    2.76999998
   16.00722313  182.31599426    4.90999985    2.76999998
   16.01027870  199.29699707    4.90999985    2.78999996
   16.01666641  199.29699707    4.90999985    2.76999998
   16.02055550  180.89599609    4.90999985    2.76999998
   16.02388954  201.02200317    4.90999985    2.76999998
   16.02722168  215.37800598    4.90999985    2.76999998
   16.03027725  210.88400269    4.90999985    2.76999998
   16.03361130  189.28900146    4.90999985    2.78999996
   16.03666687  195.37199402    4.90999985    2.76999998
   16.03944397  209.99200439    4.90999985    2.76999998
   16.04055595  190.72200012    4.90999985    2.76999998
   16.04388809  200.16499329    4.90999985    2.76999998
   16.04694366  220.76199341    4.90999985    2.75000000
   16.05027771  215.10800171    4.90999985    2.76999998
   16.05333328  195.08700562    4.90999985    2.76999998
   16.05944443  195.08700562    4.90999985    2.76999998
   16.06361008  172.51699829    4.90999985    2.76999998
   16.06666756  170.88999939    4.90999985    2.76999998
   16.07000160  176.02099609    4.90999985    2.76999998
   16.07277870  194.41499329    4.90999985    2.75000000
   16.07361221  167.72900391    4.90999985    2.76999998
   16.07694626  169.88200378    4.90999985    2.75000000
   16.08000183  165.40400696    4.90999985    2.75000000
   16.08333397  168.95500183    4.90999985    2.76999998
   16.08638954  186.34700012    4.90999985    2.76999998
   16.08972359  179.21600342    4.90999985    2.75000000
   16.09305573  168.14999390    4.90999985    2.76999998
   16.09611130  163.26899719    4.90999985    2.76999998
   16.10222244  163.26899719    4.90999985    2.75000000
   16.10639000  180.82899475    4.90999985    2.75000000
   16.10944557  165.53700256    4.90999985    2.76999998
   16.11277771  181.24600220    4.90999985    2.75000000
   16.11611176  152.67999268    4.90999985    2.76999998
   16.11916733  164.41700745    4.90999985    2.76999998
   16.12249947  188.49699402    4.90999985    2.76999998
   16.12583351  165.18800354    4.90999985    2.78999996
   16.12888908  189.55999756    4.90999985    2.76999998
   16.13222313  178.34800720    4.90999985    2.76999998
   16.13527679  196.66299438    4.90999985    2.76999998
   16.13861084  182.00700378    4.90999985    2.78999996
   16.13944435  175.38400269    4.90999985    2.76999998
   16.16027832  175.38400269    4.90999985    2.76999998
   16.16444397  183.77799988    4.90999985    2.76999998
   16.16749954  200.42599487    4.90999985    2.76999998
   16.17083359  175.55700684    4.90999985    2.78999996
   16.17277718  177.96800232    4.90999985    2.76999998
   16.17444420  175.37399292    4.90999985    2.76999998
   16.17777634  173.16700745    4.90999985    2.76999998
   16.18083191  183.01199341    4.90999985    2.76999998
   16.18416595  182.09899902    4.90999985    2.76999998
   16.18750000  160.65899658    4.90999985    2.76999998
   16.19055557  169.86700439    4.90999985    2.76999998
   16.19388771  162.33000183    4.90999985    2.76999998
   16.19694328  175.36300659    4.90999985    2.76999998
   16.20305634  175.36300659    4.90999985    2.76999998
   16.20722389  171.24400330    4.90999985    2.76999998
   16.21027946  169.36000061    4.90999985    2.78999996
   16.21361160  176.38499451    4.90999985    2.78999996
   16.21694565  173.81599426    4.90999985    2.76999998
   16.22000122  181.83299255    4.90999985    2.76999998
   16.22333336  168.82299805    4.90999985    2.76999998
   16.22638893  177.33599854    4.90999985    2.76999998
   16.22972298  175.15499878    4.90999985    2.78999996
   16.23305511  166.24299622    4.90999985    2.78999996
   16.23611069  180.69299316    4.90999985    2.76999998
   16.23944473  150.97799683    4.90999985    2.76999998
   16.23999977  181.54100037    4.90999985    2.76999998
   16.24583435  181.54100037    4.90999985    2.78999996
   16.25000000  190.04699707    4.90999985    2.76999998
   16.25333405  175.59300232    4.90999985    2.76999998
   16.25638962  184.95700073    4.90999985    2.76999998
   16.25972176  189.15299988    4.90999985    2.76999998
   16.26277733  184.25300598    4.90999985    2.76999998
   16.26611137  186.41900635    4.90999985    2.76999998
   16.26944351  190.64100647    4.90999985    2.78999996
   16.27249908  175.83900452    4.90999985    2.76999998
   16.27333260  190.28599548    4.90999985    2.76999998
   16.27638817  175.33799744    4.90999985    2.78999996
   16.27944374  193.58799744    4.90999985    2.76999998
   16.28277779  194.54699707    4.90999985    2.76999998
   16.28861046  194.54699707    4.90999985    2.76999998
   16.29277802  203.26600647    4.90999985    2.76999998
   16.29611015  181.73800659    4.90999985    2.76999998
   16.29916573  189.66700745    4.90999985    2.76999998
   16.30249977  166.30799866    4.90999985    2.76999998
   16.30583191  177.43699646    4.90999985    2.76999998
   16.30666542  173.28700256    4.90999985    2.75000000
   16.30944443  180.98100281    4.90999985    2.75000000
   16.31250000  184.86399841    4.90999985    2.76999998
   16.31583214  216.35400391    4.90999985    2.76999998
   16.31888962  206.01899719    4.90999985    2.75000000
   16.32222366  203.20700073    4.90999985    2.76999998
   16.32555580  200.17500305    4.90999985    2.76999998
   16.33166695  200.17500305    4.90999985    2.76999998
   16.33555603  211.36300659    4.90999985    2.78999996
   16.33889008  206.80299377    4.90999985    2.76999998
   16.34000015  193.34300232    4.90999985    2.78999996
   16.34250069  211.13699341    4.90999985    2.76999998
   16.34555626  185.51899719    4.90999985    2.78999996
   16.34889030  209.96299744    4.90999985    2.78999996
   16.35194397  228.28399658    4.90999985    2.76999998
   16.35527802  232.54299927    4.90999985    2.76999998
   16.35861206  227.67999268    4.90999985    2.76999998
   16.36166763  207.29499817    4.90999985    2.76999998
   16.36499977  217.63600159    4.90999985    2.76999998
   16.36833382  223.38900757    4.90999985    2.76999998
   16.37444496  223.38900757    4.90999985    2.78999996
   16.37861061  209.48399353    4.90999985    2.76999998
   16.38166618  250.91200256    4.90999985    2.76999998
   16.38500023  216.16900635    4.90999985    2.76999998
   16.38833237  217.25700378    4.90999985    2.76999998
   16.39138794  230.11500549    4.90999985    2.75000000
   16.39472198  229.15400696    4.90999985    2.75000000
   16.39777756  273.96099854    4.90999985    2.75000000
   16.40111160  238.66000366    4.90999985    2.75000000
   16.40444374  245.75100708    4.90999985    2.76999998
   16.40666580  218.27099609    4.90999985    2.76999998
   16.40805435  246.61900330    4.90999985    2.76999998
   16.41110992  299.63101196    4.90999985    2.76999998
   16.41722107  299.63101196    4.90999985    2.76999998
   16.42138863  260.42498779    4.90999985    2.75000000
   16.42472076  283.02499390    4.90999985    2.76999998
   16.42777634  265.17199707    4.90999985    2.75000000
   16.43111038  240.12800598    4.90999985    2.75000000
   16.43416595  236.94999695    4.90999985    2.76999998
   16.43750000  238.87399292    4.90999985    2.76999998
   16.43999863  241.87300110    4.90999985    2.76999998
   16.44138718  221.52499390    4.90999985    2.76999998
   16.44444275  235.46299744    4.90999985    2.76999998
   16.44777679  266.85598755    4.90999985    2.76999998
   16.45083427  234.27799988    4.90999985    2.76999998
   16.45416832  227.77900696    4.90999985    2.75000000
   16.46000099  227.77900696    4.90999985    2.76999998
   16.46416664  247.95300293    4.90999985    2.75000000
   16.46750069  242.88499451    4.90999985    2.76999998
   16.47055626  243.89100647    4.90999985    2.76999998
   16.47333336  219.67199707    4.90999985    2.76999998
   16.47444534  252.36000061    4.90999985    2.76999998
   16.47750092  232.63200378    4.90999985    2.76999998
   16.48083305  248.96800232    4.90999985    2.75000000
   16.48388863  211.94999695    4.90999985    2.76999998
   16.48722267  245.33399963    4.90999985    2.75000000
   16.49055672  251.30900574    4.90999985    2.75000000
   16.49388885  240.45799255    4.90999985    2.75000000
   16.49694443  231.73899841    4.90999985    2.75000000
   16.50277710  231.73899841    4.90999985    2.75000000
   16.50694466  220.02000427    4.90999985    2.75000000
   16.51027870  231.95399475    4.90999985    2.75000000
   16.51361084  195.73100281    4.90999985    2.75000000
   16.51666641  234.32000732    4.90999985    2.75000000
   16.52000046  214.67399597    4.90999985    2.75000000
   16.52305603  220.95599365    4.90999985    2.75000000
   16.52638817  233.32899475    4.90999985    2.75000000
   16.52972221  226.67900085    4.90999985    2.76999998
   16.53277779  223.47900391    4.90999985    2.75000000
   16.53610992  216.64300537    4.90999985    2.75000000
   16.53944397  218.08099365    4.90999985    2.76999998
   16.53999901  229.89799500    4.90999985    2.75000000
   16.54583359  229.89799500    4.90999985    2.76999998
   16.54999924  195.71499634    4.90999985    2.76999998
   16.55305481  204.12800598    4.90999985    2.76999998
   16.55638885  236.35000610    4.90999985    2.76999998
   16.55944443  208.53100586    4.90999985    2.76999998
   16.56277657  201.55200195    4.90999985    2.76999998
   16.56611061  204.60400391    4.90999985    2.75000000
   16.56916809  207.51100159    4.90999985    2.75000000
   16.57250023  197.18299866    4.90999985    2.76999998
   16.57333374  182.74899292    4.90999985    2.75000000
   16.57611275  203.55400085    4.90999985    2.76999998
   16.57916832  198.86300659    4.90999985    2.76999998
   16.58250046  198.13499451    4.90999985    2.78999996
   16.58861160  198.13499451    4.90999985    2.76999998
   16.59277916  208.59300232    4.90999985    2.78999996
   16.59583473  199.13699341    4.90999985    2.76999998
   16.59916687  221.27600098    4.90999985    2.76999998
   16.60250092  193.37600708    4.90999985    2.76999998
   16.60555649  183.72700500    4.90999985    2.76999998
   16.60666656  216.55400085    4.90999985    2.76999998
   16.60944557  197.68800354    4.90999985    2.76999998
   16.61250114  199.58700562    4.90999985    2.76999998
   16.61583328  191.40100098    4.90999985    2.76999998
   16.61916733  204.58200073    4.90999985    2.75000000
   16.62222290  227.48399353    4.90999985    2.76999998
   16.62555504  196.99899292    4.90999985    2.75000000
   16.63138962  196.99899292    4.90999985    2.78999996
   16.63555527  193.53799438    4.90999985    2.76999998
   16.63888931  168.90400696    4.90999985    2.76999998
   16.63999939  166.25700378    4.90999985    2.76999998
   16.64249992  167.24800110    4.90999985    2.76999998
   16.64555550  187.27099609    4.90999985    2.78999996
   16.64888954  183.66600037    4.90999985    2.75000000
   16.65222168  205.28300476    4.90999985    2.76999998
   16.65527725  183.98300171    4.90999985    2.76999998
   16.65861130  174.81500244    4.90999985    2.78999996
   16.66194344  173.64900208    4.90999985    2.78999996
   16.66499901  168.75599670    4.90999985    2.78999996
   16.66833305  191.67900085    4.90999985    2.76999998
   16.67416573  191.67900085    4.90999985    2.76999998
   16.67833328  167.15299988    4.90999985    2.76999998
   16.68166542  189.79600525    4.90999985    2.76999998
   16.68499947  182.37100220    4.90999985    2.78999996
   16.68805504  187.18200684    4.90999985    2.76999998
   16.69138718  185.67100525    4.90999985    2.76999998
   16.69444275  193.10099792    4.90999985    2.78999996
   16.69777679  181.64799500    4.90999985    2.76999998
   16.70111275  175.40600586    4.90999985    2.76999998
   16.70416832  170.81700134    4.90999985    2.78999996
   16.70666695  190.05799866    4.90999985    2.76999998
   16.70805550  166.32699585    4.90999985    2.76999998
   16.71111107  169.18400574    4.90999985    2.76999998
   16.71722221  169.18400574    4.90999985    2.76999998
   16.72138977  169.82099915    4.90999985    2.76999998
   16.72444534  190.85000610    4.90999985    2.76999998
   16.72777748  168.70599365    4.90999985    2.78999996
   16.73083305  177.50700378    4.90999985    2.78999996
   16.73416710  173.61199951    4.90999985    2.76999998
   16.73750114  184.43200684    4.90999985    2.78999996
   16.73999977  173.31599426    4.90999985    2.76999998
   16.74111176  174.28799438    4.90999985    2.76999998
   16.74444389  176.61000061    4.90999985    2.76999998
   16.74749947  165.04800415    4.90999985    2.76999998
   16.75083351  177.39900208    4.90999985    2.76999998
   16.75388908  165.34700012    4.90999985    2.76999998
   16.76000023  165.34700012    4.90999985    2.78999996
   16.76416588  173.52000427    4.90999985    2.78999996
   16.76722145  169.05200195    4.90999985    2.76999998
   16.77055550  186.39500427    4.90999985    2.76999998
   16.77333260  160.37300110    4.90999985    2.76999998
   16.77416611  168.07699585    4.90999985    2.76999998
   16.77722168  157.53799438    4.90999985    2.76999998
   16.78055573  171.86700439    4.90999985    2.78999996
   16.78388786  168.69200134    4.90999985    2.76999998
   16.78694344  179.05999756    4.90999985    2.75000000
   16.79027748  173.79699707    4.90999985    2.76999998
   16.79333305  176.61999512    4.90999985    2.75000000
   16.79666710  197.47999573    4.90999985    2.76999998
   16.80277634  197.47999573    4.90999985    2.76999998
   16.80694389  195.42799377    4.90999985    2.78999996
   16.81027794  191.94400024    4.90999985    2.76999998
   16.81333351  185.33799744    4.90999985    2.76999998
   16.81666756  206.41099548    4.90999985    2.76999998
   16.82000160  208.93400574    4.90999985    2.76999998
   16.82305717  202.34899902    4.90999985    2.76999998
   16.82638931  215.60200500    4.90999985    2.76999998
   16.82944489  171.69500732    4.90999985    2.78999996
   16.83277893  204.69000244    4.90999985    2.76999998
   16.83611107  198.99000549    4.90999985    2.78999996
   16.83916664  224.45700073    4.90999985    2.76999998
   16.84000015  215.13999939    4.90999985    2.76999998
   16.84555626  215.13999939    4.90999985    2.76999998
   16.84972191  204.45899963    4.90999985    2.76999998
   16.85305595  203.17100525    4.90999985    2.76999998
   16.85639000  189.29299927    4.90999985    2.76999998
   16.85944557  209.65499878    4.90999985    2.76999998
   16.86277771  212.80599976    4.90999985    2.76999998
   16.86583328  188.75300598    4.90999985    2.76999998
   16.86916733  192.81599426    4.90999985    2.78999996
   16.87249947  208.38499451    4.90999985    2.76999998
   16.87333298  182.05299377    4.90999985    2.76999998
   16.87611198  183.87800598    4.90999985    2.78999996
   16.87916756  209.36000061    4.90999985    2.76999998
   16.88249969  196.11500549    4.90999985    2.76999998
   16.88861084  196.11500549    4.90999985    2.76999998
   16.89277840  188.32800293    4.90999985    2.76999998
   16.89583397  175.71699524    4.90999985    2.78999996
   16.89916611  173.87399292    4.90999985    2.78999996
   16.90222168  188.89700317    4.90999985    2.78999996
   16.90555573  178.90600586    4.90999985    2.78999996
   16.90666580  179.13200378    4.90999985    2.76999998
   16.90916634  181.82000732    4.90999985    2.76999998
   16.91222191  184.22500610    4.90999985    2.76999998
   16.91555595  181.16400146    4.90999985    2.76999998
   16.91888809  182.57200623    4.90999985    2.76999998
   16.92194366  169.32400513    4.90999985    2.76999998
   16.92527771  184.36700439    4.90999985    2.75000000
   16.93138885  184.36700439    4.90999985    2.76999998
   16.93555450  183.96200562    4.90999985    2.76999998
   16.93861008  165.38600159    4.90999985    2.75000000
   16.93999863  177.69000244    4.90999985    2.76999998
   16.94249916  167.44500732    4.90999985    2.76999998
   16.94555473  165.80000305    4.90999985    2.75000000
   16.94888878  169.57299805    4.90999985    2.76999998
   16.95222282  170.02699280    4.90999985    2.75000000
   16.95527840  172.74600220    4.90999985    2.76999998
   16.95861244  174.05099487    4.90999985    2.76999998
   16.96194458  182.82699585    4.90999985    2.76999998
   16.96500015  170.52600098    4.90999985    2.75000000
   16.96833420  177.28300476    4.90999985    2.76999998
   16.97416687  177.28300476    4.90999985    2.76999998
   16.97833443  170.49099731    4.90999985    2.76999998
   16.98166656  175.68899536    4.90999985    2.76999998
   16.98472214  176.98899841    4.90999985    2.76999998
   16.98805618  186.92500305    4.90999985    2.75000000
   16.99138832  195.30200195    4.90999985    2.76999998
   16.99444389  166.90299988    4.90999985    2.76999998
   16.99777794  172.79100037    4.90999985    2.76999998
   17.00111198  183.00000000    4.90999985    2.76999998
   17.00416756  182.84800720    4.90999985    2.76999998
   17.00666618  198.49299622    4.90999985    2.76999998
   17.00777817  170.86999512    4.90999985    2.78999996
   17.01083374  187.80700684    4.90999985    2.76999998
   17.01694489  187.80700684    4.90999985    2.76999998
   17.02111053  184.44999695    4.90999985    2.78999996
   17.02444458  191.62600708    4.90999985    2.76999998
   17.02777672  190.68499756    4.90999985    2.76999998
   17.03083229  174.54299927    4.90999985    2.76999998
   17.03416634  170.38699341    4.90999985    2.76999998
   17.03722191  177.81199646    4.90999985    2.76999998
   17.03999901  174.79499817    4.90999985    2.76999998
   17.04111099  171.70300293    4.90999985    2.76999998
   17.04444313  182.31199646    4.90999985    2.76999998
   17.04749870  200.36300659    4.90999985    2.76999998
   17.05083275  185.72999573    4.90999985    2.75000000
   17.05388832  190.94500732    4.90999985    2.76999998
   17.05999947  190.94500732    4.90999985    2.76999998
   17.06416512  176.50900269    4.90999985    2.76999998
   17.06722260  219.41700745    4.90999985    2.76999998
   17.07055664  219.82400513    4.90999985    2.76999998
   17.07333374  177.16400146    4.90999985    2.78999996
   17.07416725  178.04699707    4.90999985    2.78999996
   17.07750130  175.49200439    4.90999985    2.78999996
   17.08055687  174.59100342    4.90999985    2.76999998
   17.08388901  213.09300232    4.90999985    2.78999996
   17.08694458  195.94200134    4.90999985    2.76999998
   17.09027863  171.07099915    4.90999985    2.78999996
   17.09361267  191.39100647    4.90999985    2.76999998
   17.09666824  176.04800415    4.90999985    2.78999996
   17.10277748  176.04800415    4.90999985    2.76999998
   17.10694504  181.28300476    4.90999985    2.76999998
   17.11000061  167.21699524    4.90999985    2.76999998
   17.11333466  200.72999573    4.90999985    2.76999998
   17.11666679  173.54600525    4.90999985    2.78999996
   17.11972237  172.70500183    4.90999985    2.78999996
   17.12305641  161.72700500    4.90999985    2.76999998
   17.12638855  172.96899414    4.90999985    2.78999996
   17.12944412  171.78300476    4.90999985    2.76999998
   17.13277817  155.08599854    4.90999985    2.76999998
   17.13583374  170.29400635    4.90999985    2.76999998
   17.13916588  165.24299622    4.90999985    2.76999998
   17.13999939  167.34700012    4.90999985    2.76999998
   17.14555550  167.34700012    4.90999985    2.78999996
   17.14972115  165.50300598    4.90999985    2.76999998
   17.15305519  163.52200317    4.90999985    2.76999998
   17.15611076  148.84300232    4.90999985    2.76999998
   17.17388916  155.44200134    4.90999985    2.75000000
   17.17611122  166.12100220    4.90999985    2.76999998
   17.17944336  160.59500122    4.90999985    2.78999996
   17.18277740  162.46899414    4.90999985    2.78999996
   17.18861008  162.46899414    4.90999985    2.76999998
   17.19277763  167.43200684    4.90999985    2.75000000
   17.19610977  243.29800415    4.90999985    2.76999998
   17.19916534  242.87399292    4.90999985    2.75000000
   17.20250130  216.67300415    4.90999985    2.75000000
   17.20555687  249.88800049    4.90999985    2.75000000
   17.20694542  290.95300293    4.90999985    2.76999998
   17.20944595  173.91700745    4.90999985    2.76999998
   17.21277809  191.30400085    4.90999985    2.76999998
   17.21583366  201.63600159    4.90999985    2.76999998
   17.21916771  211.62399292    4.90999985    2.76999998
   17.22249985  207.18600464    4.90999985    2.76999998
   17.22555542  225.51800537    4.90999985    2.78999996
   17.23139000  225.51800537    4.90999985    2.76999998
   17.23555565  200.36199951    4.90999985    2.76999998
   17.23888969  223.97999573    4.90999985    2.76999998
   17.24027824  228.42900085    4.90999985    2.76999998
   17.24250031  215.67999268    4.90999985    2.76999998
   17.24583435  208.33900452    4.90999985    2.75000000
   17.24888992  196.70599365    4.90999985    2.76999998
   17.25222206  225.09899902    4.90999985    2.76999998
   17.25555611  224.63600159    4.90999985    2.76999998
   17.25861168  200.11599731    4.90999985    2.76999998
   17.26194382  227.85400391    4.90999985    2.76999998
   17.26527786  192.76100159    4.90999985    2.76999998
   17.26833344  203.94799805    4.90999985    2.76999998
   17.27444458  203.94799805    4.90999985    2.76999998
   17.27833366  191.03199768    4.90999985    2.76999998
   17.28166580  208.03399658    4.90999985    2.76999998
   17.28499985  206.46600342    4.90999985    2.76999998
   17.28805542  174.64500427    4.90999985    2.76999998
   17.29138756  172.40800476    4.90999985    2.76999998
   17.29472160  169.32899475    4.90999985    2.76999998
   17.29777718  171.55400085    4.90999985    2.76999998
   17.30111122  179.47200012    4.90999985    2.76999998
   17.30416679  178.47099304    4.90999985    2.76999998
   17.30694389  178.10499573    4.90999985    2.76999998
   17.30777740  179.30900574    4.90999985    2.76999998
   17.31110954  170.38600159    4.90999985    2.76999998
   17.31722260  170.38600159    4.90999985    2.76999998
   17.32139015  163.72200012    4.90999985    2.78999996
   17.32444572  181.78799438    4.90999985    2.78999996
   17.32777786  165.07899475    4.90999985    2.78999996
   17.33111191  168.80700684    4.90999985    2.76999998
   17.33416748  169.68699646    4.90999985    2.76999998
   17.33750153  174.51899719    4.90999985    2.76999998
   17.34027863  167.34300232    4.90999985    2.76999998
   17.34111214  177.35899353    4.90999985    2.76999998
   17.34444427  175.67199707    4.90999985    2.76999998
   17.34749985  170.64300537    4.90999985    2.76999998
   17.35083389  182.61599731    4.90999985    2.76999998
   17.35416794  177.23300171    4.90999985    2.76999998
   17.36000061  177.23300171    4.90999985    2.78999996
   17.36416626  168.41600037    4.90999985    2.76999998
   17.36750031  170.52400208    4.90999985    2.76999998
   17.37055588  175.82800293    4.90999985    2.76999998
   17.37361145  170.31100464    4.90999985    2.76999998
   17.37416649  169.55000305    4.90999985    2.76999998
   17.37750053  167.43299866    4.90999985    2.76999998
   17.38055611  174.53799438    4.90999985    2.76999998
   17.38388824  167.94400024    4.90999985    2.76999998
   17.38722229  172.50199890    4.90999985    2.76999998
   17.39027786  169.63400269    4.90999985    2.76999998
   17.39361191  168.22900391    4.90999985    2.78999996
   17.39666748  164.41400146    4.90999985    2.76999998
   17.40277672  164.41400146    4.90999985    2.76999998
   17.40694427  164.28900146    4.90999985    2.78999996
   17.40749931  158.51899719    4.90999985    2.78999996
   17.41083336  161.38800049    4.90999985    2.75000000
   17.41388893  161.87300110    4.90999985    2.76999998
   17.41722107  161.53399658    4.90999985    2.76999998
   17.42055511  158.46299744    4.90999985    2.76999998
   17.42361069  164.45599365    4.90999985    2.78999996
   17.42694473  167.04600525    4.90999985    2.76999998
   17.43027687  162.73599243    4.90999985    2.78999996
   17.43333244  166.76400757    4.90999985    2.78999996
   17.43666649  166.79299927    4.90999985    2.78999996
   17.43972206  175.99899292    4.90999985    2.78999996
   17.44055557  156.78300476    4.90999985    2.78999996
   17.44583321  156.78300476    4.90999985    2.76999998
   17.44972038  164.01800537    4.90999985    2.78999996
   17.45305634  158.52900696    4.90999985    2.76999998
   17.45639038  163.44200134    4.90999985    2.78999996
   17.45944595  168.96600342    4.90999985    2.78999996
   17.46277809  170.22999573    4.90999985    2.78999996
   17.46611214  146.94400024    4.90999985    2.78999996
   17.46916771  150.30499268    4.90999985    2.78999996
   17.47249985  163.71600342    4.90999985    2.78999996
   17.47389030  166.86799622    4.90999985    2.76999998
   17.47611237  170.16900635    4.90999985    2.76999998
   17.47944450  162.50900269    4.90999985    2.78999996
   17.48250008  163.08700562    4.90999985    2.76999998
   17.48861122  163.08700562    4.90999985    2.76999998
   17.49277878  176.10000610    4.90999985    2.78999996
   17.49583435  169.75000000    4.90999985    2.76999998
   17.49916649  171.28999329    4.90999985    2.76999998
   17.50250053  182.54100037    4.90999985    2.75000000
   17.50555611  166.29800415    4.90999985    2.76999998
   17.50722313  179.72500610    4.90999985    2.76999998
   17.50916672  187.77600098    4.90999985    2.75000000
   17.51250076  164.99600220    4.90999985    2.76999998
   17.51555634  190.51100159    4.90999985    2.76999998
   17.51888847  176.98699951    4.90999985    2.76999998
   17.52222252  179.93400574    4.90999985    2.76999998
   17.52527809  188.68299866    4.90999985    2.75000000
   17.53138924  188.68299866    4.90999985    2.75000000
   17.53555489  183.41799927    4.90999985    2.78999996
   17.53888893  185.99000549    4.90999985    2.76999998
   17.54055595  182.31900024    4.90999985    2.75000000
   17.54222107  184.50000000    4.90999985    2.76999998
   17.54555511  175.81199646    4.90999985    2.76999998
   17.54861069  188.51100159    4.90999985    2.75000000
   17.55194283  168.46600342    4.90999985    2.75000000
   17.55527687  177.16400146    4.90999985    2.76999998
   17.55833244  179.80799866    4.90999985    2.76999998
   17.56166649  184.67700195    4.90999985    2.78999996
   17.56499863  189.64599609    4.90999985    2.76999998
   17.56805611  169.14399719    4.90999985    2.76999998
   17.57416725  169.14399719    4.90999985    2.76999998
   17.57833481  176.80099487    4.90999985    2.76999998
   17.58166695  187.47000122    4.90999985    2.76999998
   17.58500099  183.00700378    4.90999985    2.76999998
   17.58805656  199.88699341    4.90999985    2.75000000
   17.59138870  192.35499573    4.90999985    2.76999998
   17.59444427  196.62500000    4.90999985    2.76999998
   17.59777832  182.33500671    4.90999985    2.76999998
   17.60111237  183.53700256    4.90999985    2.76999998
   17.60416794  183.94700623    4.90999985    2.76999998
   17.60722351  182.97599792    4.90999985    2.76999998
   17.60777855  178.82299805    4.90999985    2.76999998
   17.61111069  189.26499939    4.90999985    2.76999998
   17.61722183  189.26499939    4.90999985    2.76999998
   17.62111092  193.07699585    4.90999985    2.76999998
   17.62444496  185.64700317    4.90999985    2.76999998
   17.62777710  190.83000183    4.90999985    2.76999998
   17.63083267  182.35600281    4.90999985    2.75000000
   17.63416672  195.81700134    4.90999985    2.76999998
   17.63750076  191.10200500    4.90999985    2.78999996
   17.64055634  205.12399292    4.90999985    2.76999998
   17.64083290  192.29200745    4.90999985    2.76999998
   17.64416695  197.17700195    4.90999985    2.76999998
   17.64722252  186.34399414    4.90999985    2.76999998
   17.65055466  204.36999512    4.90999985    2.76999998
   17.65388870  193.34300232    4.90999985    2.76999998
   17.65999985  193.34300232    4.90999985    2.76999998
   17.66416550  198.96800232    4.90999985    2.76999998
   17.66722107  186.89999390    4.90999985    2.75000000
   17.67055511  193.21400452    4.90999985    2.76999998
   17.67388916  183.47700500    4.90999985    2.76999998
   17.67416573  191.65100098    4.90999985    2.76999998
   17.67749977  177.25599670    4.90999985    2.76999998
   17.68055534  185.51400757    4.90999985    2.78999996
   17.68388748  176.12600708    4.90999985    2.75000000
   17.68722153  183.20799255    4.90999985    2.76999998
   17.69027710  182.50500488    4.90999985    2.76999998
   17.69361115  193.47700500    4.90999985    2.76999998
   17.69694328  191.72399902    4.90999985    2.75000000
   17.70277786  191.72399902    4.90999985    2.76999998
   17.70694542  184.35200500    4.90999985    2.76999998
   17.70750046  190.79299927    4.90999985    2.76999998
   17.71083450  173.00799561    4.90999985    2.76999998
   17.71389008  182.55200195    4.90999985    2.76999998
   17.71722221  194.90699768    4.90999985    2.76999998
   17.72027779  200.02099609    4.90999985    2.76999998
   17.72361183  184.80200195    4.90999985    2.76999998
   17.72694588  192.86199951    4.90999985    2.75000000
   17.73000145  185.17799377    4.90999985    2.76999998
   17.73333359  185.99200439    4.90999985    2.75000000
   17.73666763  175.17500305    4.90999985    2.75000000
   17.73972321  182.73599243    4.90999985    2.78999996
   17.74083328  197.83700562    4.90999985    2.76999998
   17.74555588  197.83700562    4.90999985    2.76999998
   17.74972153  181.61399841    4.90999985    2.75000000
   17.75305557  176.60800171    4.90999985    2.76999998
   17.75611115  180.78599548    4.90999985    2.76999998
   17.75944519  184.31100464    4.90999985    2.76999998
   17.76277733  184.16799927    4.90999985    2.76999998
   17.76611137  178.57200623    4.90999985    2.76999998
   17.76916695  185.60400391    4.90999985    2.75000000
   17.77249908  181.11700439    4.90999985    2.76999998
   17.77416611  183.22599792    4.90999985    2.76999998
   17.77611160  184.32000732    4.90999985    2.75000000
   17.77916718  186.07299805    4.90999985    2.75000000
   17.78249931  192.19799805    4.90999985    2.76999998
   17.78861046  192.19799805    4.90999985    2.75000000
   17.79249954  177.17300415    4.90999985    2.75000000
   17.79583359  187.23300171    4.90999985    2.78999996
   17.79916573  170.38999939    4.90999985    2.76999998
   17.80222130  168.27499390    4.90999985    2.76999998
   17.80555534  180.27200317    4.90999985    2.76999998
   17.80749893  169.77000427    4.90999985    2.76999998
   17.80944443  175.77799988    4.90999985    2.78999996
   17.81250000  180.66299438    4.90999985    2.76999998
   17.81583214  184.50599670    4.90999985    2.76999998
   17.81888962  174.37800598    4.90999985    2.76999998
   17.82222366  176.73800659    4.90999985    2.76999998
   17.82555580  175.19500732    4.90999985    2.78999996
   17.83139038  175.19500732    4.90999985    2.76999998
   17.83555603  186.09599304    4.90999985    2.76999998
   17.83861160  172.97200012    4.90999985    2.76999998
   17.84083366  167.71400452    4.90999985    2.78999996
   17.84250069  170.38400269    4.90999985    2.76999998
   17.84555626  180.91000366    4.90999985    2.76999998
   17.84889030  192.16200256    4.90999985    2.78999996
   17.85194397  180.22999573    4.90999985    2.76999998
   17.85527802  186.62100220    4.90999985    2.76999998
   17.85861206  172.06500244    4.90999985    2.78999996
   17.86166763  188.43200684    4.90999985    2.76999998
   17.86499977  170.04200745    4.90999985    2.78999996
   17.86833382  168.31100464    4.90999985    2.76999998
   17.87416649  168.31100464    4.90999985    2.76999998
   17.87833405  166.58900452    4.90999985    2.76999998
   17.88166618  182.80799866    4.90999985    2.78999996
   17.88472176  174.83900452    4.90999985    2.75000000
   17.88805580  172.99299622    4.90999985    2.78999996
   17.89111137  176.16200256    4.90999985    2.76999998
   17.89444351  180.61199951    4.90999985    2.76999998
   17.89777756  164.74699402    4.90999985    2.76999998
   17.90083313  184.42399597    4.90999985    2.76999998
   17.90416718  180.60699463    4.90999985    2.76999998
   17.90749931  176.16999817    4.90999985    2.76999998
   17.90777779  180.23199463    4.90999985    2.76999998
   17.91110992  176.55900574    4.90999985    2.76999998
   17.91694450  176.55900574    4.90999985    2.76999998
   17.92111015  180.73800659    4.90999985    2.78999996
   17.92444420  174.00300598    4.90999985    2.78999996
   17.92749977  175.55299377    4.90999985    2.76999998
   17.93083191  181.63600159    4.90999985    2.75000000
   17.93416595  167.16700745    4.90999985    2.76999998
   17.93722153  173.17199707    4.90999985    2.76999998
   17.94055557  180.74899292    4.90999985    2.76999998
   17.94111061  165.55299377    4.90999985    2.76999998
   17.94416618  173.25599670    4.90999985    2.75000000
   17.94749832  177.86599731    4.90999985    2.76999998
   17.95055580  166.61700439    4.90999985    2.75000000
   17.95388985  181.68499756    4.90999985    2.76999998
   17.96000099  181.68499756    4.90999985    2.76999998
   17.96389008  176.25999451    4.90999985    2.76999998
   17.96722221  175.44299316    4.90999985    2.76999998
   17.97055626  190.84500122    4.90999985    2.76999998
   17.97361183  185.44799805    4.90999985    2.75000000
   17.97472191  182.48800659    4.90999985    2.76999998
   17.97722244  180.15800476    4.90999985    2.76999998
   17.98055649  191.81900024    4.90999985    2.75000000
   17.98361206  182.72900391    4.90999985    2.76999998
   17.98694420  189.51600647    4.90999985    2.76999998
   17.99027824  172.34599304    4.90999985    2.76999998
   17.99333382  182.83500671    4.90999985    2.76999998
   17.99666786  189.04499817    4.90999985    2.76999998
   18.00277710  189.04499817    4.90999985    2.75000000
   18.00694466  208.23899841    4.90999985    2.76999998
   18.00805473  203.67900085    4.90999985    2.76999998
   18.01055527  185.03300476    4.90999985    2.76999998
   18.01388931  189.73300171    4.90999985    2.76999998
   18.01694489  184.36700439    4.90999985    2.76999998
   18.02027702  198.42999268    4.90999985    2.75000000
   18.02361107  194.44599915    4.90999985    2.75000000
   18.02666664  189.16400146    4.90999985    2.76999998
   18.03000069  195.77999878    4.90999985    2.75000000
   18.03333282  172.11700439    4.90999985    2.76999998
   18.03638840  176.75599670    4.90999985    2.75000000
   18.03972244  181.82400513    4.90999985    2.76999998
   18.04138756  184.58299255    4.90999985    2.76999998
   18.04555511  184.58299255    4.90999985    2.76999998
   18.04972076  197.38499451    4.90999985    2.76999998
   18.05305481  187.34500122    4.90999985    2.76999998
   18.05611038  184.21000671    4.90999985    2.76999998
   18.05944443  185.23599243    4.90999985    2.76999998
   18.06250000  188.06599426    4.90999985    2.75000000
   18.06583214  187.47700500    4.90999985    2.75000000
   18.06916809  192.67700195    4.90999985    2.75000000
   18.07222366  197.07400513    4.90999985    2.76999998
   18.07472229  193.78599548    4.90999985    2.76999998
   18.07583427  199.39199829    4.90999985    2.76999998
   18.07916832  197.24099731    4.90999985    2.75000000
   18.08222389  190.77400208    4.90999985    2.75000000
   18.08833313  190.77400208    4.90999985    2.75000000
   18.09250069  199.86099243    4.90999985    2.75000000
   18.09583473  193.17399597    4.90999985    2.76999998
   18.09916687  191.60200500    4.90999985    2.75000000
   18.10222244  183.13000488    4.90999985    2.75000000
   18.10555649  180.27200317    4.90999985    2.75000000
   18.10805511  193.99600220    4.90999985    2.75000000
   18.10916710  190.45599365    4.90999985    2.75000000
   18.11250114  187.89399719    4.90999985    2.75000000
   18.11555672  182.04699707    4.90999985    2.75000000
   18.11888885  186.46899414    4.90999985    2.75000000
   18.12222290  191.99600220    4.90999985    2.75000000
   18.12527847  181.89100647    4.90999985    2.76999998
   18.13138962  181.89100647    4.90999985    2.75000000
   18.13527679  186.60200500    4.90999985    2.75000000
   18.13861084  187.43400574    4.90999985    2.75000000
   18.14138794  182.70899963    4.90999985    2.75000000
   18.14222145  192.74600220    4.90999985    2.75000000
   18.14555550  194.58399963    4.90999985    2.75000000
   18.14861107  195.36500549    4.90999985    2.73000002
   18.15194321  200.90299988    4.90999985    2.75000000
   18.15527725  211.17399597    4.90999985    2.75000000
   18.15833282  200.83500671    4.90999985    2.75000000
   18.16166687  215.64199829    4.90999985    2.75000000
   18.16499901  197.07099915    4.90999985    2.73000002
   18.16805458  205.44799805    4.90999985    2.73000002
   18.17416573  205.44799805    4.90999985    2.73000002
   18.19249916  195.22399902    4.90999985    2.73000002
   18.19583321  198.89999390    4.90999985    2.75000000
   18.19888878  207.10600281    4.90999985    2.75000000
   18.20222282  216.72999573    4.90999985    2.75000000
   18.20527840  205.36000061    4.90999985    2.73000002
   18.20861244  213.33500671    4.90999985    2.73000002
   18.21194458  204.96899414    4.90999985    2.75000000
   18.21722221  204.96899414    4.90999985    2.75000000
   18.22138977  226.56300354    4.90999985    2.73000002
   18.22444534  191.83799744    4.90999985    2.75000000
   18.22555542  208.32299805    4.90999985    2.73000002
   18.22833443  207.18200684    4.90999985    2.73000002
   18.23139000  226.02499390    4.90999985    2.73000002
   18.23472214  206.32600403    4.90999985    2.75000000
   18.23777771  211.28399658    4.90999985    2.73000002
   18.24111176  200.52900696    4.90999985    2.75000000
   18.24444389  214.62699890    4.90999985    2.75000000
   18.24749947  210.66999817    4.90999985    2.75000000
   18.25083351  209.89700317    4.90999985    2.75000000
   18.25416756  210.45300293    4.90999985    2.75000000
   18.26000023  210.45300293    4.90999985    2.73000002
   18.26416588  205.04299927    4.90999985    2.75000000
   18.26749992  234.22700500    4.90999985    2.75000000
   18.27055550  202.85200500    4.90999985    2.75000000
   18.27388954  226.96499634    4.90999985    2.73000002
   18.27722168  230.88200378    4.90999985    2.75000000
   18.28027725  230.48599243    4.90999985    2.75000000
   18.28361130  235.01899719    4.90999985    2.75000000
   18.28694344  229.47300720    4.90999985    2.73000002
   18.28999901  213.57499695    4.90999985    2.75000000
   18.29222107  227.00300598    4.90999985    2.75000000
   18.29388809  216.80900574    4.90999985    2.73000002
   18.29694366  248.93099976    4.90999985    2.75000000
   18.30277634  248.93099976    4.90999985    2.75000000
   18.30694389  230.15699768    4.90999985    2.73000002
   18.31027794  239.81799316    4.90999985    2.75000000
   18.31361008  221.70500183    4.90999985    2.75000000
   18.31666756  238.37899780    4.90999985    2.75000000
   18.32000160  229.65800476    4.90999985    2.75000000
   18.32305717  260.07000732    4.90999985    2.73000002
   18.32555580  225.44200134    4.90999985    2.75000000
   18.32694626  243.74200439    4.90999985    2.73000002
   18.33000183  232.04800415    4.90999985    2.73000002
   18.33333397  233.23800659    4.90999985    2.75000000
   18.33666801  256.50601196    4.90999985    2.75000000
   18.33972359  269.94601440    4.90999985    2.75000000
   18.34583473  269.94601440    4.90999985    2.75000000
   18.35000038  237.52699280    4.90999985    2.73000002
   18.35305595  237.76100159    4.90999985    2.73000002
   18.35639000  252.80299377    4.90999985    2.75000000
   18.35888863  242.39799500    4.90999985    2.73000002
   18.36000061  249.50900269    4.90999985    2.73000002
   18.36305618  230.61900330    4.90999985    2.73000002
   18.36638832  241.70599365    4.90999985    2.75000000
   18.36972237  253.08599854    4.90999985    2.75000000
   18.37277794  260.73699951    4.90999985    2.75000000
   18.37611198  257.68899536    4.90999985    2.73000002
   18.37916756  279.11499023    4.90999985    2.73000002
   18.38249969  247.27799988    4.90999985    2.71000004
   18.38861084  247.27799988    4.90999985    2.73000002
   18.39277840  242.90400696    4.90999985    2.73000002
   18.39583397  271.82598877    4.90999985    2.73000002
   18.39916611  262.81399536    4.90999985    2.73000002
   18.40250015  238.11700439    4.90999985    2.73000002
   18.40555573  234.32699585    4.90999985    2.73000002
   18.40888786  243.19200134    4.90999985    2.75000000
   18.41222191  258.57699585    4.90999985    2.75000000
   18.41527748  252.76899719    4.90999985    2.73000002
   18.41860962  220.82200623    4.90999985    2.73000002
   18.42166519  223.50199890    4.90999985    2.73000002
   18.42499924  268.89801025    4.90999985    2.71000004
   18.42555428  259.95800781    4.90999985    2.73000002
   18.43138885  259.95800781    4.90999985    2.71000004
   18.43555450  240.63099670    4.90999985    2.73000002
   18.43888855  228.24699402    4.90999985    2.71000004
   18.44194412  230.45700073    4.90999985    2.71000004
   18.44527626  232.21499634    4.90999985    2.73000002
   18.44861031  251.46800232    4.90999985    2.73000002
   18.45166779  223.35699463    4.90999985    2.73000002
   18.45499992  233.52400208    4.90999985    2.73000002
   18.45833397  238.34399414    4.90999985    2.73000002
   18.45888901  238.53999329    4.90999985    2.73000002
   18.46194458  236.01800537    4.90999985    2.73000002
   18.46500015  255.53500366    4.90999985    2.73000002
   18.46833420  232.62300110    4.90999985    2.73000002
   18.47416687  232.62300110    4.90999985    2.73000002
   18.47833443  242.89300537    4.90999985    2.71000004
   18.48166656  232.42300415    4.90999985    2.73000002
   18.48472214  234.92599487    4.90999985    2.73000002
   18.48805618  239.06100464    4.90999985    2.73000002
   18.49138832  231.29800415    4.90999985    2.71000004
   18.49222183  216.78399658    4.90999985    2.71000004
   18.49500084  208.37600708    4.90999985    2.71000004
   18.49805641  208.02099609    4.90999985    2.73000002
   18.50138855  225.25000000    4.90999985    2.73000002
   18.50472260  243.71499634    4.90999985    2.73000002
   18.50777817  242.42399597    4.90999985    2.73000002
   18.51111031  209.03700256    4.90999985    2.73000002
   18.51722145  209.03700256    4.90999985    2.73000002
   18.52111053  216.34399414    4.90999985    2.71000004
   18.52444458  216.67599487    4.90999985    2.71000004
   18.52555466  221.53599548    4.90999985    2.73000002
   18.52805519  225.89500427    4.90999985    2.71000004
   18.53111076  193.63699341    4.90999985    2.71000004
   18.53444481  233.42399597    4.90999985    2.73000002
   18.53777695  214.02000427    4.90999985    2.73000002
   18.54083252  242.25599670    4.90999985    2.73000002
   18.54416656  218.33500671    4.90999985    2.73000002
   18.54749870  202.72000122    4.90999985    2.73000002
   18.55055428  218.28300476    4.90999985    2.73000002
   18.55388832  220.13299561    4.90999985    2.71000004
   18.55999947  220.13299561    4.90999985    2.73000002
   18.56416512  184.34199524    4.90999985    2.73000002
   18.56722260  194.55099487    4.90999985    2.73000002
   18.57055664  202.39500427    4.90999985    2.73000002
   18.57389069  213.44900513    4.90999985    2.73000002
   18.57694626  213.11500549    4.90999985    2.73000002
   18.58027840  197.48199463    4.90999985    2.73000002
   18.58333397  217.94299316    4.90999985    2.75000000
   18.58666801  211.00300598    4.90999985    2.73000002
   18.59000015  193.07800293    4.90999985    2.73000002
   18.59222221  195.87699890    4.90999985    2.73000002
   18.59361267  197.89700317    4.90999985    2.71000004
   18.59666824  186.38499451    4.90999985    2.73000002
   18.60277748  186.38499451    4.90999985    2.73000002
   18.60694504  182.31799316    4.90999985    2.73000002
   18.61027908  193.81900024    4.90999985    2.73000002
   18.61333466  211.97900391    4.90999985    2.71000004
   18.61666679  209.63400269    4.90999985    2.73000002
   18.61972237  198.79100037    4.90999985    2.73000002
   18.62305641  196.30299377    4.90999985    2.73000002
   18.62555504  194.10699463    4.90999985    2.73000002
   18.62666702  201.75700378    4.90999985    2.73000002
   18.62972260  198.44299316    4.90999985    2.73000002
   18.63305473  196.51300049    4.90999985    2.73000002
   18.63638878  193.77499390    4.90999985    2.73000002
   18.63944435  205.47799683    4.90999985    2.73000002
   18.64555550  205.47799683    4.90999985    2.71000004
   18.64972115  193.09899902    4.90999985    2.73000002
   18.65305519  195.94999695    4.90999985    2.73000002
   18.65611076  196.96699524    4.90999985    2.73000002
   18.65888786  194.50399780    4.90999985    2.73000002
   18.65999985  193.44299316    4.90999985    2.73000002
   18.66305542  221.25199890    4.90999985    2.73000002
   18.66638756  212.81199646    4.90999985    2.75000000
   18.66972160  205.78900146    4.90999985    2.73000002
   18.67277718  191.94099426    4.90999985    2.73000002
   18.67611122  200.82699585    4.90999985    2.73000002
   18.67944336  206.14599609    4.90999985    2.73000002
   18.68249893  200.13099670    4.90999985    2.73000002
   18.68861008  200.13099670    4.90999985    2.71000004
   18.69249916  200.58799744    4.90999985    2.71000004
   18.69583321  226.03599548    4.90999985    2.71000004
   18.69916534  222.76499939    4.90999985    2.73000002
   18.70222282  207.16799927    4.90999985    2.71000004
   18.70555687  212.13200378    4.90999985    2.71000004
   18.70888901  208.02200317    4.90999985    2.71000004
   18.71194458  208.04699707    4.90999985    2.71000004
   18.71527863  217.67799377    4.90999985    2.71000004
   18.71861076  212.43899536    4.90999985    2.73000002
   18.72166634  203.29600525    4.90999985    2.71000004
   18.72500038  211.99000549    4.90999985    2.71000004
   18.72555542  210.63800049    4.90999985    2.71000004
   18.73139000  210.63800049    4.90999985    2.71000004
   18.73555565  219.22399902    4.90999985    2.71000004
   18.73861122  214.28500366    4.90999985    2.71000004
   18.74194527  215.62100220    4.90999985    2.71000004
   18.74527740  231.11599731    4.90999985    2.71000004
   18.74833298  221.61599731    4.90999985    2.71000004
   18.75166702  222.70300293    4.90999985    2.71000004
   18.75472260  216.44999695    4.90999985    2.71000004
   18.75805473  205.12199402    4.90999985    2.69000006
   18.75888824  206.68699646    4.90999985    2.71000004
   18.76166725  215.00100708    4.90999985    2.71000004
   18.76472282  207.05900574    4.90999985    2.71000004
   18.76805496  215.05499268    4.90999985    2.71000004
   18.77416611  215.05499268    4.90999985    2.71000004
   18.77833366  203.56100464    4.90999985    2.71000004
   18.78166580  209.23899841    4.90999985    2.71000004
   18.78472137  218.62899780    4.90999985    2.71000004
   18.78805542  199.20599365    4.90999985    2.71000004
   18.79111099  239.21499634    4.90999985    2.71000004
   18.79222107  231.20399475    4.90999985    2.71000004
   18.79500008  230.79800415    4.90999985    2.71000004
   18.79833221  250.98100281    4.90999985    2.71000004
   18.80138779  248.38499451    4.90999985    2.69000006
   18.80472183  249.52400208    4.90999985    2.71000004
   18.80777740  245.23699951    4.90999985    2.71000004
   18.81110954  249.37699890    4.90999985    2.71000004
   18.81694603  249.37699890    4.90999985    2.71000004
   18.82111168  242.88200378    4.90999985    2.71000004
   18.82444572  241.19299316    4.90999985    2.71000004
   18.82555580  238.40299988    4.90999985    2.71000004
   18.82805634  278.10000610    4.90999985    2.71000004
   18.83139038  241.10400391    4.90999985    2.71000004
   18.83444595  224.47999573    4.90999985    2.69000006
   18.83777809  198.76899719    4.90999985    2.71000004
   18.84083366  212.05299377    4.90999985    2.71000004
   18.84416771  222.82000732    4.90999985    2.71000004
   18.84749985  198.20700073    4.90999985    2.69000006
   18.85055542  217.02499390    4.90999985    2.69000006
   18.85388947  221.61000061    4.90999985    2.71000004
   18.86000061  221.61000061    4.90999985    2.71000004
   18.86388969  201.27799988    4.90999985    2.71000004
   18.86722183  215.34100342    4.90999985    2.69000006
   18.87055588  234.75100708    4.90999985    2.69000006
   18.87361145  221.74299622    4.90999985    2.71000004
   18.87694550  208.25599670    4.90999985    2.69000006
   18.88027763  212.75000000    4.90999985    2.69000006
   18.88333321  202.58900452    4.90999985    2.69000006
   18.88666725  209.27999878    4.90999985    2.69000006
   18.88972282  217.37100220    4.90999985    2.71000004
   18.89222145  227.88900757    4.90999985    2.71000004
   18.89361191  219.33099365    4.90999985    2.71000004
   18.89694405  219.49099731    4.90999985    2.71000004
   18.90277672  219.49099731    4.90999985    2.71000004
   18.90694427  228.84399414    4.90999985    2.71000004
   18.90999985  222.55700684    4.90999985    2.69000006
   18.91333389  221.58599854    4.90999985    2.71000004
   18.91666603  236.21800232    4.90999985    2.71000004
   18.91972160  222.61500549    4.90999985    2.69000006
   18.92305565  208.96099854    4.90999985    2.71000004
   18.92555428  218.13499451    4.90999985    2.69000006
   18.92666626  216.13099670    4.90999985    2.71000004
   18.93000031  215.90299988    4.90999985    2.71000004
   18.93305397  223.28500366    4.90999985    2.69000006
   18.93638802  239.75199890    4.90999985    2.69000006
   18.93944359  224.15600586    4.90999985    2.69000006
   18.94555473  224.15600586    4.90999985    2.67000008
   18.94972038  195.30599976    4.90999985    2.67000008
   18.95305634  198.65499878    4.90999985    2.69000006
   18.95611191  238.91099548    4.90999985    2.67000008
   18.95888901  215.91299438    4.90999985    2.69000006
   18.95972252  212.18099976    4.90999985    2.69000006
   18.96305656  216.10499573    4.90999985    2.69000006
   18.96611214  230.07400513    4.90999985    2.69000006
   18.96944427  223.30400085    4.90999985    2.69000006
   18.97249985  223.58500671    4.90999985    2.67000008
   18.97583389  229.02499390    4.90999985    2.69000006
   18.97916794  236.07699585    4.90999985    2.69000006
   18.98222351  218.12199402    4.90999985    2.69000006
   18.98833275  218.12199402    4.90999985    2.69000006
   18.99250031  226.43400574    4.90999985    2.69000006
   18.99583435  199.69900513    4.90999985    2.69000006
   18.99888992  214.14799500    4.90999985    2.69000006
   19.00222206  227.73199463    4.90999985    2.69000006
   19.00555611  215.37800598    4.90999985    2.67000008
   19.00861168  212.20599365    4.90999985    2.69000006
   19.01194382  229.67300415    4.90999985    2.67000008
   19.01527786  233.21400452    4.90999985    2.67000008
   19.01833344  210.23699951    4.90999985    2.69000006
   19.02166557  215.45799255    4.90999985    2.69000006
   19.02472115  204.76600647    4.90999985    2.69000006
   19.02555466  197.01300049    4.90999985    2.69000006
   19.03138924  197.01300049    4.90999985    2.69000006
   19.03527641  206.66999817    4.90999985    2.71000004
   19.03861046  199.12100220    4.90999985    2.67000008
   19.04194450  204.59700012    4.90999985    2.69000006
   19.04500008  220.71800232    4.90999985    2.69000006
   19.04833221  212.11399841    4.90999985    2.67000008
   19.05166626  205.80900574    4.90999985    2.69000006
   19.05472183  196.37300110    4.90999985    2.69000006
   19.05805397  192.91099548    4.90999985    2.69000006
   19.05888748  194.17599487    4.90999985    2.69000006
   19.06166649  211.53399658    4.90999985    2.69000006
   19.06499863  186.04899597    4.90999985    2.69000006
   19.06805611  188.94400024    4.90999985    2.69000006
   19.07416725  188.94400024    4.90999985    2.69000006
   19.07833481  192.16999817    4.90999985    2.69000006
   19.08139038  189.55799866    4.90999985    2.67000008
   19.08472252  198.44400024    4.90999985    2.67000008
   19.08805656  188.50000000    4.90999985    2.69000006
   19.09111214  189.61199951    4.90999985    2.67000008
   19.09222221  195.94400024    4.90999985    2.67000008
   19.09472275  204.15699768    4.90999985    2.69000006
   19.09805679  179.99099731    4.90999985    2.69000006
   19.10111237  190.13800049    4.90999985    2.69000006
   19.10444450  195.37800598    4.90999985    2.67000008
   19.10777855  209.13600159    4.90999985    2.67000008
   19.11083412  207.58900452    4.90999985    2.67000008
   19.11694527  207.58900452    4.90999985    2.67000008
   19.12111092  193.47999573    4.90999985    2.67000008
   19.12444496  212.33900452    4.90999985    2.67000008
   19.12555504  196.16799927    4.90999985    2.67000008
   19.12805557  204.86099243    4.90999985    2.66000009
   19.13138962  214.79100037    4.90999985    2.67000008
   19.13444519  200.04400635    4.90999985    2.67000008
   19.13777733  202.33700562    4.90999985    2.67000008
   19.14111137  188.60099792    4.90999985    2.67000008
   19.14416695  187.66099548    4.90999985    2.67000008
   19.14749908  202.09800720    4.90999985    2.67000008
   19.15055466  202.00500488    4.90999985    2.67000008
   19.15388870  196.46200562    4.90999985    2.67000008
   19.15972137  196.46200562    4.90999985    2.67000008
   19.16388893  219.02699280    4.90999985    2.67000008
   19.16722107  218.04800415    4.90999985    2.67000008
   19.17027664  189.88200378    4.90999985    2.67000008
   19.17361069  204.05799866    4.90999985    2.67000008
   19.17694473  197.37699890    4.90999985    2.67000008
   19.18000031  197.85400391    4.90999985    2.69000006
   19.18333244  203.36500549    4.90999985    2.67000008
   19.18666649  200.46499634    4.90999985    2.67000008
   19.18972206  197.84599304    4.90999985    2.67000008
   19.19222069  202.49299622    4.90999985    2.66000009
   19.21305656  202.49299622    4.90999985    2.67000008
   19.21722221  198.38800049    4.90999985    2.66000009
   19.22027779  203.49200439    4.90999985    2.67000008
   19.22361183  192.87399292    4.90999985    2.67000008
   19.22555542  212.04899597    4.90999985    2.66000009
   19.22722244  219.74400330    4.90999985    2.67000008
   19.23055649  205.58900452    4.90999985    2.66000009
   19.23388863  200.55299377    4.90999985    2.66000009
   19.23694420  198.93899536    4.90999985    2.67000008
   19.24027824  200.08200073    4.90999985    2.67000008
   19.24333382  229.52299500    4.90999985    2.67000008
   19.24666786  210.61500549    4.90999985    2.66000009
   19.25000000  195.83500671    4.90999985    2.66000009
   19.25583267  195.83500671    4.90999985    2.64000010
   19.25972176  206.05799866    4.90999985    2.64000010
   19.26305580  196.17599487    4.90999985    2.66000009
   19.26638794  214.12100220    4.90999985    2.64000010
   19.26944351  206.02400208    4.90999985    2.64000010
   19.27277756  201.53500366    4.90999985    2.66000009
   19.27611160  191.17799377    4.90999985    2.64000010
   19.27916718  214.18299866    4.90999985    2.64000010
   19.28249931  227.39799500    4.90999985    2.64000010
   19.28555489  223.44200134    4.90999985    2.64000010
   19.28888893  211.58299255    4.90999985    2.64000010
   19.29194450  218.20399475    4.90999985    2.66000009
   19.29249954  224.72999573    4.90999985    2.66000009
   19.29861069  224.72999573    4.90999985    2.64000010
   19.30249977  208.24200439    4.90999985    2.66000009
   19.30583191  212.30900574    4.90999985    2.64000010
   19.30916595  209.25199890    4.90999985    2.66000009
   19.31222153  214.19999695    4.90999985    2.66000009
   19.31555557  200.26400757    4.90999985    2.66000009
   19.31888962  227.55200195    4.90999985    2.64000010
   19.32194519  222.06100464    4.90999985    2.64000010
   19.32527924  199.65800476    4.90999985    2.64000010
   19.32583427  191.89500427    4.90999985    2.66000009
   19.32888985  202.67999268    4.90999985    2.64000010
   19.33222389  217.17300415    4.90999985    2.66000009
   19.33527756  218.22900391    4.90999985    2.66000009
   19.34138870  218.22900391    4.90999985    2.64000010
   19.34555626  207.94599915    4.90999985    2.64000010
   19.34861183  210.38699341    4.90999985    2.64000010
   19.35194397  227.00399780    4.90999985    2.64000010
   19.35527802  201.98199463    4.90999985    2.64000010
   19.35833359  191.24499512    4.90999985    2.64000010
   19.35916710  201.37800598    4.90999985    2.64000010
   19.36194420  204.38000488    4.90999985    2.66000009
   19.36527824  199.30400085    4.90999985    2.64000010
   19.36833382  207.18600464    4.90999985    2.64000010
   19.37166595  190.47399902    4.90999985    2.61999989
   19.37500000  204.35499573    4.90999985    2.64000010
   19.37805557  191.30299377    4.90999985    2.66000009
   19.38416672  191.30299377    4.90999985    2.66000009
   19.38833237  211.91000366    4.90999985    2.64000010
   19.39166641  199.04699707    4.90999985    2.64000010
   19.39277840  208.40499878    4.90999985    2.64000010
   19.39527702  209.57000732    4.90999985    2.66000009
   19.39861107  200.15400696    4.90999985    2.64000010
   19.40194321  199.13800049    4.90999985    2.61999989
   19.40499878  202.02400208    4.90999985    2.64000010
   19.40833282  210.10600281    4.90999985    2.64000010
   19.41138840  184.97799683    4.90999985    2.64000010
   19.41472244  198.46299744    4.90999985    2.64000010
   19.41805458  204.24099731    4.90999985    2.64000010
   19.42111015  194.69799805    4.90999985    2.61999989
   19.42722130  194.69799805    4.90999985    2.64000010
   19.43111038  214.49899292    4.90999985    2.64000010
   19.43444443  203.04899597    4.90999985    2.64000010
   19.43777657  205.40699768    4.90999985    2.64000010
   19.44083214  206.79499817    4.90999985    2.64000010
   19.44416618  198.42700195    4.90999985    2.64000010
   19.44749832  205.03700256    4.90999985    2.66000009
   19.45055580  186.97399902    4.90999985    2.64000010
   19.45388985  195.44200134    4.90999985    2.64000010
   19.45694542  213.38800049    4.90999985    2.64000010
   19.45944595  190.30799866    4.90999985    2.64000010
   19.46055603  198.27400208    4.90999985    2.64000010
   19.46389008  189.50700378    4.90999985    2.64000010
   19.47000122  189.50700378    4.90999985    2.64000010
   19.47416687  211.50799561    4.90999985    2.64000010
   19.47722244  207.21899414    4.90999985    2.64000010
   19.48055649  208.05000305    4.90999985    2.64000010
   19.48388863  217.38400269    4.90999985    2.64000010
   19.48694420  206.41999817    4.90999985    2.61999989
   19.49027824  201.05799866    4.90999985    2.64000010
   19.49277878  192.52200317    4.90999985    2.64000010
   19.49388885  223.84899902    4.90999985    2.61999989
   19.49722290  192.45199585    4.90999985    2.64000010
   19.50055504  219.41099548    4.90999985    2.61999989
   19.50361061  208.95599365    4.90999985    2.61999989
   19.50694466  203.50300598    4.90999985    2.61999989
   19.51277733  203.50300598    4.90999985    2.61999989
   19.51694489  225.50999451    4.90999985    2.61999989
   19.52027702  221.77799988    4.90999985    2.64000010
   19.52333260  213.10200500    4.90999985    2.61999989
   19.52611160  213.44599915    4.90999985    2.64000010
   19.52694511  216.31399536    4.90999985    2.61999989
   19.53027725  205.82299805    4.90999985    2.61999989
   19.53361130  199.84199524    4.90999985    2.61999989
   19.53666687  217.95500183    4.90999985    2.61999989
   19.53999901  198.75700378    4.90999985    2.61999989
   19.54305458  210.73300171    4.90999985    2.61999989
   19.54638863  211.59100342    4.90999985    2.61999989
   19.54972076  224.91000366    4.90999985    2.61999989
   19.55555534  224.91000366    4.90999985    2.61999989
   19.55972099  196.28300476    4.90999985    2.64000010
   19.56305504  186.33999634    4.90999985    2.61999989
   19.56611061  189.21400452    4.90999985    2.61999989
   19.56944466  193.23300171    4.90999985    2.61999989
   19.57277870  207.51199341    4.90999985    2.61999989
   19.57583427  188.59399414    4.90999985    2.61999989
   19.57916832  173.83599854    4.90999985    2.61999989
   19.58250046  188.14100647    4.90999985    2.61999989
   19.58555603  195.74699402    4.90999985    2.61999989
   19.58889008  197.76899719    4.90999985    2.61999989
   19.59194565  191.72300720    4.90999985    2.64000010
   19.59277916  186.54100037    4.90999985    2.61999989
   19.59833336  186.54100037    4.90999985    2.61999989
   19.60250092  189.65800476    4.90999985    2.61999989
   19.60583305  197.83799744    4.90999985    2.61999989
   19.60916710  188.17199707    4.90999985    2.61999989
   19.61222267  200.19799805    4.90999985    2.61999989
   19.61555672  192.44500732    4.90999985    2.61999989
   19.61888885  185.33200073    4.90999985    2.61999989
   19.62194443  191.55799866    4.90999985    2.61999989
   19.62527847  180.02600098    4.90999985    2.61999989
   19.62611198  178.71899414    4.90999985    2.61999989
   19.62861061  192.09800720    4.90999985    2.61999989
   19.63194466  181.41600037    4.90999985    2.61999989
   19.63527679  175.26400757    4.90999985    2.61999989
   19.64138794  175.26400757    4.90999985    2.61999989
   19.64555550  191.00500488    4.90999985    2.61999989
   19.64861107  198.94999695    4.90999985    2.61999989
   19.65194321  192.17799377    4.90999985    2.59999990
   19.65527725  193.57099915    4.90999985    2.61999989
   19.65833282  199.86799622    4.90999985    2.61999989
   19.65944481  203.85800171    4.90999985    2.61999989
   19.66194344  206.36900330    4.90999985    2.64000010
   19.66527748  203.19000244    4.90999985    2.64000010
   19.66860962  207.42500305    4.90999985    2.61999989
   19.67166519  202.89999390    4.90999985    2.61999989
   19.67499924  212.12100220    4.90999985    2.61999989
   19.67833328  201.11799622    4.90999985    2.61999989
   19.68416595  201.11799622    4.90999985    2.61999989
   19.68833160  189.82600403    4.90999985    2.61999989
   19.69166565  207.11199951    4.90999985    2.61999989
   19.69277763  200.18099976    4.90999985    2.61999989
   19.69499969  196.52499390    4.90999985    2.61999989
   19.69833183  219.22000122    4.90999985    2.61999989
   19.70166779  209.76699829    4.90999985    2.61999989
   19.70472336  230.59700012    4.90999985    2.61999989
   19.70805550  205.08799744    4.90999985    2.61999989
   19.71111107  227.47999573    4.90999985    2.61999989
   19.71444511  222.51899719    4.90999985    2.59999990
   19.71777916  237.58500671    4.90999985    2.59999990
   19.72083473  247.01100159    4.90999985    2.59999990
   19.72694588  247.01100159    4.90999985    2.59999990
   19.73111153  222.79400635    4.90999985    2.59999990
   19.73444557  216.11900330    4.90999985    2.61999989
   19.73750114  224.97399902    4.90999985    2.61999989
   19.74083328  221.27600098    4.90999985    2.59999990
   19.74416733  219.26199341    4.90999985    2.61999989
   19.74722290  234.23699951    4.90999985    2.59999990
   19.75055504  220.22599792    4.90999985    2.59999990
   19.75361061  228.35699463    4.90999985    2.57999992
   19.75694466  211.91799927    4.90999985    2.59999990
   19.75944519  223.06799316    4.90999985    2.59999990
   19.76055527  201.58900452    4.90999985    2.59999990
   19.76388931  203.85800171    4.90999985    2.59999990
   19.77000046  203.85800171    4.90999985    2.59999990
   19.77388954  211.58500671    4.90999985    2.61999989
   19.77722168  202.74699402    4.90999985    2.59999990
   19.78055573  225.60000610    4.90999985    2.59999990
   19.78361130  209.61399841    4.90999985    2.57999992
   19.78694344  208.05700684    4.90999985    2.59999990
   19.79027748  215.23899841    4.90999985    2.59999990
   19.79277802  209.70399475    4.90999985    2.57999992
   19.79361153  207.68499756    4.90999985    2.57999992
   19.79694366  217.55700684    4.90999985    2.59999990
   19.80027771  217.30999756    4.90999985    2.59999990
   19.80333328  217.94400024    4.90999985    2.59999990
   19.80666542  214.49800110    4.90999985    2.59999990
   19.81277657  214.49800110    4.90999985    2.59999990
   19.81694603  198.81799316    4.90999985    2.57999992
   19.82000160  225.48800659    4.90999985    2.59999990
   19.82333374  212.37699890    4.90999985    2.59999990
   19.82611275  220.31700134    4.90999985    2.57999992
   19.82694626  210.81100464    4.90999985    2.57999992
   19.83027840  194.85699463    4.90999985    2.57999992
   19.83361244  196.27799988    4.90999985    2.57999992
   19.83666801  211.91200256    4.90999985    2.57999992
   19.84000015  208.89500427    4.90999985    2.57999992
   19.84333420  203.90600586    4.90999985    2.59999990
   19.84638977  222.52600098    4.90999985    2.57999992
   19.84972191  196.81199646    4.90999985    2.57999992
   19.85555649  196.81199646    4.90999985    2.57999992
   19.85972214  204.63699341    4.90999985    2.57999992
   19.86305618  214.11000061    4.90999985    2.57999992
   19.86611176  228.80000305    4.90999985    2.57999992
   19.86944389  207.15199280    4.90999985    2.57999992
   19.87249947  199.82800293    4.90999985    2.57999992
   19.87583351  219.79600525    4.90999985    2.57999992
   19.87916756  205.38400269    4.90999985    2.57999992
   19.88222313  217.93099976    4.90999985    2.57999992
   19.88555527  204.20399475    4.90999985    2.57999992
   19.88888931  201.52799988    4.90999985    2.57999992
   19.89194489  227.42599487    4.90999985    2.57999992
   19.89277840  233.09500122    4.90999985    2.57999992
   19.89833260  233.09500122    4.90999985    2.57999992
   19.90250015  221.54100037    4.90999985    2.57999992
   19.90583229  221.38499451    4.90999985    2.57999992
   19.90888786  220.12399292    4.90999985    2.59999990
   19.91222191  220.20700073    4.90999985    2.57999992
   19.91555595  224.90299988    4.90999985    2.57999992
   19.91888809  208.35200500    4.90999985    2.57999992
   19.92194366  226.20700073    4.90999985    2.57999992
   19.92527771  203.39799500    4.90999985    2.55999994
   19.92611122  220.88200378    4.90999985    2.55999994
   19.92888832  229.04200745    4.90999985    2.57999992
   19.93194389  216.93899536    4.90999985    2.57999992
   19.93527603  213.55900574    4.90999985    2.57999992
   19.94138718  213.55900574    4.90999985    2.55999994
   19.94527626  213.89999390    4.90999985    2.55999994
   19.94861031  202.05499268    4.90999985    2.55999994
   19.95194435  207.65699768    4.90999985    2.55999994
   19.95499992  211.03799438    4.90999985    2.55999994
   19.95833397  222.22399902    4.90999985    2.55999994
   19.95944595  217.77900696    4.90999985    2.55999994
   19.96194458  231.17399597    4.90999985    2.55999994
   19.96500015  215.22500610    4.90999985    2.55999994
   19.96833420  198.03700256    4.90999985    2.55999994
   19.97138977  208.43899536    4.90999985    2.55999994
   19.97472191  218.52200317    4.90999985    2.55999994
   19.97805595  217.71200562    4.90999985    2.55999994
   19.98416710  217.71200562    4.90999985    2.55999994
   19.98833275  199.87100220    4.90999985    2.55999994
   19.99138832  217.28199768    4.90999985    2.55999994
   19.99277878  204.72900391    4.90999985    2.55999994
   19.99527740  224.94500732    4.90999985    2.55999994
   19.99833298  219.47200012    4.90999985    2.55999994
   20.00166702  238.54299927    4.90999985    2.53999996
   20.00472260  231.81700134    4.90999985    2.55999994
   20.00805473  251.72500610    4.90999985    2.55999994
   20.01138878  251.24099731    4.90999985    2.55999994
   20.01444435  213.34500122    4.90999985    2.55999994
   20.01777840  266.85101318    4.90999985    2.55999994
   20.02083397  267.52200317    4.90999985    2.55999994
   20.02694511  267.52200317    4.90999985    2.53999996
   20.03111076  240.10099792    4.90999985    2.55999994
   20.03416634  254.08099365    4.90999985    2.55999994
   20.03750038  260.22299194    4.90999985    2.53999996
   20.04083252  282.68600464    4.90999985    2.55999994
   20.04388809  243.57600403    4.90999985    2.55999994
   20.04722214  272.07501221    4.90999985    2.55999994
   20.05055428  289.33099365    4.90999985    2.55999994
   20.05360985  236.16099548    4.90999985    2.55999994
   20.05694389  247.72900391    4.90999985    2.55999994
   20.05944443  268.57800293    4.90999985    2.55999994
   20.06055450  267.78298950    4.90999985    2.55999994
   20.06361008  244.25500488    4.90999985    2.53999996
   20.06972313  244.25500488    4.90999985    2.55999994
   20.07389069  260.18798828    4.90999985    2.53999996
   20.07722282  272.10598755    4.90999985    2.55999994
   20.08027840  240.24400330    4.90999985    2.55999994
   20.08361244  238.11799622    4.90999985    2.55999994
   20.08694458  229.03999329    4.90999985    2.55999994
   20.09000015  217.44700623    4.90999985    2.55999994
   20.09277916  224.36599731    4.90999985    2.53999996
   20.09388924  217.73899841    4.90999985    2.55999994
   20.09694481  224.43800354    4.90999985    2.53999996
   20.10027885  234.08999634    4.90999985    2.53999996
   20.10333443  231.79600525    4.90999985    2.53999996
   20.10666656  218.29100037    4.90999985    2.53999996
   20.11277771  218.29100037    4.90999985    2.55999994
   20.11694527  230.04100037    4.90999985    2.53999996
   20.12000084  226.72200012    4.90999985    2.53999996
   20.12333298  241.75599670    4.90999985    2.53999996
   20.12611198  239.00399780    4.90999985    2.53999996
   20.12694550  225.44000244    4.90999985    2.53999996
   20.13000107  236.17599487    4.90999985    2.53999996
   20.13333321  235.97799683    4.90999985    2.53999996
   20.13638878  223.82499695    4.90999985    2.51999998
   20.13972282  223.65100098    4.90999985    2.53999996
   20.14305496  245.53199768    4.90999985    2.51999998
   20.14611053  238.17700195    4.90999985    2.51999998
   20.14944458  224.48100281    4.90999985    2.51999998
   20.15555573  224.48100281    4.90999985    2.51999998
   20.15972137  229.01800537    4.90999985    2.51999998
   20.16277695  250.81399536    4.90999985    2.51999998
   20.16611099  242.39100647    4.90999985    2.51999998
   20.16916656  233.63400269    4.90999985    2.51999998
   20.17249870  232.96600342    4.90999985    2.51999998
   20.17583275  249.25100708    4.90999985    2.51999998
   20.17888832  252.67799377    4.90999985    2.50000000
   20.18222237  266.23498535    4.90999985    2.51999998
   20.18555450  246.26300049    4.90999985    2.51999998
   20.18861008  265.79699707    4.90999985    2.51999998
   20.19194412  256.94699097    4.90999985    2.51999998
   20.19277763  266.79000854    4.90999985    2.51999998
   20.19833183  266.79000854    4.90999985    2.51999998
   20.20250130  253.31599426    4.90999985    2.51999998
   20.20555687  246.66600037    4.90999985    2.51999998
   20.20888901  260.01098633    4.90999985    2.51999998
   20.22638893  243.85699463    4.90999985    2.51999998
   20.22888947  248.72999573    4.90999985    2.51999998
   20.23222351  250.22300720    4.90999985    2.51999998
   20.23527718  255.63800049    4.90999985    2.51999998
   20.24138832  255.63800049    4.90999985    2.50000000
   20.24555588  245.19900513    4.90999985    2.51999998
   20.24861145  231.17599487    4.90999985    2.50000000
   20.25194359  228.34700012    4.90999985    2.51999998
   20.25527763  259.24899292    4.90999985    2.50000000
   20.25833321  251.01499939    4.90999985    2.51999998
   20.25972176  253.76499939    4.90999985    2.50000000
   20.26222229  258.59100342    4.90999985    2.51999998
   20.26527786  237.59899902    4.90999985    2.50000000
   20.26861000  228.67700195    4.90999985    2.51999998
   20.27194405  274.58499146    4.90999985    2.50000000
   20.27499962  304.80999756    4.90999985    2.50000000
   20.27833366  262.38198853    4.90999985    2.50000000
   20.28416634  262.38198853    4.90999985    2.50000000
   20.28833199  299.60598755    4.90999985    2.50000000
   20.29166603  241.48100281    4.90999985    2.51999998
   20.29305458  272.91699219    4.90999985    2.50000000
   20.29527664  260.95300293    4.90999985    2.50000000
   20.29833221  271.74398804    4.90999985    2.50000000
   20.30166626  252.51499939    4.90999985    2.50000000
   20.30472183  250.13400269    4.90999985    2.50000000
   20.30805397  252.00799561    4.90999985    2.48000002
   20.31138802  285.78399658    4.90999985    2.50000000
   20.31444359  266.75299072    4.90999985    2.48000002
   20.31777954  287.67700195    4.90999985    2.48000002
   20.32111168  257.62701416    4.90999985    2.48000002
   20.32694626  257.62701416    4.90999985    2.48000002
   20.33111191  280.69400024    4.90999985    2.48000002
   20.33444595  264.02398682    4.90999985    2.48000002
   20.33750153  308.23999023    4.90999985    2.48000002
   20.34083366  292.32998657    4.90999985    2.48000002
   20.34416771  294.86199951    4.90999985    2.48000002
   20.34722328  306.66299438    4.90999985    2.48000002
   20.35055542  319.54400635    4.90999985    2.46000004
   20.35388947  274.59399414    4.90999985    2.46000004
   20.35694504  339.41598511    4.90999985    2.46000004
   20.35972214  334.71798706    4.90999985    2.48000002
   20.36083412  270.75698853    4.90999985    2.46000004
   20.36388969  305.19000244    4.90999985    2.46000004
   20.37000084  305.19000244    4.90999985    2.46000004
   20.37416649  302.39700317    4.90999985    2.46000004
   20.37722206  325.89001465    4.90999985    2.46000004
   20.38055611  302.85000610    4.90999985    2.46000004
   20.38361168  320.53399658    4.90999985    2.46000004
   20.38694382  312.39700317    4.90999985    2.46000004
   20.39027786  358.86599731    4.90999985    2.46000004
   20.39305496  312.00900269    4.90999985    2.46000004
   20.39388847  285.92999268    4.90999985    2.46000004
   20.39694405  284.97900391    4.90999985    2.46000004
   20.40027809  280.65798950    4.90999985    2.44000006
   20.40361023  332.92001343    4.90999985    2.46000004
   20.40666580  326.37200928    4.90999985    2.46000004
   20.41277695  326.37200928    4.90999985    2.46000004
   20.41694450  291.63598633    4.90999985    2.46000004
   20.42000008  311.54901123    4.90999985    2.44000006
   20.42333221  310.86401367    4.90999985    2.44000006
   20.42638779  330.71200562    4.90999985    2.44000006
   20.42694473  308.38198853    4.90999985    2.44000006
   20.43027687  307.14199829    4.90999985    2.44000006
   20.43333244  299.76098633    4.90999985    2.44000006
   20.43666649  301.22601318    4.90999985    2.44000006
   20.43999863  284.38400269    4.90999985    2.44000006
   20.44305420  299.33599854    4.90999985    2.44000006
   20.44638824  316.87100220    4.90999985    2.44000006
   20.44944382  306.46600342    4.90999985    2.44000006
   20.45555687  306.46600342    4.90999985    2.44000006
   20.45972252  285.97698975    4.90999985    2.44000006
   20.46027946  284.60501099    4.90999985    2.44000006
   20.46333504  276.90100098    4.90999985    2.44000006
   20.46666718  323.37100220    4.90999985    2.44000006
   20.47000122  273.38900757    4.90999985    2.44000006
   20.47305679  290.29800415    4.90999985    2.44000006
   20.47638893  321.53601074    4.90999985    2.44000006
   20.47944450  302.68499756    4.90999985    2.44000006
   20.48277855  302.60501099    4.90999985    2.46000004
   20.48611069  326.00201416    4.90999985    2.46000004
   20.48916626  296.60400391    4.90999985    2.44000006
   20.49250031  306.84399414    4.90999985    2.44000006
   20.49305534  295.62899780    4.90999985    2.44000006
   20.49833298  295.62899780    4.90999985    2.44000006
   20.50250053  284.26599121    4.90999985    2.44000006
   20.50583267  268.26300049    4.90999985    2.44000006
   20.50888824  271.28900146    4.90999985    2.44000006
   20.51222229  265.82998657    4.90999985    2.44000006
   20.51555634  286.39801025    4.90999985    2.44000006
   20.51861000  259.82101440    4.90999985    2.42000008
   20.52194405  260.61300659    4.90999985    2.42000008
   20.52527809  280.30999756    4.90999985    2.44000006
   20.52638817  250.76800537    4.90999985    2.42000008
   20.52888870  257.99700928    4.90999985    2.42000008
   20.53194427  278.39999390    4.90999985    2.42000008
   20.53527641  265.33898926    4.90999985    2.44000006
   20.54138756  265.33898926    4.90999985    2.42000008
   20.54527664  253.25599670    4.90999985    2.44000006
   20.54861069  257.34298706    4.90999985    2.44000006
   20.55194283  252.51899719    4.90999985    2.42000008
   20.55499840  247.38499451    4.90999985    2.42000008
   20.55833244  245.36300659    4.90999985    2.44000006
   20.55972099  246.13800049    4.90999985    2.44000006
   20.56194305  260.87298584    4.90999985    2.46000004
   20.56499863  249.39599609    4.90999985    2.44000006
   20.56833458  235.52900696    4.90999985    2.44000006
   20.57166672  244.11099243    4.90999985    2.42000008
   20.57472229  263.33200073    4.90999985    2.46000004
   20.57805634  260.15798950    4.90999985    2.44000006
   20.58416748  260.15798950    4.90999985    2.44000006
   20.58833313  246.45700073    4.90999985    2.44000006
   20.59138870  255.11300659    4.90999985    2.44000006
   20.59305573  254.13900757    4.90999985    2.42000008
   20.59527779  237.09599304    4.90999985    2.42000008
   20.59861183  248.07400513    4.90999985    2.44000006
   20.60166740  225.95300293    4.90999985    2.42000008
   20.60499954  245.12500000    4.90999985    2.42000008
   20.60833359  229.81300354    4.90999985    2.42000008
   20.61138916  247.74400330    4.90999985    2.42000008
   20.61472321  210.00399780    4.90999985    2.42000008
   20.61777878  245.83200073    4.90999985    2.42000008
   20.62111092  242.83200073    4.90999985    2.42000008
   20.62694550  242.83200073    4.90999985    2.42000008
   20.63111115  254.18299866    4.90999985    2.42000008
   20.63444519  254.32200623    4.90999985    2.40000010
   20.63750076  262.19000244    4.90999985    2.40000010
   20.64083290  293.35598755    4.90999985    2.40000010
   20.64388847  283.47698975    4.90999985    2.40000010
   20.64722252  262.71899414    4.90999985    2.40000010
   20.65055466  263.01998901    4.90999985    2.40000010
   20.65361023  267.49398804    4.90999985    2.40000010
   20.65694427  274.96200562    4.90999985    2.40000010
   20.65972137  264.79199219    4.90999985    2.40000010
   20.66055489  263.67199707    4.90999985    2.40000010
   20.66361046  251.50799561    4.90999985    2.40000010
   20.66972160  251.50799561    4.90999985    2.40000010
   20.67388916  278.54199219    4.90999985    2.40000010
   20.67722130  279.00000000    4.90999985    2.40000010
   20.68027687  265.68301392    4.90999985    2.40000010
   20.68361092  261.56298828    4.90999985    2.40000010
   20.68694305  259.77301025    4.90999985    2.40000010
   20.68999863  262.94601440    4.90999985    2.40000010
   20.69305420  253.83500671    4.90999985    2.40000010
   20.69388771  254.88499451    4.90999985    2.40000010
   20.69694328  259.56399536    4.90999985    2.39000010
   20.70027924  292.74600220    4.90999985    2.40000010
   20.70361137  262.71600342    4.90999985    2.40000010
   20.70666695  257.67300415    4.90999985    2.40000010
   20.71277809  257.67300415    4.90999985    2.39000010
   20.71666718  257.12100220    4.90999985    2.40000010
   20.72000122  290.34201050    4.90999985    2.40000010
   20.72333336  265.49499512    4.90999985    2.39000010
   20.72638893  251.18600464    4.90999985    2.39000010
   20.72694588  271.98800659    4.90999985    2.39000010
   20.73000145  253.17500305    4.90999985    2.39000010
   20.73333359  269.79598999    4.90999985    2.39000010
   20.73666763  254.09399414    4.90999985    2.39000010
   20.73972321  288.51901245    4.90999985    2.36999989
   20.74305534  262.35800171    4.90999985    2.36999989
   20.74638939  278.95401001    4.90999985    2.39000010
   20.74944496  293.93701172    4.90999985    2.39000010
   20.75555611  293.93701172    4.90999985    2.39000010
   20.75972176  300.59201050    4.90999985    2.36999989
   20.76027870  306.17999268    4.90999985    2.36999989
   20.76333427  323.16900635    4.90999985    2.36999989
   20.76666641  298.65499878    4.90999985    2.36999989
   20.77000046  301.41598511    4.90999985    2.36999989
   20.77305603  319.14401245    4.90999985    2.36999989
   20.77638817  272.95999146    4.90999985    2.36999989
   20.77972221  291.83801270    4.90999985    2.36999989
   20.78277779  281.07299805    4.90999985    2.36999989
   20.78610992  305.23800659    4.90999985    2.36999989
   20.78916550  286.24798584    4.90999985    2.36999989
   20.79249954  302.98800659    4.90999985    2.36999989
   20.79361153  334.37200928    4.90999985    2.36999989
   20.79833221  334.37200928    4.90999985    2.34999990
   20.80249977  305.59698486    4.90999985    2.34999990
   20.80583191  316.82800293    4.90999985    2.36999989
   20.80888748  289.65798950    4.90999985    2.34999990
   20.81222153  318.45599365    4.90999985    2.36999989
   20.81527710  378.14700317    4.90999985    2.34999990
   20.81861115  234.97999573    4.90999985    2.34999990
   20.82194519  394.86199951    4.90999985    2.34999990
   20.82500076  565.75097656    4.90999985    2.36999989
   20.82722282  540.52301025    4.90999985    2.34999990
   20.82833481  342.97399902    4.90999985    2.36999989
   20.82861137  289.65798950    4.90999985    2.34999990
   20.82861137  318.45599365    4.90999985    2.36999989
   20.82861137  378.14700317    4.90999985    2.34999990
   20.82888985  234.97999573    4.90999985    2.34999990
   20.82888985  394.86199951    4.90999985    2.34999990
   20.82888985  565.75097656    4.90999985    2.36999989
   20.82916832  302.98800659    4.90999985    2.36999989
   20.82916832  305.59698486    4.90999985    2.34999990
   20.82916832  316.82800293    4.90999985    2.36999989
   20.83000183  438.89199829    4.90999985    2.34999990
   20.83222389  483.50500488    4.90999985    2.34999990
   20.83333397  441.49798584    4.90999985    2.34999990
   20.83472252  475.93798828    4.90999985    2.34999990
   20.83611107  594.16601563    4.90999985    2.34999990
   20.83750153  581.31402588    4.90999985    2.34999990
   20.83889008  606.16699219    4.90999985    2.34999990
   20.84027863  519.34002686    4.90999985    2.34999990
   20.84166718  457.13598633    4.90999985    2.34999990
   20.84305573  567.82598877    4.90999985    2.34999990
   20.84444427  544.21398926    4.90999985    2.34999990
   20.84583473  542.86199951    4.90999985    2.34999990
   20.84722328  641.20300293    4.90999985    2.34999990
   20.84861183  482.69198608    4.90999985    2.34999990
   20.85000038  455.85000610    4.90999985    2.34999990
   20.85138893  534.62500000    4.90999985    2.34999990
   20.85277748  526.75598145    4.90999985    2.34999990
   20.85416794  493.56298828    4.90999985    2.34999990
   20.85555649  445.43701172    4.90999985    2.34999990
   20.85694504  460.89199829    4.90999985    2.34999990
   20.85833359  515.79901123    4.90999985    2.34999990
   20.85972214  547.84197998    4.90999985    2.34999990
   20.86111069  584.54199219    4.90999985    2.34999990
   20.86250114  469.20599365    4.90999985    2.34999990
   20.86388969  516.98297119    4.90999985    2.34999990
   20.86527824  535.77899170    4.90999985    2.34999990
   20.86666679  316.88598633    4.90999985    2.34999990
   20.86694527  438.89199829    4.90999985    2.34999990
   20.86750031  333.37799072    4.90999985    2.34999990
   20.87055588  531.11297607    4.90999985    2.34999990
   20.87277794  457.53601074    4.90999985    2.34999990
   20.87388992  458.68200684    4.90999985    2.34999990
   20.87527847  568.58197021    4.90999985    2.32999992
   20.87666702  525.63397217    4.90999985    2.34999990
   20.87805557  544.68103027    4.90999985    2.32999992
   20.87944412  466.35998535    4.90999985    2.32999992
   20.88083267  534.14599609    4.90999985    2.32999992
   20.88222313  450.40399170    4.90999985    2.34999990
   20.88361168  541.08300781    4.90999985    2.32999992
   20.88500023  499.56698608    4.90999985    2.32999992
   20.88638878  422.04400635    4.90999985    2.34999990
   20.88777733  450.91000366    4.90999985    2.32999992
   20.88916588  507.21301270    4.90999985    2.32999992
   20.89055634  536.53698730    4.90999985    2.32999992
   20.89194489  505.58999634    4.90999985    2.32999992
   20.89333344  511.30700684    4.90999985    2.32999992
   20.89472198  465.00900269    4.90999985    2.32999992
   20.89611053  504.22900391    4.90999985    2.32999992
   20.89749908  541.51000977    4.90999985    2.32999992
   20.89888954  432.43499756    4.90999985    2.32999992
   20.90027809  408.61599731    4.90999985    2.32999992
   20.90166664  431.57501221    4.90999985    2.32999992
   20.90305519  565.98901367    4.90999985    2.32999992
   20.90444374  541.28497314    4.90999985    2.32999992
   20.90583229  458.30700684    4.90999985    2.30999994
   20.90722275  460.46099854    4.90999985    2.32999992
   20.90861130  487.30200195    4.90999985    2.30999994
   20.90999985  434.94000244    4.90999985    2.32999992
   20.91138840  411.46798706    4.90999985    2.32999992
   20.91277695  471.51800537    4.90999985    2.30999994
   20.91416550  465.74099731    4.90999985    2.30999994
   20.91555595  460.78201294    4.90999985    2.30999994
   20.91694450  424.12500000    4.90999985    2.30999994
   20.91833305  462.66598511    4.90999985    2.30999994
   20.91972160  466.82000732    4.90999985    2.28999996
   20.92111015  436.67498779    4.90999985    2.30999994
   20.92249870  429.18399048    4.90999985    2.28999996
   20.92388916  462.35800171    4.90999985    2.30999994
   20.92527771  428.24099731    4.90999985    2.30999994
   20.92666626  534.34698486    4.90999985    2.30999994
   20.92805481  447.71600342    4.90999985    2.30999994
   20.92944336  531.26098633    4.90999985    2.30999994
   20.93083191  453.84799194    4.90999985    2.30999994
   20.93222237  445.81399536    4.90999985    2.30999994
   20.93361092  486.99301147    4.90999985    2.30999994
   20.93499947  437.64401245    4.90999985    2.28999996
   20.93638802  499.13500977    4.90999985    2.30999994
   20.93777657  485.26800537    4.90999985    2.28999996
   20.93916512  519.54199219    4.90999985    2.28999996
   20.94055557  487.84799194    4.90999985    2.28999996
   20.94194412  455.89300537    4.90999985    2.28999996
   20.94333267  507.32000732    4.90999985    2.28999996
   20.94472122  463.98999023    4.90999985    2.28999996
   20.94610977  543.14300537    4.90999985    2.28999996
   20.94749832  531.73602295    4.90999985    2.28999996
   20.94888878  434.92098999    4.90999985    2.28999996
   20.95027924  510.76599121    4.90999985    2.28999996
   20.95166779  443.22399902    4.90999985    2.28999996
   20.95305634  445.98001099    4.90999985    2.26999998
   20.95444489  546.49798584    4.90999985    2.26999998
   20.95583344  477.57101440    4.90999985    2.28999996
   20.95722389  407.99700928    4.90999985    2.26999998
   20.95861244  511.60900879    4.90999985    2.26999998
   20.96000099  432.56100464    4.90999985    2.26999998
   20.96138954  518.01501465    4.90999985    2.26999998
   20.96277809  419.82598877    4.90999985    2.28999996
   20.96416664  451.14300537    4.90999985    2.26999998
   20.96555710  402.25399780    4.90999985    2.26999998
   20.96694565  485.63198853    4.90999985    2.28999996
   20.96833420  473.19699097    4.90999985    2.28999996
   20.96972275  505.34298706    4.90999985    2.26999998
   20.97111130  431.91900635    4.90999985    2.28999996
   20.97249985  492.44000244    4.90999985    2.26999998
   20.97389030  480.28201294    4.90999985    2.26999998
   20.97527885  508.32299805    4.90999985    2.26999998
   20.97666740  435.78698730    4.90999985    2.26999998
   20.97805595  410.86801147    4.90999985    2.26999998
   20.97944450  391.19400024    4.90999985    2.26999998
   20.98083305  450.54199219    4.90999985    2.26999998
   20.98222351  479.19400024    4.90999985    2.26999998
   20.98361206  387.74099731    4.90999985    2.26999998
   20.98500061  428.62298584    4.90999985    2.26999998
   20.98638916  449.60198975    4.90999985    2.26999998
   20.98777771  408.84100342    4.90999985    2.26999998
   20.98916626  411.84399414    4.90999985    2.26999998
   20.99055672  421.07501221    4.90999985    2.26999998
   20.99194527  428.89700317    4.90999985    2.26999998
   20.99333382  503.41500854    4.90999985    2.26999998
   20.99472237  440.02700806    4.90999985    2.26999998
   20.99611092  458.53601074    4.90999985    2.26999998
   20.99749947  501.57199097    4.90999985    2.26999998
   20.99888992  411.73599243    4.90999985    2.28999996
   21.00027847  472.93399048    4.90999985    2.26999998
   21.00166702  451.34399414    4.90999985    2.26999998
   21.00305557  444.45001221    4.90999985    2.26999998
   21.00444412  449.34899902    4.90999985    2.26999998
   21.00583267  385.26599121    4.90999985    2.26999998
   21.00722313  435.79501343    4.90999985    2.26999998
   21.00861168  448.24398804    4.90999985    2.26999998
   21.01000023  432.83200073    4.90999985    2.26999998
   21.01138878  409.35998535    4.90999985    2.26999998
   21.01277733  384.29699707    4.90999985    2.26999998
   21.01416588  473.56698608    4.90999985    2.26999998
   21.01555634  389.79598999    4.90999985    2.26999998
   21.01694489  488.00500488    4.90999985    2.26999998
   21.01833344  372.68600464    4.90999985    2.26999998
   21.01972198  410.95999146    4.90999985    2.26999998
   21.02111053  396.04998779    4.90999985    2.26999998
   21.02249908  452.54501343    4.90999985    2.26999998
   21.02388954  467.80700684    4.90999985    2.26999998
   21.02527809  407.11700439    4.90999985    2.26999998
   21.02666664  439.89099121    4.90999985    2.26999998
   21.02805519  450.28698730    4.90999985    2.26999998
   21.02944374  395.54998779    4.90999985    2.26999998
   21.03083229  440.87899780    4.90999985    2.25000000
   21.03222275  409.75601196    4.90999985    2.26999998
   21.03361130  419.68600464    4.90999985    2.26999998
   21.03499985  432.26000977    4.90999985    2.26999998
   21.03638840  435.88699341    4.90999985    2.26999998
   21.03777695  416.35900879    4.90999985    2.26999998
   21.03916550  371.77899170    4.90999985    2.25000000
   21.04055595  462.47198486    4.90999985    2.26999998
   21.04194450  464.51300049    4.90999985    2.26999998
   21.04333305  449.27600098    4.90999985    2.26999998
   21.04472160  465.48999023    4.90999985    2.26999998
   21.04611015  426.48999023    4.90999985    2.26999998
   21.04749870  443.09600830    4.90999985    2.26999998
   21.04888916  459.09500122    4.90999985    2.26999998
   21.05027771  445.19500732    4.90999985    2.26999998
   21.05166626  454.01699829    4.90999985    2.25000000
   21.05305481  435.15701294    4.90999985    2.25000000
   21.05444336  450.32800293    4.90999985    2.25000000
   21.05583191  475.46301270    4.90999985    2.25000000
   21.05722237  482.56399536    4.90999985    2.25000000
   21.05861092  443.39199829    4.90999985    2.25000000
   21.05999947  438.33200073    4.90999985    2.25000000
   21.06138802  443.52398682    4.90999985    2.25000000
   21.06277657  470.92300415    4.90999985    2.25000000
   21.06416512  454.44601440    4.90999985    2.25000000
   21.06555557  425.27398682    4.90999985    2.25000000
   21.06694603  428.46899414    4.90999985    2.25000000
   21.06833458  407.96200562    4.90999985    2.25000000
   21.06972313  438.11801147    4.90999985    2.25000000
   21.07111168  395.96798706    4.90999985    2.25000000
   21.07250023  433.23800659    4.90999985    2.25000000
   21.07389069  401.47000122    4.90999985    2.25000000
   21.07527924  432.98498535    4.90999985    2.25000000
   21.07666779  470.41900635    4.90999985    2.25000000
   21.07805634  453.24600220    4.90999985    2.25000000
   21.07944489  422.29400635    4.90999985    2.25000000
   21.08083344  382.61099243    4.90999985    2.25000000
   21.08222389  463.14099121    4.90999985    2.23000002
   21.08361244  437.93899536    4.90999985    2.25000000
   21.08500099  374.48699951    4.90999985    2.25000000
   21.08638954  411.49499512    4.90999985    2.23000002
   21.08777809  388.72900391    4.90999985    2.25000000
   21.08916664  418.76000977    4.90999985    2.25000000
   21.09055710  437.60198975    4.90999985    2.23000002
   21.09194565  409.82998657    4.90999985    2.25000000
   21.09333420  411.41699219    4.90999985    2.25000000
   21.09472275  393.33999634    4.90999985    2.23000002
   21.09611130  427.92401123    4.90999985    2.23000002
   21.09749985  434.52301025    4.90999985    2.23000002
   21.09889030  451.03298950    4.90999985    2.23000002
   21.10027885  461.22698975    4.90999985    2.23000002
   21.10166740  440.60998535    4.90999985    2.23000002
   21.10305595  457.41799927    4.90999985    2.23000002
   21.10444450  455.22698975    4.90999985    2.23000002
   21.10583305  449.09399414    4.90999985    2.23000002
   21.10722351  409.61700439    4.90999985    2.23000002
   21.10861206  445.31298828    4.90999985    2.23000002
   21.11000061  469.55999756    4.90999985    2.23000002
   21.11138916  427.79299927    4.90999985    2.23000002
   21.11277771  408.70300293    4.90999985    2.23000002
   21.11416626  434.33499146    4.90999985    2.23000002
   21.11555672  394.48901367    4.90999985    2.23000002
   21.11694527  416.97698975    4.90999985    2.23000002
   21.11833382  436.61499023    4.90999985    2.23000002
   21.11972237  467.76300049    4.90999985    2.21000004
   21.12111092  427.53298950    4.90999985    2.23000002
   21.12249947  431.05599976    4.90999985    2.23000002
   21.12388992  456.23699951    4.90999985    2.21000004
   21.12527847  421.62100220    4.90999985    2.21000004
   21.12666702  411.64099121    4.90999985    2.21000004
   21.12805557  457.93099976    4.90999985    2.21000004
   21.12944412  445.35000610    4.90999985    2.21000004
   21.13083267  450.77398682    4.90999985    2.21000004
   21.13222313  395.13101196    4.90999985    2.23000002
   21.13361168  429.89199829    4.90999985    2.21000004
   21.13500023  458.27499390    4.90999985    2.21000004
   21.13638878  403.90701294    4.90999985    2.21000004
   21.13777733  396.11801147    4.90999985    2.21000004
   21.13916588  396.20999146    4.90999985    2.21000004
   21.14055634  406.12500000    4.90999985    2.21000004
   21.14194489  383.64401245    4.90999985    2.21000004
   21.14333344  397.51199341    4.90999985    2.21000004
   21.14472198  383.24200439    4.90999985    2.21000004
   21.14611053  439.98599243    4.90999985    2.21000004
   21.14749908  408.98599243    4.90999985    2.19000006
   21.14888954  447.33200073    4.90999985    2.21000004
   21.15027809  447.67300415    4.90999985    2.21000004
   21.15166664  396.49301147    4.90999985    2.21000004
   21.15305519  428.72000122    4.90999985    2.21000004
   21.15444374  444.23800659    4.90999985    2.19000006
   21.15583229  383.49899292    4.90999985    2.21000004
   21.15722275  393.39001465    4.90999985    2.19000006
   21.15861130  427.24398804    4.90999985    2.21000004
   21.15999985  370.57800293    4.90999985    2.21000004
   21.16138840  481.65899658    4.90999985    2.19000006
   21.16277695  437.33999634    4.90999985    2.19000006
   21.16416550  458.63699341    4.90999985    2.19000006
   21.16555595  453.58801270    4.90999985    2.19000006
   21.16694450  501.59399414    4.90999985    2.19000006
   21.16833305  394.58999634    4.90999985    2.19000006
   21.16972160  455.14599609    4.90999985    2.19000006
   21.17111015  479.43099976    4.90999985    2.19000006
   21.17249870  383.61700439    4.90999985    2.17000008
   21.17388916  429.84799194    4.90999985    2.19000006
   21.17527771  430.89999390    4.90999985    2.19000006
   21.17666626  428.86499023    4.90999985    2.19000006
   21.17805481  441.48498535    4.90999985    2.19000006
   21.17944336  413.15100098    4.90999985    2.17000008
   21.18083191  472.35400391    4.90999985    2.19000006
   21.18222237  461.56100464    4.90999985    2.17000008
   21.18361092  396.41400146    4.90999985    2.17000008
   21.18499947  408.80099487    4.90999985    2.17000008
   21.18638802  405.48300171    4.90999985    2.17000008
   21.18777657  393.15899658    4.90999985    2.17000008
   21.18916512  436.87500000    4.90999985    2.17000008
   21.19055557  444.13699341    4.90999985    2.19000006
   21.19194412  406.70599365    4.90999985    2.19000006
   21.19333267  419.39001465    4.90999985    2.13000011
   21.19472122  390.36700439    4.90999985    2.17000008
   21.19610977  473.89700317    4.90999985    2.17000008
   21.19749832  421.92999268    4.90999985    2.17000008
   21.19888878  455.06399536    4.90999985    2.17000008
   21.20027924  451.67700195    4.90999985    2.17000008
   21.20166779  458.53201294    4.90999985    2.17000008
   21.20305634  421.28298950    4.90999985    2.17000008
   21.20444489  450.70098877    4.90999985    2.17000008
   21.20583344  459.40701294    4.90999985    2.17000008
   21.20722389  408.73699951    4.90999985    2.17000008
   21.20861244  434.50399780    4.90999985    2.17000008
   21.21000099  479.82998657    4.90999985    2.17000008
   21.21138954  463.75799561    4.90999985    2.17000008
   21.21277809  418.95901489    4.90999985    2.17000008
   21.21416664  401.95700073    4.90999985    2.17000008
   21.21555710  424.58499146    4.90999985    2.17000008
   21.21694565  444.70700073    4.90999985    2.17000008
   21.21833420  488.75201416    4.90999985    2.17000008
   21.21972275  452.58898926    4.90999985    2.17000008
   21.22111130  399.62399292    4.90999985    2.17000008
   21.22249985  429.82800293    4.90999985    2.17000008
   21.22389030  436.38198853    4.90999985    2.15000010
   21.22527885  403.01800537    4.90999985    2.15000010
   21.22666740  444.33898926    4.90999985    2.15000010
   21.22805595  471.29598999    4.90999985    2.15000010
   21.22944450  412.88800049    4.90999985    2.17000008
   21.23083305  435.68301392    4.90999985    2.15000010
   21.23222351  431.42800903    4.90999985    2.15000010
   21.23361206  442.86401367    4.90999985    2.15000010
   21.23500061  452.87600708    4.90999985    2.15000010
   21.23638916  444.86099243    4.90999985    2.17000008
   21.23777771  427.59399414    4.90999985    2.15000010
   21.23916626  479.66500854    4.90999985    2.15000010
   21.24055672  458.76800537    4.90999985    2.15000010
   21.24194527  437.63400269    4.90999985    2.15000010
   21.24333382  442.68899536    4.90999985    2.17000008
   21.24472237  440.71301270    4.90999985    2.15000010
   21.24611092  464.02200317    4.90999985    2.15000010
   21.24749947  454.06100464    4.90999985    2.15000010
   21.24916649  461.00201416    4.90999985    2.15000010
   21.25027847  442.55899048    4.90999985    2.15000010
   21.25166702  446.76400757    4.90999985    2.15000010
   21.25305557  444.86700439    4.90999985    2.17000008
   21.25444412  451.71499634    4.90999985    2.15000010
   21.25583267  403.07299805    4.90999985    2.15000010
   21.25722313  413.66198730    4.90999985    2.15000010
   21.25888824  422.57998657    4.90999985    2.17000008
   21.26000023  467.86700439    4.90999985    2.15000010
   21.26138878  428.67498779    4.90999985    2.15000010
   21.26277733  489.24600220    4.90999985    2.15000010
   21.26416588  428.21200562    4.90999985    2.15000010
   21.26555634  457.93899536    4.90999985    2.15000010
   21.26694489  425.15200806    4.90999985    2.15000010
   21.26833344  454.89498901    4.90999985    2.15000010
   21.26972198  447.86599731    4.90999985    2.15000010
   21.27111053  421.13299561    4.90999985    2.15000010
   21.27249908  414.24499512    4.90999985    2.15000010
   21.27388954  494.92599487    4.90999985    2.15000010
   21.27527809  421.50201416    4.90999985    2.15000010
   21.27666664  411.84298706    4.90999985    2.15000010
   21.27805519  423.85598755    4.90999985    2.15000010
   21.27944374  425.29299927    4.90999985    2.15000010
   21.28083229  397.88000488    4.90999985    2.15000010
   21.28222275  455.01098633    4.90999985    2.13000011
   21.28361130  418.32400513    4.90999985    2.15000010
   21.28499985  435.31100464    4.90999985    2.15000010
   21.28638840  396.92001343    4.90999985    2.15000010
   21.28777695  475.76199341    4.90999985    2.15000010
   21.28916550  406.32199097    4.90999985    2.15000010
   21.29055595  428.43701172    4.90999985    2.15000010
   21.29194450  384.58300781    4.90999985    2.15000010
   21.29333305  386.63400269    4.90999985    2.15000010
   21.29472160  380.86599731    4.90999985    2.15000010
   21.29611015  404.92498779    4.90999985    2.15000010
   21.29749870  431.35800171    4.90999985    2.15000010
   21.29888916  433.06500244    4.90999985    2.15000010
   21.30027771  406.68099976    4.90999985    2.13000011
   21.30166626  422.38400269    4.90999985    2.15000010
   21.30305481  395.97198486    4.90999985    2.13000011
   21.30444336  405.12701416    4.90999985    2.13000011
   21.30583191  405.67800903    4.90999985    2.13000011
   21.30722237  454.64700317    4.90999985    2.13000011
   21.30861092  379.02200317    4.90999985    2.13000011
   21.30999947  370.02099609    4.90999985    2.13000011
   21.31138802  390.89498901    4.90999985    2.13000011
   21.31277657  361.53500366    4.90999985    2.13000011
   21.31416512  403.17800903    4.90999985    2.13000011
   21.31555557  411.30801392    4.90999985    2.13000011
   21.31694603  401.44601440    4.90999985    2.13000011
   21.31833458  410.24200439    4.90999985    2.13000011
   21.31972313  417.33401489    4.90999985    2.13000011
   21.32111168  504.82998657    4.90999985    2.13000011
   21.32250023  461.11401367    4.90999985    2.13000011
   21.32389069  395.81298828    4.90999985    2.13000011
   21.32527924  416.75100708    4.90999985    2.13000011
   21.32666779  401.27301025    4.90999985    2.13000011
   21.32805634  421.70401001    4.90999985    2.13000011
   21.32944489  405.65600586    4.90999985    2.13000011
   21.33083344  429.03399658    4.90999985    2.13000011
   21.33222389  450.04901123    4.90999985    2.13000011
   21.33361244  440.67098999    4.90999985    2.11999989
   21.33500099  446.27200317    4.90999985    2.13000011
   21.33638954  491.92599487    4.90999985    2.13000011
   21.33777809  533.36499023    4.90999985    2.13000011
   21.33805656  333.37799072    4.90999985    2.34999990
