    HOUR (UT)   FLARE FACTOR    SKY TESTER    SUN TESTER
   11.87916660   -1.00000000   -1.00000000   -1.00000000
   11.90499973   -1.00000000    1.85000002    2.19000006
   11.91027737   -1.00000000    1.85000002    2.21000004
   11.91333294   -1.00000000    1.83000004    2.21000004
   11.91666698   -1.00000000    1.83000004    2.21000004
   11.92111111   -1.00000000    1.80999994    2.23000002
   11.92416668   -1.00000000    1.80999994    2.21000004
   11.92750072   -1.00000000    1.80999994    2.23000002
   11.93083382   -1.00000000    1.78999996    2.23000002
   11.93416691   -1.00000000    1.78999996    2.23000002
   11.93750000   -1.00000000    1.78999996    2.23000002
   11.94055557   -1.00000000    1.78999996    2.23000002
   11.94388866   -1.00000000    1.78999996    2.23000002
   11.94722271   -1.00000000    1.76999998    2.23000002
   11.95027733   -1.00000000    1.78999996    2.25000000
   11.95361137   -1.00000000    1.76999998    2.25000000
   11.95694447   -1.00000000    1.75000000    2.25000000
   11.96000004   -1.00000000    1.75000000    2.25000000
   11.96333313   23.57019997    1.76999998    2.25000000
   11.96694374   -1.00000000   -1.00000000   -1.00000000
   11.97027779   -1.00000000   -1.00000000   -1.00000000
   11.97333336   -1.00000000   -1.00000000   -1.00000000
   11.97666645   39.68960190    1.76999998    2.25000000
   11.97972202   31.31859970    1.75000000    2.25000000
   11.98305511   55.94480133    1.75000000    2.25000000
   11.98638916   89.33709717    1.73000002    2.25000000
   11.98944473   74.30139923    1.73000002    2.25000000
   11.99277782   63.13619995    1.73000002    2.25000000
   11.99611092   87.46959686    1.73000002    2.25000000
   11.99916649  102.80000305    1.73000002    2.26999998
   11.99972248   76.27030182    1.73000002    2.26999998
   12.00277805  108.79399872    1.73000002    2.26999998
   12.00583363   78.95040131    1.73000002    2.25000000
   12.00916672  106.64600372    1.73000002    2.26999998
   12.01249981  131.98399353    1.73000002    2.26999998
   12.01555538   90.36470032    1.73000002    2.26999998
   12.01888847  130.56399536    1.75000000    2.26999998
   12.02222157  138.40800476    1.75000000    2.25000000
   12.02527714   90.21150208    1.73000002    2.26999998
   12.02861118  130.22700500    1.73000002    2.25000000
   12.03166676  132.00999451    1.75000000    2.26999998
   12.03305531   85.31030273    1.73000002    2.26999998
   12.03555584  124.51699829    1.75000000    2.25000000
   12.03861141  108.70200348    1.73000002    2.26999998
   12.04194450  159.01899719    1.73000002    2.26999998
   12.04527855  158.30999756    1.73000002    2.26999998
   12.04833412  111.85199738    1.73000002    2.26999998
   12.05166721  130.06700134    1.71000004    2.26999998
   12.05500031  130.43600464    1.71000004    2.26999998
   12.05805588  130.75700378    1.71000004    2.26999998
   12.06138897  169.93299866    1.71000004    2.26999998
   12.06472206  137.04699707    1.69000006    2.28999996
   12.06638908  137.38400269    1.69000006    2.28999996
   12.06833363  155.15800476    1.69000006    2.28999996
   12.07138920  150.04499817    1.69000006    2.28999996
   12.07472229  143.33999634    1.69000006    2.28999996
   12.07805538  110.42299652    1.66999996    2.28999996
   12.08111095  169.26499939    1.64999998    2.30999994
   12.08444405  160.16299438    1.64999998    2.28999996
   12.08777714  137.21699524    1.64999998    2.28999996
   12.09083271  173.44900513    1.64999998    2.30999994
   12.09416676  175.57099915    1.64999998    2.30999994
   12.09722233  173.86999512    1.63000000    2.30999994
   12.09972191  133.26100159    1.63000000    2.30999994
   12.10111141  157.49600220    1.63000000    2.30999994
   12.10416698  130.83299255    1.63000000    2.30999994
   12.10750008  162.69599915    1.63000000    2.30999994
   12.11083412  136.25599670    1.63000000    2.30999994
   12.11388969  179.35699463    1.63000000    2.30999994
   12.11722279  154.47399902    1.63000000    2.30999994
   12.12055588  144.42500305    1.63000000    2.30999994
   12.12361145  138.71499634    1.63000000    2.30999994
   12.12694454  196.69799805    1.60000002    2.32999992
   12.13000011  200.03999329    1.60000002    2.32999992
   12.13305569  193.86300659    1.60000002    2.32999992
   12.13388920  175.86799622    1.60000002    2.32999992
   12.13722229  184.75700378    1.60000002    2.32999992
   12.14027786  201.06799316    1.60000002    2.32999992
   12.14361095  178.16600037    1.58000004    2.32999992
   12.14666653  154.84700012    1.58000004    2.32999992
   12.14999962  218.11599731    1.58000004    2.32999992
   12.15333271  200.36000061    1.58000004    2.32999992
   12.15638828  238.33599854    1.58000004    2.34999990
   12.15972137  204.67500305    1.58000004    2.32999992
   12.16277695  188.16099548    1.55999994    2.32999992
   12.16611099  164.63499451    1.58000004    2.32999992
   12.16666698  206.32299805    1.58000004    2.32999992
   12.17000008  171.42700195    1.55999994    2.34999990
   12.17305565  200.25399780    1.55999994    2.34999990
   12.17638874  182.90299988    1.55999994    2.32999992
   12.17972279  253.99099731    1.55999994    2.34999990
   12.18277836  257.97799683    1.55999994    2.34999990
   12.18611145  222.90100098    1.55999994    2.34999990
   12.18916702  276.45001221    1.53999996    2.34999990
   12.19250011  254.02799988    1.53999996    2.34999990
   12.19583321  191.88499451    1.53999996    2.34999990
   12.19888878  204.61300659    1.53999996    2.34999990
   12.19999981  184.04100037    1.53999996    2.36999989
   12.20277786  175.07600403    1.53999996    2.32999992
   12.20583344  182.32600403    1.53999996    2.34999990
   12.20916653  208.12899780    1.53999996    2.34999990
   12.21249962  163.02400208    1.53999996    2.34999990
   12.21555519  167.70599365    1.53999996    2.34999990
   12.21888828  146.17199707    1.51999998    2.34999990
   12.22194386  164.28700256    1.53999996    2.34999990
   12.22527695  133.83500671    1.53999996    2.34999990
   12.22861099  133.34700012    1.53999996    2.34999990
   12.23166656  123.44499969    1.53999996    2.36999989
   12.23333359  124.50700378    1.53999996    2.34999990
   12.23555565  122.66500092    1.55999994    2.34999990
   12.23861122  121.17099762    1.55999994    2.34999990
   12.24194431  115.65899658    1.55999994    2.36999989
   12.24527836  108.94599915    1.55999994    2.36999989
   12.24833393  110.81700134    1.55999994    2.34999990
   12.25166702  114.60900116    1.55999994    2.36999989
   12.25472260  112.92900085    1.55999994    2.34999990
   12.25805569  107.19899750    1.55999994    2.34999990
   12.26138878  109.93900299    1.55999994    2.34999990
   12.26444435   96.69110107    1.55999994    2.34999990
   12.26666641   94.02349854    1.55999994    2.34999990
   12.26833344  100.13099670    1.55999994    2.36999989
   12.27138901  100.80699921    1.53999996    2.36999989
   12.27472210  100.71499634    1.53999996    2.36999989
   12.27805519   91.07520294    1.53999996    2.36999989
   12.28111076   97.65579987    1.53999996    2.36999989
   12.28444481   97.94960022    1.51999998    2.36999989
   12.28750038  103.86399841    1.51999998    2.36999989
   12.29083347   99.28849792    1.51999998    2.36999989
   12.29416752   96.73609924    1.51999998    2.36999989
   12.29722309   95.91699982    1.51999998    2.36999989
   12.30000019   99.32550049    1.51999998    2.36999989
   12.30111122   99.94480133    1.51999998    2.36999989
   12.30416679  104.51999664    1.51999998    2.36999989
   12.30749989  100.08100128    1.51999998    2.36999989
   12.31083393  101.45400238    1.51999998    2.36999989
   12.31388950   96.03070068    1.53999996    2.36999989
   12.31722260  105.44799805    1.55999994    2.36999989
   12.32027817  103.79699707    1.55999994    2.34999990
   12.32361126  104.41600037    1.58000004    2.34999990
   12.32694435   99.61940002    1.58000004    2.34999990
   12.32999992  102.41600037    1.61000001    2.32999992
   12.33333302   98.99500275    1.61000001    2.32999992
   12.33388901  100.74299622    1.61000001    2.32999992
   12.33694458  101.57299805    1.61000001    2.32999992
   12.34027767  102.05300140    1.64999998    2.32999992
   12.34361076  103.76799774    1.64999998    2.34999990
   12.34666634  102.55100250    1.63000000    2.36999989
   12.35000038  102.70500183    1.61000001    2.34999990
   12.35305595  103.78700256    1.60000002    2.36999989
   12.35638905  100.72000122    1.58000004    2.36999989
   12.35972214  107.30799866    1.55999994    2.34999990
   12.36277771  107.26799774    1.55999994    2.36999989
   12.36611176   98.98159790    1.55999994    2.36999989
   12.36666679  100.88999939    1.55999994    2.36999989
   12.36972237  101.20600128    1.55999994    2.36999989
   12.37277794   97.90090179    1.53999996    2.36999989
   12.37611103  100.49900055    1.53999996    2.36999989
   12.37944412   99.04609680    1.53999996    2.36999989
   12.38249969  105.25700378    1.53999996    2.39000010
   12.38583279  104.49400330    1.51999998    2.39000010
   12.38916683  107.82299805    1.51999998    2.36999989
   12.39222240  104.93699646    1.50000000    2.39000010
   12.39555550  106.69599915    1.50000000    2.36999989
   12.39888859  106.31600189    1.51999998    2.36999989
   12.39999962  107.35099792    1.50000000    2.36999989
   12.40249920  108.16000366    1.50000000    2.39000010
   12.40555477  105.08499908    1.50000000    2.36999989
   12.40888882  111.44100189    1.50000000    2.39000010
   12.41222191  109.58499908    1.50000000    2.36999989
   12.41527748  105.94999695    1.50000000    2.39000010
   12.41861153  102.75299835    1.50000000    2.39000010
   12.42194462  104.27899933    1.48000002    2.39000010
   12.42500019  106.72299957    1.48000002    2.39000010
   12.42833328  106.99600220    1.50000000    2.39000010
   12.43138885  109.30000305    1.50000000    2.39000010
   12.43333340  109.43199921    1.50000000    2.39000010
   12.43527794  108.17400360    1.48000002    2.39000010
   12.43833351  108.69599915    1.48000002    2.39000010
   12.44166660  109.37699890    1.48000002    2.39000010
   12.44499969  108.35900116    1.50000000    2.39000010
   12.44805527  107.05000305    1.50000000    2.39000010
   12.45138836  108.54299927    1.48000002    2.39000010
   12.45444393  108.06400299    1.48000002    2.39000010
   12.45777798  107.02899933    1.48000002    2.39000010
   12.46111107  114.14700317    1.48000002    2.40000010
   12.46416664  109.01399994    1.48000002    2.39000010
   12.46666622  118.19300079    1.46000004    2.39000010
   12.46805477  114.50299835    1.46000004    2.40000010
   12.47111034  114.85700226    1.46000004    2.40000010
   12.47444439  115.57800293    1.44000006    2.39000010
   12.47777748  113.75399780    1.46000004    2.40000010
   12.48083305  115.10900116    1.41999996    2.40000010
   12.48416710  121.09200287    1.41999996    2.40000010
   12.48750019  119.54699707    1.39999998    2.42000008
   12.49055576  122.93099976    1.39999998    2.42000008
   12.49388885  118.88300323    1.38000000    2.42000008
   12.49722290  125.63800049    1.38000000    2.44000006
   12.50000000  118.75700378    1.38000000    2.44000006
   12.50083351  123.53099823    1.36000001    2.44000006
   12.50388908  120.18900299    1.36000001    2.42000008
   12.50722218  117.19000244    1.36000001    2.42000008
   12.51055527  112.29599762    1.36000001    2.42000008
   12.51361084  114.31500244    1.36000001    2.42000008
   12.51694393  113.78399658    1.36000001    2.42000008
   12.51999950  116.47499847    1.36000001    2.44000006
   12.52333355  117.14299774    1.34000003    2.42000008
   12.52666664  117.33799744    1.34000003    2.44000006
   12.52972221  119.79499817    1.34000003    2.42000008
   12.53305531  114.61499786    1.34000003    2.42000008
   12.53361130  112.16200256    1.34000003    2.42000008
   12.53694534  112.93800354    1.36000001    2.44000006
   12.54000092  120.60600281    1.34000003    2.44000006
   12.54333401  115.18299866    1.33000004    2.46000004
   12.54638958  112.70999908    1.33000004    2.46000004
   12.54972267  108.87699890    1.33000004    2.44000006
   12.55305576  111.08899689    1.33000004    2.46000004
   12.55611134   96.16960144    1.30999994    2.46000004
   12.55944443   95.53690338    1.30999994    2.44000006
   12.56277752   91.87719727    1.28999996    2.46000004
   12.56583309  100.99400330    1.28999996    2.46000004
   12.56694412  100.49400330    1.28999996    2.46000004
   12.56972218  108.45800018    1.28999996    2.46000004
   12.57277775   95.36759949    1.30999994    2.46000004
   12.57611084  107.08200073    1.28999996    2.46000004
   12.57944393  106.22200012    1.28999996    2.46000004
   12.58249950  107.30100250    1.28999996    2.46000004
   12.58583260   98.40699768    1.28999996    2.46000004
   12.58888817   90.30220032    1.26999998    2.46000004
   12.59222221   92.91210175    1.28999996    2.46000004
   12.59555531  101.61599731    1.26999998    2.46000004
   12.59861088  103.67099762    1.26999998    2.46000004
   12.60027790  105.29599762    1.26999998    2.46000004
   12.60249996  112.58000183    1.26999998    2.48000002
   12.60555553   96.69229889    1.26999998    2.46000004
   12.60888958  101.28399658    1.26999998    2.46000004
   12.61194515  100.84400177    1.26999998    2.46000004
   12.61527824  103.64299774    1.26999998    2.46000004
   12.61861134  111.37899780    1.26999998    2.46000004
   12.62166691  109.33799744    1.26999998    2.46000004
   12.62500000  108.47799683    1.26999998    2.46000004
   12.62833309  101.83000183    1.26999998    2.46000004
   12.63138866  107.02500153    1.26999998    2.46000004
   12.63361073  101.71900177    1.28999996    2.48000002
   12.63527775  102.81600189    1.26999998    2.48000002
   12.63833332  107.59899902    1.28999996    2.46000004
   12.64166641   98.57749939    1.28999996    2.48000002
   12.64472198   97.31510162    1.30999994    2.46000004
   12.64805508  100.00499725    1.28999996    2.46000004
   12.65138817   98.74729919    1.30999994    2.46000004
   12.65444374  101.02700043    1.30999994    2.46000004
   12.65777779  109.79599762    1.28999996    2.46000004
   12.66111088  104.45700073    1.28999996    2.48000002
   12.66416645  105.21099854    1.26999998    2.46000004
   12.66694450  107.17400360    1.26999998    2.46000004
   12.66805553  103.01999664    1.26999998    2.46000004
   12.67111111  109.59600067    1.26999998    2.46000004
   12.67444515  107.24199677    1.26999998    2.48000002
   12.67750072   98.44020081    1.26999998    2.48000002
   12.68083382  111.43399811    1.26999998    2.48000002
   12.68416691  105.18900299    1.26999998    2.46000004
   12.68722248   93.46559906    1.26999998    2.46000004
   12.69055557  109.34200287    1.26999998    2.48000002
   12.69388866  112.86499786    1.28999996    2.48000002
   12.69694424  103.81900024    1.28999996    2.46000004
   12.70027733  101.58399963    1.28999996    2.46000004
   12.70083332  101.54499817    1.28999996    2.46000004
   12.70388889  105.54299927    1.28999996    2.48000002
   12.70722198  113.21800232    1.30999994    2.48000002
   12.71027756   96.15309906    1.28999996    2.48000002
   12.71361065  104.69799805    1.28999996    2.48000002
   12.71694374   98.28970337    1.28999996    2.46000004
   12.71999931  107.17299652    1.28999996    2.48000002
   12.72333336   96.21080017    1.26999998    2.48000002
   12.72666645  111.90599823    1.25000000    2.48000002
   12.72972202  110.72499847    1.25000000    2.48000002
   12.73305511  101.11599731    1.25000000    2.48000002
   12.73361111   90.08100128    1.25000000    2.48000002
   12.73666668  103.76000214    1.25000000    2.48000002
   12.73972225   83.36540222    1.23000002    2.50000000
   12.74305534   94.18579865    1.23000002    2.50000000
   12.74611092   98.05680084    1.21000004    2.50000000
   12.74944496  104.16500092    1.21000004    2.50000000
   12.75277805  101.18900299    1.21000004    2.50000000
   12.75583363   93.33540344    1.19000006    2.50000000
   12.75916672  102.28099823    1.19000006    2.50000000
   12.76249981  103.39700317    1.19000006    2.50000000
   12.76555538  104.24299622    1.19000006    2.50000000
   12.76694393  100.72499847    1.19000006    2.50000000
   12.76944447   92.23799896    1.16999996    2.51999998
   12.77250004   98.78790283    1.16999996    2.50000000
   12.77583313  102.65499878    1.14999998    2.51999998
   12.77916622  100.70600128    1.14999998    2.51999998
   12.78222179   93.08290100    1.16999996    2.51999998
   12.78555584  102.27400208    1.14999998    2.51999998
   12.78861141   99.18340302    1.16999996    2.51999998
   12.79194450  107.17800140    1.14999998    2.51999998
   12.79527855  100.96199799    1.14999998    2.51999998
   12.79833412  107.80000305    1.14999998    2.51999998
   12.80027771  109.25399780    1.14999998    2.51999998
   12.80222225   95.31310272    1.14999998    2.51999998
   12.80527782  120.06500244    1.14999998    2.51999998
   12.80861092   96.79769897    1.14999998    2.51999998
   12.81194496   94.05599976    1.14999998    2.51999998
   12.81500053  107.50599670    1.14999998    2.51999998
   12.81833363   99.92179871    1.14999998    2.51999998
   12.82166672  101.59999847    1.14999998    2.51999998
   12.82472229   99.03959656    1.14999998    2.53999996
   12.82805538  111.43599701    1.13000000    2.51999998
   12.83138847  104.06700134    1.13000000    2.51999998
   12.83361053  109.88099670    1.13000000    2.51999998
   12.83500004  104.74099731    1.13000000    2.51999998
   12.83805561   95.31179810    1.13000000    2.51999998
   12.84138870  113.73400116    1.13000000    2.51999998
   12.84472179  102.25499725    1.14999998    2.53999996
   12.84777737  101.66699982    1.13000000    2.51999998
   12.85111141  113.03900146    1.13000000    2.51999998
   12.85416698  104.46900177    1.13000000    2.53999996
   12.85750008  107.16300201    1.13000000    2.53999996
   12.86083412  105.00499725    1.13000000    2.51999998
   12.86388969  102.10900116    1.14999998    2.51999998
   12.86694431  100.80500031    1.13000000    2.53999996
   12.86777782  102.74900055    1.14999998    2.53999996
   12.87083340  109.65699768    1.13000000    2.51999998
   12.87416649  110.48100281    1.14999998    2.53999996
   12.87750053  100.70700073    1.13000000    2.53999996
   12.88055611  103.24099731    1.13000000    2.53999996
   12.88388920   97.67649841    1.13000000    2.53999996
   12.88694477  109.23300171    1.13000000    2.53999996
   12.89027786   96.39540100    1.13000000    2.53999996
   12.89361095  106.49199677    1.14999998    2.53999996
   12.89666653   99.52040100    1.13000000    2.53999996
   12.91638851  120.05999756    1.16999996    2.53999996
   12.91694450  112.65799713    1.16999996    2.53999996
   12.92000008  104.11799622    1.16999996    2.53999996
   12.92333412  114.55000305    1.16999996    2.53999996
   12.92638874  110.29799652    1.16999996    2.53999996
   12.92972279  102.74600220    1.16999996    2.53999996
   12.93305588  108.00399780    1.16999996    2.51999998
   12.93611145  106.81999969    1.16999996    2.53999996
   12.93944454  108.91000366    1.16999996    2.53999996
   12.94277763  107.99199677    1.16999996    2.53999996
   12.94583321  103.12400055    1.14999998    2.53999996
   12.94916630  108.05300140    1.16999996    2.51999998
   12.95027733  100.78299713    1.14999998    2.53999996
   12.95277786  104.12400055    1.14999998    2.53999996
   12.95611095  106.25399780    1.14999998    2.53999996
   12.95944405  104.11799622    1.14999998    2.53999996
   12.96249962  106.99199677    1.14999998    2.53999996
   12.96583271  104.61199951    1.14999998    2.53999996
   12.96916580  112.18000031    1.14999998    2.53999996
   12.97222137  110.22699738    1.13000000    2.53999996
   12.97555542   99.57900238    1.13000000    2.53999996
   12.97861099  102.89199829    1.14999998    2.53999996
   12.98194408  112.56700134    1.14999998    2.51999998
   12.98361111  107.90299988    1.13000000    2.53999996
   12.98555565  107.17800140    1.13000000    2.53999996
   12.98888874  105.69999695    1.13000000    2.53999996
   12.99222279   99.54509735    1.13000000    2.53999996
   12.99527836  106.03800201    1.11000001    2.55999994
   12.99861145  110.30699921    1.11000001    2.53999996
   13.00194454   97.73660278    1.11000001    2.53999996
   13.00500011  105.35600281    1.11000001    2.55999994
   13.00833321  102.54000092    1.11000001    2.53999996
   13.01138878   94.82920074    1.11000001    2.53999996
   13.01472187   87.42009735    1.11000001    2.53999996
   13.01694393  101.38300323    1.11000001    2.53999996
   13.01833344  109.91300201    1.11000001    2.55999994
   13.02166653   91.50540161    1.11000001    2.53999996
   13.02499962  101.02400208    1.09000003    2.53999996
   13.02805519   93.32620239    1.09000003    2.55999994
   13.03138828   92.29889679    1.09000003    2.55999994
   13.03444481   96.84519958    1.09000003    2.55999994
   13.03777790   96.04329681    1.09000003    2.55999994
   13.04111195   96.27339935    1.09000003    2.55999994
   13.04416752  100.49700165    1.07000005    2.55999994
   13.04750061  100.14499664    1.07000005    2.55999994
   13.05027771   90.37169647    1.09000003    2.55999994
   13.05111122  107.13200378    1.09000003    2.55999994
   13.05444431  110.05799866    1.09000003    2.55999994
   13.05777836  107.36399841    1.09000003    2.55999994
   13.06083393   94.38369751    1.09000003    2.55999994
   13.06416702  108.91000366    1.09000003    2.55999994
   13.06722260  102.37999725    1.11000001    2.55999994
   13.07055569  105.01499939    1.11000001    2.55999994
   13.07388878   96.05229950    1.11000001    2.55999994
   13.07694435   93.75839996    1.13000000    2.55999994
   13.08027744   99.89890289    1.13000000    2.55999994
   13.08361053  103.08999634    1.11000001    2.55999994
   13.08388901   95.71690369    1.11000001    2.55999994
   13.08722210  102.32900238    1.11000001    2.55999994
   13.09055519   90.28739929    1.11000001    2.55999994
   13.09361076  104.11699677    1.11000001    2.53999996
   13.09694386  105.23699951    1.11000001    2.55999994
   13.10000038   97.91829681    1.11000001    2.55999994
   13.10333347  102.20999908    1.11000001    2.55999994
   13.10666752   94.31849670    1.11000001    2.55999994
   13.10972214   85.96479797    1.11000001    2.55999994
   13.11305618   98.75129700    1.11000001    2.57999992
   13.11638927  101.08999634    1.11000001    2.55999994
   13.11694431   88.72949982    1.11000001    2.55999994
   13.11972237   93.44450378    1.11000001    2.55999994
   13.12305546   93.01670074    1.13000000    2.53999996
   13.12638855   94.41020203    1.13000000    2.55999994
   13.12944412   92.57929993    1.13000000    2.55999994
   13.13277817   89.06400299    1.13000000    2.55999994
   13.13583279  101.41200256    1.13000000    2.53999996
   13.13916683  104.77600098    1.13000000    2.55999994
   13.14249992   97.67030334    1.14999998    2.55999994
   13.14555550   92.38430023    1.13000000    2.55999994
   13.14888859  102.78099823    1.14999998    2.55999994
   13.15027714  100.87500000    1.13000000    2.55999994
   13.15249920  102.73300171    1.13000000    2.55999994
   13.15583324  101.77500153    1.13000000    2.55999994
   13.15916634   92.38569641    1.13000000    2.55999994
   13.16222191   97.21070099    1.13000000    2.55999994
   13.16555500   91.84359741    1.11000001    2.55999994
   13.16888905   90.57510376    1.11000001    2.55999994
   13.17194462   98.66709900    1.11000001    2.55999994
   13.17527771   90.18280029    1.09000003    2.55999994
   13.17833328  101.20300293    1.09000003    2.57999992
   13.18166733   88.33209991    1.09000003    2.55999994
   13.18361092   93.94239807    1.09000003    2.57999992
   13.18527794   93.53649902    1.09000003    2.57999992
   13.29888916   -1.00000000   -1.00000000   -1.00000000
   13.39472198   -1.00000000   -1.00000000   -1.00000000
   13.49499989   -1.00000000   -1.00000000   -1.00000000
   13.53777790   73.35389709    0.94000000    2.66000009
   13.54083347  116.55899811    0.94000000    2.66000009
   13.54416752  100.83799744    0.94000000    2.66000009
   13.54722309   98.89949799    0.94000000    2.64000010
   13.55055618  110.77799988    0.94000000    2.66000009
   13.55388927  111.17099762    0.94000000    2.66000009
   13.55805588  111.17099762    0.94000000    2.66000009
   13.56194496  103.70300293    0.94000000    2.66000009
   13.56527805  103.88899994    0.94000000    2.64000010
   13.56861115  106.95300293    0.94000000    2.64000010
   13.57111073  111.17400360    0.94000000    2.66000009
   13.57222176  101.78099823    0.94000000    2.64000010
   13.57555580  102.67700195    0.92000002    2.67000008
   13.57861137  107.64299774    0.92000002    2.66000009
   13.58194447   88.27410126    0.92000002    2.66000009
   13.58527756   94.95610046    0.92000002    2.66000009
   13.58833313  106.97200012    0.92000002    2.66000009
   13.59166622  102.03600311    0.92000002    2.66000009
   13.59499931  107.22499847    0.92000002    2.66000009
   13.60083389  107.22499847    0.92000002    2.66000009
   13.60500050   98.88279724    0.92000002    2.66000009
   13.60805607  113.71399689    0.89999998    2.66000009
   13.61138916   99.98259735    0.89999998    2.67000008
   13.61472225   88.22059631    0.92000002    2.67000008
   13.61777782  107.20999908    0.89999998    2.67000008
   13.62111092  100.97399902    0.92000002    2.67000008
   13.62416649  100.00499725    0.89999998    2.66000009
   13.62750053  103.40000153    0.89999998    2.66000009
   13.63083363  111.59300232    0.89999998    2.66000009
   13.63388920  101.17900085    0.89999998    2.66000009
   13.63722229   97.44869995    0.92000002    2.66000009
   13.63777733  117.86199951    0.92000002    2.66000009
   13.64361095  117.86199951    0.89999998    2.66000009
   13.64777756  101.30300140    0.92000002    2.66000009
   13.65111065  104.66000366    0.89999998    2.66000009
   13.65416622  105.52200317    0.89999998    2.67000008
   13.65749931  107.64600372    0.89999998    2.67000008
   13.66055489   95.71140289    0.89999998    2.66000009
   13.66388893  110.58399963    0.92000002    2.66000009
   13.66722298   99.77760315    0.92000002    2.66000009
   13.67027855   99.46620178    0.92000002    2.66000009
   13.67111111  104.38999939    0.92000002    2.66000009
   13.67416668  100.29499817    0.92000002    2.67000008
   13.67722225  104.46399689    0.92000002    2.67000008
   13.68055630  100.79100037    0.92000002    2.67000008
   13.68638897  100.79100037    0.92000002    2.67000008
   13.69055557  104.19599915    0.92000002    2.67000008
   13.69388866  103.78800201    0.92000002    2.67000008
   13.69694424  104.74700165    0.89999998    2.66000009
   13.70027733   94.42680359    0.89999998    2.66000009
   13.70361137   99.33419800    0.89999998    2.66000009
   13.70444393  111.39299774    0.89999998    2.66000009
   13.70722198   97.11509705    0.89999998    2.66000009
   13.71027756   99.90699768    0.89999998    2.66000009
   13.71361065  109.21900177    0.89999998    2.67000008
   13.71666622  102.34200287    0.89999998    2.67000008
   13.71999931  107.21900177    0.92000002    2.67000008
   13.72333336   98.90119934    0.92000002    2.67000008
   13.72944355   98.90119934    0.92000002    2.67000008
   13.73333359   96.94529724    0.92000002    2.67000008
   13.73666668  101.78099823    0.92000002    2.67000008
   13.73777771  103.83999634    0.92000002    2.67000008
   13.74055576   97.26229858    0.89999998    2.67000008
   13.74361134  111.47000122    0.89999998    2.66000009
   13.74694443   97.80139923    0.89999998    2.67000008
   13.75000000   97.25740051    0.89999998    2.67000008
   13.75333309   96.44190216    0.92000002    2.67000008
   13.75666714  108.47000122    0.89999998    2.67000008
   13.75972176   98.78199768    0.89999998    2.67000008
   13.76305580   97.68489838    0.88000000    2.67000008
   13.76638889  111.86900330    0.88000000    2.67000008
   13.77222157  111.86900330    0.88000000    2.67000008
   13.77638817  101.44499969    0.86000001    2.67000008
   13.77944374   99.79409790    0.86000001    2.67000008
   13.78277779   94.94660187    0.86000001    2.69000006
   13.78611183   97.23580170    0.86000001    2.69000006
   13.78916740  103.29299927    0.88000000    2.67000008
   13.79250050   95.16449738    0.88000000    2.67000008
   13.79555607   86.76149750    0.86000001    2.69000006
   13.79888916   91.72750092    0.88000000    2.69000006
   13.80222225  101.67099762    0.86000001    2.69000006
   13.80444431   94.85910034    0.86000001    2.69000006
   13.80583382  109.94499969    0.86000001    2.69000006
   13.80888939   97.91390228    0.86000001    2.67000008
   13.81500053   97.91390228    0.86000001    2.69000006
   13.81916618  114.65200043    0.86000001    2.69000006
   13.82250023  103.62599945    0.86000001    2.69000006
   13.82555580   -1.00000000    0.86000001    2.71000004
   13.82888889   -1.00000000    0.86000001    2.69000006
   13.83194447  258.04000854    0.86000001    2.71000004
   13.83527756  109.35600281    0.86000001    2.69000006
   13.83777714  100.42400360    0.88000000    2.69000006
   13.83916664   96.08219910    0.86000001    2.69000006
   13.84222221   94.50740051    0.86000001    2.69000006
   13.84555531   91.61109924    0.86000001    2.69000006
   13.84861088   99.00900269    0.86000001    2.71000004
   13.85194492  104.44999695    0.86000001    2.69000006
   13.85777855  104.44999695    0.86000001    2.69000006
   13.86194515   92.50039673    0.88000000    2.69000006
   13.86527824  100.95999908    0.88000000    2.69000006
   13.86861134   95.24479675    0.88000000    2.71000004
   13.87111092  110.37000275    0.88000000    2.69000006
   13.87222195  113.10600281    0.88000000    2.69000006
   13.87527752   -1.00000000    0.86000001    2.71000004
   13.87861156   -1.00000000    0.86000001    2.69000006
   13.88166714  115.50199890    0.88000000    2.69000006
   13.88500023   96.21029663    0.86000001    2.69000006
   13.88833332   95.23079681    0.86000001    2.71000004
   13.89138889  104.87400055    0.88000000    2.69000006
   13.89472198  100.68900299    0.86000001    2.69000006
   13.90083313  100.68900299    0.86000001    2.69000006
   13.90472221   91.51679993    0.88000000    2.69000006
   13.90805531   86.39710236    0.88000000    2.69000006
   13.91138840   99.00199890    0.88000000    2.69000006
   13.91444397   99.55500031    0.86000001    2.69000006
   13.91777802   97.50820160    0.86000001    2.71000004
   13.92111111  147.48500061    0.86000001    2.69000006
   13.92416668   -1.00000000    0.86000001    2.71000004
   13.92750072   -1.00000000    0.88000000    2.69000006
   13.93055630   45.89569855    0.88000000    2.71000004
   13.93388939  161.54400635    0.88000000    2.71000004
   13.93722248  111.40699768    0.88000000    2.71000004
   13.93777752  100.35500336    0.89999998    2.71000004
   13.94361115  100.35500336    0.88000000    2.71000004
   13.94777775  102.73799896    0.88000000    2.71000004
   13.95083332  106.47799683    0.88000000    2.69000006
   13.95416641   94.48090363    0.88000000    2.69000006
   13.95749950  103.46900177    0.89999998    2.69000006
   13.96055508  102.93499756    0.89999998    2.69000006
   13.96388912   97.52400208    0.89999998    2.71000004
   13.96694374  100.16799927    0.88000000    2.69000006
   13.97027779  156.48500061    0.89999998    2.71000004
   13.97111034  174.87199402    0.89999998    2.71000004
   13.97388840   -1.00000000    0.88000000    2.71000004
   13.97694397   -1.00000000    0.89999998    2.71000004
   13.98027706   -1.00000000    0.88000000    2.71000004
   13.98638916   -1.00000000    0.88000000    2.71000004
   13.99055576   90.42970276    0.88000000    2.71000004
   13.99388885  104.69599915    0.88000000    2.69000006
   13.99694443   94.60479736    0.88000000    2.71000004
   14.00027752   93.25869751    0.88000000    2.69000006
   14.00333309   96.64199829    0.88000000    2.69000006
   14.00444412   91.18309784    0.88000000    2.69000006
   14.00722218   96.26409912    0.88000000    2.69000006
   14.01027775   91.09929657    0.88000000    2.69000006
   14.01361084   93.95749664    0.88000000    2.71000004
   14.01694393  103.79399872    0.88000000    2.71000004
   14.01999950  266.70700073    0.88000000    2.71000004
   14.02333355   -1.00000000    0.88000000    2.69000006
   14.03333378   -1.00000000    0.88000000    2.69000006
   14.03666687  104.52600098    0.88000000    2.69000006
   14.03777790  106.14399719    0.88000000    2.71000004
   14.04027843  104.48200226    0.88000000    2.71000004
   14.04333401  121.56099701    0.88000000    2.69000006
   14.04666710  109.82099915    0.88000000    2.71000004
   14.05000019  111.28800201    0.88000000    2.71000004
   14.05305576  105.53800201    0.88000000    2.71000004
   14.05638885  111.76399994    0.88000000    2.71000004
   14.05972195  110.90399933    0.88000000    2.69000006
   14.06277752  103.61100006    0.86000001    2.69000006
   14.06611156  103.41699982    0.86000001    2.69000006
   14.07222176  103.41699982    0.86000001    2.69000006
   14.07611084   -1.00000000    0.88000000    2.69000006
   14.07944393   -1.00000000    0.88000000    2.71000004
   14.08277798   -1.00000000    0.86000001    2.71000004
   14.08583260  103.89199829    0.86000001    2.71000004
   14.08916664   99.93930054    0.86000001    2.71000004
   14.09249973   97.60900116    0.86000001    2.69000006
   14.09555531   97.27519989    0.86000001    2.71000004
   14.09888840  105.72799683    0.86000001    2.69000006
   14.10194492  101.12000275    0.86000001    2.71000004
   14.10444450  100.68900299    0.86000001    2.71000004
   14.10583401  105.78399658    0.86000001    2.71000004
   14.10888958  104.60800171    0.86000001    2.71000004
   14.11500072  104.60800171    0.88000000    2.71000004
   14.11916637   99.68070221    0.86000001    2.71000004
   14.12222195   -1.00000000    0.88000000    2.71000004
   14.12555599   -1.00000000    0.88000000    2.71000004
   14.12888908   -1.00000000    0.86000001    2.71000004
   14.13194466   -1.00000000    0.86000001    2.71000004
   14.13527775  109.46900177    0.88000000    2.71000004
   14.13777733  104.31300354    0.86000001    2.71000004
   14.13888836  103.82299805    0.86000001    2.71000004
   14.14194393  108.66000366    0.88000000    2.71000004
   14.14527798  102.65499878    0.86000001    2.71000004
   14.14861107  109.64399719    0.86000001    2.71000004
   14.15166664   99.91709900    0.86000001    2.71000004
   14.15777779   99.91709900    0.86000001    2.71000004
   14.16194439   94.37359619    0.86000001    2.71000004
   14.16527748   96.12020111    0.86000001    2.71000004
   14.16833401   94.19879913    0.88000000    2.71000004
   14.17194462   -1.00000000    0.86000001    2.71000004
   14.17527771   -1.00000000    0.88000000    2.71000004
   14.17861176   -1.00000000    0.86000001    2.71000004
   14.18166733   -1.00000000    0.86000001    2.71000004
   14.18500042   88.99810028    0.86000001    2.73000002
   14.18833351  105.74900055    0.86000001    2.73000002
   14.19138908  112.74600220    0.86000001    2.71000004
   14.19472218  107.05300140    0.86000001    2.73000002
   14.20055580  107.05300140    0.86000001    2.73000002
   14.20472240  113.53600311    0.83999997    2.71000004
   14.20805550  114.63800049    0.86000001    2.73000002
   14.21111107   98.82920074    0.83999997    2.71000004
   14.21472168  109.94699860    0.83999997    2.73000002
   14.21805477  115.85199738    0.83999997    2.73000002
   14.22111034   -1.00000000    0.83999997    2.73000002
   14.22444439   -1.00000000    0.83999997    2.71000004
   14.22777748   -1.00000000    0.83999997    2.73000002
   14.23083305   -1.00000000    0.81999999    2.73000002
   14.23416710   -1.00000000    0.81999999    2.73000002
   14.23750019  108.37400055    0.81999999    2.73000002
   14.23777771  108.07499695    0.81999999    2.73000002
   14.24361134  108.07499695    0.81999999    2.73000002
   14.24750042  102.78900146    0.81999999    2.73000002
   14.25083351  107.14800262    0.81999999    2.73000002
   14.25416660  109.81700134    0.81999999    2.73000002
   14.25722218  102.28600311    0.81999999    2.73000002
   14.26055527  107.32499695    0.83999997    2.73000002
   14.26388931   99.85900116    0.83999997    2.73000002
   14.26694393  101.78800201    0.81999999    2.75000000
   14.27027798   -1.00000000    0.81999999    2.73000002
   14.27388859   -1.00000000    0.81999999    2.73000002
   14.27694416   -1.00000000    0.81999999    2.73000002
   14.28027725   -1.00000000    0.81999999    2.73000002
   14.28638935   -1.00000000    0.81999999    2.73000002
   14.29055595  107.42099762    0.81999999    2.73000002
   14.29361153   97.57479858    0.81999999    2.73000002
   14.29694462  101.54199982    0.81999999    2.75000000
   14.30027771   98.39730072    0.81999999    2.73000002
   14.30333328   91.34850311    0.81999999    2.73000002
   14.30444431  100.19599915    0.80000001    2.75000000
   14.30694485   86.78959656    0.80000001    2.73000002
   14.31027794   99.06279755    0.80000001    2.73000002
   14.31333351   96.11949921    0.80000001    2.73000002
   14.31666660   90.82319641    0.80000001    2.75000000
   14.31999969   -1.00000000    0.80000001    2.73000002
   14.32305527   -1.00000000    0.80000001    2.73000002
   14.33333302   -1.00000000    0.80000001    2.75000000
   14.33638859   99.64769745    0.80000001    2.75000000
   14.33777714   96.25689697    0.79000002    2.75000000
   14.34000015  104.29699707    0.79000002    2.73000002
   14.34333324   98.74530029    0.79000002    2.75000000
   14.34666634   94.88680267    0.79000002    2.73000002
   14.35000038   92.85759735    0.79000002    2.75000000
   14.35305595   99.62830353    0.79000002    2.75000000
   14.35638905  106.43099976    0.76999998    2.75000000
   14.35972214   95.91470337    0.76999998    2.75000000
   14.36277771   93.38020325    0.79000002    2.75000000
   14.36611176   95.08139801    0.76999998    2.75000000
   14.37194443   95.08139801    0.76999998    2.75000000
   14.37611103   -1.00000000    0.76999998    2.75000000
   14.37944412   -1.00000000    0.76999998    2.75000000
   14.38249969   -1.00000000    0.76999998    2.75000000
   14.38583279  106.75900269    0.75000000    2.76999998
   14.38916683   93.46990204    0.75000000    2.76999998
   14.39222240   98.40029907    0.75000000    2.75000000
   14.39555550   93.99960327    0.75000000    2.75000000
   14.39888859   86.64270020    0.75000000    2.75000000
   14.40194416   93.47810364    0.75000000    2.75000000
   14.40472221   92.90920258    0.75000000    2.75000000
   14.40555477  105.25900269    0.75000000    2.75000000
   14.40888882   88.70670319    0.75000000    2.75000000
   14.41499996   88.70670319    0.75000000    2.75000000
   14.41888905   92.89820099    0.75000000    2.76999998
   14.42222214   -1.00000000    0.75000000    2.76999998
   14.42555618   -1.00000000    0.75000000    2.75000000
   14.42861176   -1.00000000    0.73000002    2.75000000
   14.43194485   -1.00000000    0.73000002    2.75000000
   14.43527794   86.36370087    0.73000002    2.76999998
   14.43805599   96.35590363    0.73000002    2.75000000
   14.43861103   93.14820099    0.73000002    2.75000000
   14.44194412   95.12879944    0.73000002    2.75000000
   14.44499969   96.40450287    0.73000002    2.76999998
   14.44833374   96.28379822    0.73000002    2.76999998
   14.45166683   91.42400360    0.73000002    2.75000000
   14.45777798   91.42400360    0.73000002    2.75000000
   14.46194458   99.18550110    0.75000000    2.75000000
   14.46500015  102.57399750    0.73000002    2.75000000
   14.46833324   99.91739655    0.75000000    2.75000000
   14.47194386   -1.00000000    0.73000002    2.75000000
   14.47527695   -1.00000000    0.73000002    2.75000000
   14.47833252   -1.00000000    0.73000002    2.75000000
   14.48166656   -1.00000000    0.75000000    2.75000000
   14.48500061  223.44200134    0.73000002    2.75000000
   14.48805618   95.89250183    0.75000000    2.75000000
   14.49138927   91.86750031    0.75000000    2.75000000
   14.49444485   89.28440094    0.75000000    2.75000000
   14.50055599   89.28440094    0.75000000    2.75000000
   14.50472260   87.42359924    0.75000000    2.75000000
   14.50805569   85.30439758    0.75000000    2.75000000
   14.51111126   81.01000214    0.75000000    2.75000000
   14.51444435   88.06580353    0.75000000    2.75000000
   14.51749992   88.53559875    0.75000000    2.75000000
   14.52083302   -1.00000000    0.75000000    2.75000000
   14.52416611   -1.00000000    0.75000000    2.76999998
   14.52722168   -1.00000000    0.75000000    2.75000000
   14.53055573   -1.00000000    0.75000000    2.76999998
   14.53388977   -1.00000000    0.75000000    2.76999998
   14.53694534   93.00000000    0.75000000    2.76999998
   14.53805637   97.14769745    0.75000000    2.76999998
   14.55861092   97.14769745    0.75000000    2.78999996
   14.56277752   90.05879974    0.75000000    2.75000000
   14.56611156   96.89389801    0.75000000    2.76999998
   14.56944466   90.42990112    0.75000000    2.75000000
   14.57277775   -1.00000000    0.75000000    2.76999998
   14.57611084   -1.00000000    0.75000000    2.76999998
   14.57916641   -1.00000000    0.75000000    2.76999998
   14.58249950   96.09120178    0.75000000    2.76999998
   14.58583260   92.09069824    0.75000000    2.76999998
   14.58888817   95.10959625    0.75000000    2.76999998
   14.59222221   93.68319702    0.75000000    2.76999998
   14.59555531   95.19680023    0.75000000    2.76999998
   14.60138893   95.19680023    0.73000002    2.76999998
   14.60555553   90.07420349    0.73000002    2.76999998
   14.60888958   85.16870117    0.73000002    2.78999996
   14.61194515   96.89040375    0.73000002    2.76999998
   14.61527824  103.71299744    0.73000002    2.76999998
   14.61861134   91.39630127    0.75000000    2.76999998
   14.62166691   -1.00000000    0.75000000    2.78999996
   14.62500000   -1.00000000    0.73000002    2.78999996
   14.62805557   -1.00000000    0.75000000    2.76999998
   14.63138866   -1.00000000    0.75000000    2.78999996
   14.63472176   -1.00000000    0.75000000    2.78999996
   14.63777733   96.72589874    0.75000000    2.76999998
   14.63833332   95.67680359    0.75000000    2.76999998
   14.64444447   95.67680359    0.73000002    2.76999998
   14.64833355   90.44519806    0.75000000    2.76999998
   14.65166664  105.32299805    0.73000002    2.76999998
   14.65499973  103.67400360    0.73000002    2.78999996
   14.65805531   97.19429779    0.73000002    2.78999996
   14.66138840   86.87539673    0.73000002    2.78999996
   14.66472149   99.59269714    0.73000002    2.78999996
   14.66777802  104.27200317    0.73000002    2.78999996
   14.67111111   -1.00000000    0.73000002    2.78999996
   14.67472267   -1.00000000    0.73000002    2.76999998
   14.67777824   -1.00000000    0.73000002    2.76999998
   14.68111134   -1.00000000    0.73000002    2.78999996
   14.68722248   -1.00000000    0.73000002    2.76999998
   14.69138908   95.95780182    0.73000002    2.76999998
   14.69444466   99.26779938    0.73000002    2.76999998
   14.69777775   84.88379669    0.73000002    2.78999996
   14.70111084   97.92620087    0.73000002    2.78999996
   14.70416641  100.34500122    0.73000002    2.78999996
   14.70499992   97.84889984    0.73000002    2.78999996
   14.70777798   96.47059631    0.73000002    2.78999996
   14.71111107   93.40339661    0.73000002    2.76999998
   14.71416664   95.26540375    0.73000002    2.78999996
   14.71749973   95.04170227    0.73000002    2.76999998
   14.72083282   -1.00000000    0.73000002    2.78999996
   14.72388840   -1.00000000    0.73000002    2.78999996
   14.73416710   -1.00000000    0.73000002    2.78999996
   14.73722267   99.23889923    0.70999998    2.76999998
   14.73833370  105.97200012    0.70999998    2.78999996
   14.74083328  107.75399780    0.70999998    2.76999998
   14.74416733   96.61190033    0.70999998    2.78999996
   14.74722290   99.95770264    0.70999998    2.78999996
   14.75055599   97.86440277    0.70999998    2.78999996
   14.75388908   96.55069733    0.70999998    2.78999996
   14.75694466   94.60859680    0.70999998    2.78999996
   14.76027775  102.74299622    0.70999998    2.78999996
   14.76333332   99.29759979    0.70999998    2.78999996
   14.76666641  100.72399902    0.70999998    2.78999996
   14.77694416   -1.00000000    0.70999998    2.78999996
   14.77999973   -1.00000000    0.70999998    2.78999996
   14.78333378   -1.00000000    0.70999998    2.78999996
   14.78666687  103.47899628    0.70999998    2.78999996
   14.78972244  106.13700104    0.70999998    2.78999996
   14.79305553  102.00199890    0.70999998    2.78999996
   14.79638958   97.38890076    0.70999998    2.78999996
   14.79944515   97.92310333    0.70999998    2.78999996
   14.80277824  110.55100250    0.70999998    2.78999996
   14.80500031   99.81199646    0.70999998    2.78999996
   14.80638885  101.05000305    0.70999998    2.78999996
   14.80972195   92.66159821    0.70999998    2.78999996
   14.81583309   92.66159821    0.70999998    2.78999996
   14.81972218   95.46469879    0.70999998    2.78999996
   14.82305527   -1.00000000    0.70999998    2.80999994
   14.82638836   -1.00000000    0.70999998    2.80999994
   14.82944393   -1.00000000    0.70999998    2.78999996
   14.83277798   -1.00000000    0.70999998    2.80999994
   14.83611107  106.45999908    0.70999998    2.80999994
   14.83833313  104.79799652    0.70999998    2.80999994
   14.83972168  105.62799835    0.70999998    2.80999994
   14.84305477  102.92500305    0.70999998    2.80999994
   14.84611034   92.90899658    0.70999998    2.80999994
   14.84944439   92.52529907    0.70999998    2.80999994
   14.85277843   98.21179962    0.70999998    2.78999996
   14.85861111   98.21179962    0.70999998    2.80999994
   14.86277771   99.37930298    0.70999998    2.78999996
   14.86583328  104.68000031    0.70999998    2.78999996
   14.86916637  101.74600220    0.70999998    2.78999996
   14.87277794   -1.00000000    0.70999998    2.78999996
   14.87583351   -1.00000000    0.70999998    2.80999994
   14.87916660   -1.00000000    0.70999998    2.78999996
   14.88249969   -1.00000000    0.70999998    2.82999992
   14.88555527   -1.00000000    0.70999998    2.78999996
   14.88888836   99.38420105    0.70999998    2.78999996
   14.89194393   96.60299683    0.70999998    2.78999996
   14.89527798  104.13800049    0.73000002    2.80999994
   14.90138817  104.13800049    0.73000002    2.78999996
   14.90555477  103.26000214    0.73000002    2.78999996
   14.90888882  104.17199707    0.73000002    2.78999996
   14.91194439   97.27249908    0.73000002    2.78999996
   14.91527748   96.41269684    0.73000002    2.78999996
   14.91833401  106.59100342    0.73000002    2.80999994
   14.92166710   -1.00000000    0.73000002    2.78999996
   14.92500019   -1.00000000    0.73000002    2.80999994
   14.92805576   -1.00000000    0.73000002    2.78999996
   14.93138885   -1.00000000    0.73000002    2.78999996
   14.93472195   -1.00000000    0.73000002    2.80999994
   14.93777752  104.11499786    0.73000002    2.78999996
   14.93833351   98.44100189    0.73000002    2.78999996
   14.94416714   98.44100189    0.73000002    2.78999996
   14.94833374  100.50700378    0.73000002    2.78999996
   14.95166683  102.30899811    0.73000002    2.80999994
   14.95472240  105.31500244    0.73000002    2.78999996
   14.95805550   96.72570038    0.73000002    2.78999996
   14.96138859   97.40100098    0.73000002    2.80999994
   14.96444416  106.52100372    0.73000002    2.80999994
   14.96777725   -1.00000000    0.73000002    2.78999996
   14.97111034   -1.00000000    0.73000002    2.78999996
   14.97444439   -1.00000000    0.73000002    2.80999994
   14.97749996   -1.00000000    0.73000002    2.78999996
   14.98083305  105.01799774    0.73000002    2.78999996
   14.98694515  105.01799774    0.73000002    2.80999994
   14.99111176  100.44100189    0.70999998    2.78999996
   14.99444485   95.01329803    0.70999998    2.78999996
   14.99777794   98.24199677    0.73000002    2.78999996
   15.00083351   96.62519836    0.70999998    2.80999994
   15.00416660   91.01110077    0.73000002    2.78999996
   15.00500011   88.83010101    0.73000002    2.78999996
   15.00777817   93.82409668    0.70999998    2.78999996
   15.01111126   -1.00000000    0.70999998    2.78999996
   15.01416683   97.66439819    0.70999998    2.80999994
   15.01749992   89.65010071    0.70999998    2.80999994
   15.02083302   89.71820068    0.70999998    2.80999994
   15.02388859   93.29540253    0.70999998    2.78999996
   15.02999973   93.29540253    0.70999998    2.78999996
   15.03416729   92.02950287    0.70999998    2.78999996
   15.03722286   98.57939911    0.70999998    2.78999996
   15.03861141   95.90229797    0.70999998    2.78999996
   15.04083347   97.68630219    0.70999998    2.78999996
   15.04416752   -1.00000000    0.70999998    2.78999996
   15.04722309   -1.00000000    0.70999998    2.80999994
   15.05055618   -1.00000000    0.70999998    2.78999996
   15.05388927   -1.00000000    0.70999998    2.78999996
   15.05694485   -1.00000000    0.70999998    2.78999996
   15.06027794  100.20099640    0.70999998    2.78999996
   15.06361103  105.07700348    0.70999998    2.80999994
   15.06666660   92.87310028    0.70999998    2.78999996
   15.07277775   92.87310028    0.70999998    2.78999996
   15.07694435  106.74299622    0.69000000    2.78999996
   15.07999992   93.70739746    0.69000000    2.78999996
   15.08333302  106.01499939    0.69000000    2.80999994
   15.08666611  107.84700012    0.70999998    2.80999994
   15.08972168   -1.00000000    0.70999998    2.80999994
   15.09305477   -1.00000000    0.70999998    2.80999994
   15.09611034   -1.00000000    0.69000000    2.78999996
   15.09944439   -1.00000000    0.70999998    2.78999996
   15.10277843  205.89999390    0.70999998    2.78999996
   15.10527802  108.18900299    0.69000000    2.78999996
   15.10638905  100.15499878    0.69000000    2.78999996
   15.10972214   97.95819855    0.69000000    2.78999996
   15.11555576   97.95819855    0.69000000    2.80999994
   15.11972237  103.80799866    0.69000000    2.80999994
   15.12305546  102.33399963    0.69000000    2.78999996
   15.12611103  105.28800201    0.69000000    2.78999996
   15.12944412  104.32499695    0.69000000    2.78999996
   15.13249969   -1.00000000    0.69000000    2.78999996
   15.13583279   -1.00000000    0.69000000    2.78999996
   15.13944435   -1.00000000    0.69000000    2.80999994
   15.14249992   -1.00000000    0.69000000    2.80999994
   15.14583302   -1.00000000    0.69000000    2.80999994
   15.14916611  113.03099823    0.69000000    2.80999994
   15.15222168  107.81900024    0.69000000    2.80999994
   15.15833282  107.81900024    0.69000000    2.80999994
   15.16249943  104.77700043    0.69000000    2.80999994
   15.16583252  105.59400177    0.69000000    2.80999994
   15.16916656  104.67199707    0.69000000    2.82999992
   15.17194462  107.65000153    0.67000002    2.80999994
   15.17250061   98.73229980    0.67000002    2.80999994
   15.17583370  108.34200287    0.69000000    2.80999994
   15.17888927   -1.00000000    0.67000002    2.80999994
   15.18222237   -1.00000000    0.67000002    2.80999994
   15.18555546   -1.00000000    0.69000000    2.80999994
   15.18861103   -1.00000000    0.67000002    2.80999994
   15.19194412  108.98000336    0.67000002    2.80999994
   15.19527817  111.76899719    0.67000002    2.80999994
   15.20138836  111.76899719    0.67000002    2.80999994
   15.20555496  108.53700256    0.69000000    2.82999992
   15.20861053  103.72699738    0.67000002    2.80999994
   15.21194458  101.24500275    0.67000002    2.82999992
   15.21527767  105.69000244    0.67000002    2.80999994
   15.21833324  101.54699707    0.67000002    2.80999994
   15.22166634   -1.00000000    0.67000002    2.80999994
   15.22472191   -1.00000000    0.67000002    2.80999994
   15.22805500   -1.00000000    0.67000002    2.80999994
   15.23138809   -1.00000000    0.67000002    2.80999994
   15.23444462   -1.00000000    0.67000002    2.80999994
   15.23777771  106.64600372    0.67000002    2.80999994
   15.23861122  103.15899658    0.67000002    2.82999992
   15.24416733  103.15899658    0.69000000    2.82999992
   15.24833393  100.14499664    0.67000002    2.80999994
   15.25166702  104.18099976    0.67000002    2.80999994
   15.25472260  105.15599823    0.67000002    2.80999994
   15.25805569  104.18699646    0.69000000    2.80999994
   15.26111126  107.69799805    0.67000002    2.80999994
   15.26444435  106.14299774    0.67000002    2.80999994
   15.26777744  112.02100372    0.67000002    2.80999994
   15.27083302  102.15499878    0.67000002    2.80999994
   15.27194405   94.25420380    0.67000002    2.80999994
   15.27444458  100.55899811    0.69000000    2.80999994
   15.27777767   99.18409729    0.69000000    2.82999992
   15.28111076  109.97100067    0.69000000    2.82999992
   15.28694534  109.97100067    0.67000002    2.80999994
   15.29111195   95.95919800    0.67000002    2.80999994
   15.29444504  107.32299805    0.67000002    2.80999994
   15.29750061  108.00099945    0.67000002    2.80999994
   15.30083370  102.73999786    0.69000000    2.80999994
   15.30416679   -1.00000000    0.67000002    2.80999994
   15.30749989   -1.00000000    0.69000000    2.82999992
   15.31083393   -1.00000000    0.69000000    2.82999992
   15.31388950   -1.00000000    0.67000002    2.80999994
   15.31722260  109.43000031    0.69000000    2.82999992
   15.32027817  106.69799805    0.69000000    2.80999994
   15.32361126   99.29219818    0.69000000    2.80999994
   15.32999992   99.29219818    0.69000000    2.80999994
   15.33388901   99.70369720    0.69000000    2.80999994
   15.33722210  100.34999847    0.69000000    2.80999994
   15.33861065  102.86299896    0.69000000    2.80999994
   15.34083271  102.23200226    0.69000000    2.80999994
   15.34416676   91.14980316    0.69000000    2.80999994
   15.34749985  105.41000366    0.69000000    2.82999992
   15.35055637  105.43499756    0.69000000    2.80999994
   15.35388947   99.00260162    0.69000000    2.80999994
   15.35694504  107.41500092    0.67000002    2.82999992
   15.36027813  103.95200348    0.67000002    2.80999994
   15.36361122  104.89499664    0.67000002    2.80999994
   15.36666679   99.21029663    0.69000000    2.80999994
   15.37277794   99.21029663    0.69000000    2.80999994
   15.37694454  103.90899658    0.67000002    2.80999994
   15.38000011  112.20099640    0.69000000    2.82999992
   15.38333321  106.63300323    0.69000000    2.82999992
   15.38666630  110.87799835    0.69000000    2.82999992
   15.38972187  108.12999725    0.69000000    2.82999992
   15.39305496   98.39969635    0.69000000    2.82999992
   15.39611053  104.97000122    0.69000000    2.82999992
   15.39944458   99.13430023    0.67000002    2.80999994
   15.40277767   -1.00000000    0.67000002    2.80999994
   15.40611076   -1.00000000    0.67000002    2.80999994
   15.40916634   -1.00000000    0.67000002    2.80999994
   15.41555500   -1.00000000    0.67000002    2.82999992
   15.41972256  106.55999756    0.67000002    2.82999992
   15.42305565  100.83899689    0.67000002    2.82999992
   15.42611122  100.53800201    0.64999998    2.82999992
   15.42944431  117.72899628    0.67000002    2.82999992
   15.43249989  112.63200378    0.64999998    2.80999994
   15.43583298  102.66500092    0.64999998    2.82999992
   15.43861103  106.27500153    0.64999998    2.82999992
   15.43944454  114.72299957    0.64999998    2.80999994
   15.44277763  105.97899628    0.67000002    2.82999992
   15.44611073  100.45500183    0.64999998    2.82999992
   15.44916630   95.87750244    0.64999998    2.80999994
   15.45249939   94.02110291    0.64999998    2.80999994
   15.45833302   94.02110291    0.67000002    2.82999992
   15.46249962   82.55079651    0.67000002    2.82999992
   15.46583271   96.94020081    0.67000002    2.80999994
   15.46888828  105.29299927    0.64999998    2.84999990
   15.47194386  106.78500366    0.64999998    2.82999992
   15.47249985  108.76499939    0.64999998    2.82999992
   15.47583294  106.47699738    0.64999998    2.82999992
   15.47888851   99.18080139    0.64999998    2.82999992
   15.48222160  101.15399933    0.64999998    2.82999992
   15.48555565   94.05789948    0.64999998    2.82999992
   15.48861122   96.44930267    0.64999998    2.82999992
   15.49194431  108.65899658    0.64999998    2.84999990
   15.49527836   93.76480103    0.64999998    2.82999992
   15.50111103   93.76480103    0.63000000    2.82999992
   15.50527763   -1.00000000    0.63000000    2.82999992
   15.50861073   -1.00000000    0.63000000    2.82999992
   15.51194477   -1.00000000    0.63000000    2.82999992
   15.51500034   -1.00000000    0.63000000    2.82999992
   15.51833344  118.39299774    0.63000000    2.82999992
   15.52138901  123.16200256    0.63000000    2.82999992
   15.52472210  115.19000244    0.63000000    2.82999992
   15.52805519  117.27999878    0.63000000    2.84999990
   15.53111076  105.75399780    0.61000001    2.84999990
   15.53444481  121.20099640    0.61000001    2.84999990
   15.53777790  109.85900116    0.61000001    2.84999990
   15.53861141  102.19100189    0.61000001    2.84999990
   15.54416752  102.19100189    0.61000001    2.84999990
   15.54833412  117.60700226    0.61000001    2.84999990
   15.55138874  107.82199860    0.63000000    2.82999992
   15.55472279  110.20999908    0.64999998    2.82999992
   15.57222176  106.53700256    0.67000002    2.82999992
   15.57472229   97.65119934    0.67000002    2.80999994
   15.57777786  104.63899994    0.67000002    2.82999992
   15.58111095   23.57019997    0.67000002    2.82999992
   15.59111118   -1.00000000    0.67000002    2.82999992
   15.59444427   -1.00000000    0.67000002    2.80999994
   15.59749985  108.44300079    0.69000000    2.82999992
   15.60083389  120.21399689    0.67000002    2.82999992
   15.60416698  106.32099915    0.69000000    2.82999992
   15.60555553  110.15699768    0.69000000    2.82999992
   15.60750008  109.51699829    0.69000000    2.82999992
   15.61083412  101.32800293    0.67000002    2.82999992
   15.61416721  109.69699860    0.69000000    2.82999992
   15.61722279  113.90899658    0.69000000    2.82999992
   15.62055588  105.96499634    0.69000000    2.82999992
   15.62388897  101.38099670    0.69000000    2.82999992
   15.63388920   -1.00000000    0.69000000    2.82999992
   15.63722229   -1.00000000    0.69000000    2.80999994
   15.64111137  122.44999695    0.70999998    2.82999992
   15.64416695  116.15200043    0.70999998    2.82999992
   15.64750004  114.76300049    0.70999998    2.80999994
   15.65055561  112.92199707    0.69000000    2.82999992
   15.65388870  108.22100067    0.69000000    2.80999994
   15.65722179  112.99900055    0.69000000    2.80999994
   15.66027737  120.39499664    0.69000000    2.82999992
   15.66361046  101.93199921    0.69000000    2.82999992
   15.66694450  107.32900238    0.69000000    2.82999992
   15.67277813  107.32900238    0.69000000    2.82999992
   15.67694473   -1.00000000    0.69000000    2.80999994
   15.68027782  155.38099670    0.69000000    2.82999992
   15.68333340  142.03900146    0.69000000    2.82999992
   15.68666649  107.20700073    0.69000000    2.82999992
   15.69000053   94.60939789    0.69000000    2.80999994
   15.69305515   99.08409882    0.69000000    2.82999992
   15.69638920   98.87650299    0.69000000    2.82999992
   15.69944477  100.27400208    0.67000002    2.82999992
   15.70277786  184.31599426    0.69000000    2.82999992
   15.70555496  211.85200500    0.67000002    2.82999992
   15.70666695   -1.00000000    0.67000002    2.82999992
   15.70972157   -1.00000000    0.67000002    2.82999992
   15.71555519   -1.00000000    0.64999998    2.82999992
   15.71972179  110.12100220    0.64999998    2.82999992
   15.72305489  111.13800049    0.64999998    2.82999992
   15.72611046   95.64450073    0.64999998    2.82999992
   15.72944355  105.67099762    0.63000000    2.82999992
   15.73277760  102.09400177    0.63000000    2.84999990
   15.73583317  105.43800354    0.63000000    2.84999990
   15.73888874  115.31600189    0.63000000    2.82999992
   15.73972225  106.29100037    0.63000000    2.84999990
   15.74277782  112.36699677    0.63000000    2.84999990
   15.74611092  104.29499817    0.63000000    2.84999990
   15.74916649  107.44599915    0.61000001    2.84999990
   15.75249958  103.93800354    0.61000001    2.84999990
   15.75861073  103.93800354    0.61000001    2.84999990
   15.76249981  107.36599731    0.61000001    2.84999990
   15.76583290   97.00820160    0.61000001    2.84999990
   15.76916599   98.22059631    0.58999997    2.84999990
   15.77222157  113.08100128    0.58999997    2.84999990
   15.77277756  139.10299683    0.58999997    2.84999990
   15.77583313   -1.00000000    0.58999997    2.84999990
   15.77916622   -1.00000000    0.58999997    2.84999990
   15.78249931  166.38000488    0.58999997    2.84999990
   15.78555584  106.99199677    0.61000001    2.86999989
   15.78888893  114.72599792    0.61000001    2.86999989
   15.79194450  115.65499878    0.61000001    2.86999989
   15.79527855  105.19499969    0.61000001    2.86999989
   15.80138874  105.19499969    0.58999997    2.84999990
   15.80555534  138.92900085    0.61000001    2.84999990
   15.80611134  136.75300598    0.61000001    2.84999990
   15.80916691   -1.00000000    0.61000001    2.84999990
   15.81250000   -1.00000000    0.61000001    2.84999990
   15.81583309  173.77699280    0.61000001    2.84999990
   15.81888866  105.39600372    0.61000001    2.84999990
   15.82222176   92.49400330    0.61000001    2.84999990
   15.82527733  109.97200012    0.61000001    2.86999989
   15.82861137  105.26200104    0.63000000    2.86999989
   15.83194447  100.53399658    0.61000001    2.84999990
   15.83500004  102.87999725    0.61000001    2.84999990
   15.83833313  102.49099731    0.61000001    2.82999992
   15.83888817  108.22699738    0.63000000    2.82999992
   15.84416676  108.22699738    0.63000000    2.84999990
   15.84833336  102.04299927    0.63000000    2.84999990
   15.85166740  104.28099823    0.63000000    2.84999990
   15.85472298  103.73200226    0.63000000    2.84999990
   15.85805607   94.85089874    0.63000000    2.84999990
   15.86138916  107.71800232    0.63000000    2.84999990
   15.86444473  105.63099670    0.63000000    2.84999990
   15.86777782  103.07700348    0.63000000    2.84999990
   15.87083340  116.55300140    0.63000000    2.84999990
   15.87222195  106.84300232    0.63000000    2.84999990
   15.87472248   -1.00000000    0.63000000    2.84999990
   15.87777805   -1.00000000    0.63000000    2.82999992
   15.88111115  110.44599915    0.63000000    2.84999990
   15.88694477  110.44599915    0.63000000    2.84999990
   15.89111137  103.30699921    0.64999998    2.84999990
   15.89444447   99.95269775    0.64999998    2.84999990
   15.89750004   93.66819763    0.64999998    2.86999989
   15.90083313  102.08599854    0.63000000    2.84999990
   15.90416622  103.86000061    0.63000000    2.84999990
   15.90555477  102.54499817    0.63000000    2.84999990
   15.90777779   -1.00000000    0.63000000    2.84999990
   15.91083336   -1.00000000    0.63000000    2.84999990
   15.91416645  100.91999817    0.64999998    2.84999990
   15.91750050  111.67400360    0.64999998    2.84999990
   15.92055607  106.43800354    0.64999998    2.84999990
   15.92388916   96.28829956    0.64999998    2.82999992
   15.93000031   96.28829956    0.64999998    2.84999990
   15.93388939  107.57399750    0.63000000    2.84999990
   15.93722248  100.13600159    0.64999998    2.84999990
   15.93888855  104.13500214    0.63000000    2.84999990
   15.94083309  104.14199829    0.63000000    2.84999990
   15.94416714  101.05799866    0.63000000    2.84999990
   15.94722271  100.32900238    0.63000000    2.84999990
   15.95055580  110.66300201    0.63000000    2.84999990
   15.95361137  105.58200073    0.63000000    2.84999990
   15.95694447  111.06800079    0.63000000    2.84999990
   15.96027756  112.33899689    0.63000000    2.84999990
   15.96333313   95.91339874    0.64999998    2.84999990
   15.96666622  100.00800323    0.64999998    2.84999990
   15.97277737  100.00800323    0.64999998    2.82999992
   15.97694397  104.50000000    0.64999998    2.84999990
   15.97999954   93.35030365    0.64999998    2.84999990
   15.98333359  103.87000275    0.64999998    2.84999990
   15.98638916  105.47699738    0.64999998    2.84999990
   15.98972225   99.28639984    0.64999998    2.84999990
   15.99305534  107.59200287    0.64999998    2.84999990
   15.99611092  103.00599670    0.64999998    2.82999992
   15.99944496  108.98899841    0.64999998    2.84999990
   16.00277710   99.49189758    0.64999998    2.84999990
   16.00555611  101.83100128    0.67000002    2.84999990
   16.00638962   98.35929871    0.67000002    2.84999990
   16.00944519   99.87899780    0.64999998    2.84999990
   16.01555634   99.87899780    0.64999998    2.82999992
   16.01972198   99.24490356    0.64999998    2.82999992
   16.02277756  102.76699829    0.64999998    2.82999992
   16.02611160  103.69400024    0.64999998    2.84999990
   16.02944374   96.99250031    0.64999998    2.84999990
   16.03249931  103.75700378    0.67000002    2.82999992
   16.03583336   97.71140289    0.67000002    2.84999990
   16.03888893   97.84020233    0.64999998    2.84999990
   16.03944397  104.59400177    0.67000002    2.84999990
   16.04249954  102.61599731    0.67000002    2.84999990
   16.04583359   97.73780060    0.67000002    2.84999990
   16.04916573  104.24199677    0.64999998    2.84999990
   16.05222130  102.38200378    0.64999998    2.84999990
   16.05833244  102.38200378    0.64999998    2.84999990
   16.06250000   94.84079742    0.64999998    2.84999990
   16.06583214   98.49810028    0.64999998    2.84999990
   16.06888962  104.31800079    0.64999998    2.84999990
   16.07222366   99.36879730    0.64999998    2.82999992
   16.07277870   97.27410126    0.64999998    2.82999992
   16.07583427  103.08699799    0.64999998    2.84999990
   16.07916832   96.78730011    0.64999998    2.84999990
   16.08250046   97.23449707    0.64999998    2.84999990
   16.08555603  102.87300110    0.64999998    2.84999990
   16.08889008   94.96739960    0.64999998    2.84999990
   16.09194565  100.58499908    0.64999998    2.84999990
   16.09527779   99.81390381    0.64999998    2.84999990
   16.10138893   99.81390381    0.64999998    2.84999990
   16.10527802  103.10700226    0.64999998    2.84999990
   16.10583305   99.12819672    0.64999998    2.84999990
   16.10916710  102.08599854    0.64999998    2.84999990
   16.11250114  100.44799805    0.67000002    2.84999990
   16.11555672  100.16100311    0.64999998    2.84999990
   16.11888885   94.29129791    0.64999998    2.82999992
   16.12222290   96.24819946    0.64999998    2.84999990
   16.12527847  111.34100342    0.64999998    2.82999992
   16.12861061   95.23989868    0.64999998    2.84999990
   16.13166618  100.53900146    0.67000002    2.82999992
   16.13500023  100.35700226    0.67000002    2.84999990
   16.13833237  101.22200012    0.67000002    2.82999992
   16.13916588   96.58589935    0.67000002    2.84999990
   16.14416695   96.58589935    0.67000002    2.84999990
   16.14833260   98.74590302    0.67000002    2.84999990
   16.15138817   99.11859894    0.69000000    2.82999992
   16.15472221   89.31459808    0.69000000    2.84999990
   16.15777779   90.80319977    0.67000002    2.82999992
   16.16110992   86.24009705    0.69000000    2.82999992
   16.16444397   82.82550049    0.67000002    2.82999992
   16.16749954   83.13600159    0.67000002    2.82999992
   16.17083359   78.46720123    0.67000002    2.82999992
   16.17249870   76.36049652    0.67000002    2.82999992
   16.17444420   90.35160065    0.67000002    2.82999992
   16.17777634   95.66410065    0.67000002    2.84999990
   16.18083191   84.86769867    0.69000000    2.82999992
   16.18694305   84.86769867    0.69000000    2.84999990
   16.19111061   92.31300354    0.69000000    2.82999992
   16.19416618   89.69660187    0.69000000    2.82999992
   16.19749832   94.17639923    0.69000000    2.84999990
   16.20083427   96.44270325    0.67000002    2.84999990
   16.20388985   90.23930359    0.67000002    2.82999992
   16.20583344   94.12799835    0.67000002    2.82999992
   16.20777893   93.18520355    0.67000002    2.84999990
   16.21111107   96.66149902    0.69000000    2.82999992
   16.21416664   95.72290039    0.69000000    2.82999992
   16.21750069   92.61350250    0.69000000    2.82999992
   16.22055626   88.47540283    0.69000000    2.84999990
   16.22389030   95.21749878    0.67000002    2.82999992
   16.22972298   95.21749878    0.67000002    2.82999992
   16.23388863  101.34400177    0.67000002    2.82999992
   16.23722267   98.45279694    0.67000002    2.82999992
   16.23916626   96.36530304    0.69000000    2.82999992
   16.24083328   97.55249786    0.67000002    2.82999992
   16.24416733   97.41739655    0.69000000    2.82999992
   16.24722290   92.27349854    0.67000002    2.82999992
   16.25055504   95.95539856    0.67000002    2.82999992
   16.25361061   91.74430084    0.69000000    2.82999992
   16.25694466   99.95520020    0.67000002    2.84999990
   16.26027870   82.82379913    0.67000002    2.82999992
   16.26333427   93.24669647    0.67000002    2.82999992
   16.26666641   92.10780334    0.67000002    2.84999990
   16.27249908   92.10780334    0.67000002    2.82999992
   16.27666664   99.79759979    0.67000002    2.82999992
   16.28000069   98.47979736    0.67000002    2.82999992
   16.28333282   86.11949921    0.67000002    2.82999992
   16.28638840   90.30750275    0.69000000    2.82999992
   16.28972244   87.45510101    0.67000002    2.82999992
   16.29277802   88.04940033    0.67000002    2.84999990
   16.29611015   91.00969696    0.69000000    2.82999992
   16.29944420   89.76450348    0.69000000    2.82999992
   16.30249977   94.59600067    0.67000002    2.82999992
   16.30583191   86.55509949    0.67000002    2.82999992
   16.30638885   84.82180023    0.67000002    2.82999992
   16.30944443   94.61119843    0.67000002    2.82999992
   16.31555557   94.61119843    0.67000002    2.82999992
   16.31972313   89.33429718    0.67000002    2.82999992
   16.32277870   89.03710175    0.69000000    2.82999992
   16.32611275   93.52539825    0.67000002    2.82999992
   16.32916832   90.03309631    0.67000002    2.82999992
   16.33250046   99.64320374    0.69000000    2.82999992
   16.33583450   90.92960358    0.67000002    2.84999990
   16.33889008   94.18160248    0.67000002    2.84999990
   16.33972359   93.92289734    0.67000002    2.84999990
   16.34277916   89.30729675    0.69000000    2.82999992
   16.34583473   95.38939667    0.67000002    2.82999992
   16.34916687   98.40450287    0.67000002    2.82999992
   16.35222244   82.59269714    0.67000002    2.82999992
   16.35833359   82.59269714    0.64999998    2.82999992
   16.36250114   97.32029724    0.64999998    2.84999990
   16.36555672   89.21959686    0.64999998    2.84999990
   16.36888885   87.95709991    0.64999998    2.84999990
   16.37222290   89.93840027    0.64999998    2.84999990
   16.37305641   88.49310303    0.64999998    2.84999990
   16.37583351   90.86750031    0.64999998    2.82999992
   16.37888908   86.08910370    0.64999998    2.84999990
   16.38222313   86.34639740    0.64999998    2.82999992
   16.38527679   92.13089752    0.64999998    2.84999990
   16.38861084   86.88770294    0.64999998    2.84999990
   16.39194489   88.63649750    0.64999998    2.82999992
   16.39500046   94.13600159    0.64999998    2.84999990
   16.40111160   94.13600159    0.67000002    2.84999990
   16.40527725   87.36660004    0.67000002    2.82999992
   16.40638924   87.41079712    0.67000002    2.84999990
   16.40916634   87.46839905    0.67000002    2.82999992
   16.41222191   93.46029663    0.67000002    2.82999992
   16.41555595   92.51039886    0.67000002    2.82999992
   16.41860962   92.85260010    0.67000002    2.84999990
   16.42194366   93.11540222    0.67000002    2.82999992
   16.42527771   89.78119659    0.67000002    2.82999992
   16.42833328   87.26090240    0.67000002    2.84999990
   16.43166542   92.52590179    0.67000002    2.84999990
   16.43499947   91.78240204    0.67000002    2.84999990
   16.43805504   94.42459869    0.67000002    2.84999990
   16.43972206   96.77580261    0.67000002    2.82999992
   16.44388771   96.77580261    0.67000002    2.82999992
   16.44805527   92.20999908    0.67000002    2.84999990
   16.45166779   91.52510071    0.69000000    2.82999992
   16.45499992   86.33119965    0.67000002    2.84999990
   16.45805550   88.61879730    0.67000002    2.82999992
   16.46138954   92.91369629    0.67000002    2.84999990
   16.46472359   88.50679779    0.67000002    2.84999990
   16.46777916   89.72360229    0.69000000    2.82999992
   16.47111130   91.47419739    0.69000000    2.86999989
   16.47305679   96.26039886    0.67000002    2.84999990
   16.47472191   98.22499847    0.69000000    2.82999992
   16.47777748  102.27700043    0.69000000    2.84999990
   16.48111153   95.51390076    0.69000000    2.84999990
   16.48694420   95.51390076    0.67000002    2.84999990
   16.49083328   85.50689697    0.69000000    2.82999992
   16.49416733   89.66439819    0.67000002    2.84999990
   16.49749947   94.99990082    0.69000000    2.84999990
   16.50055504   91.98650360    0.69000000    2.82999992
   16.50388908   94.14289856    0.69000000    2.84999990
   16.50638962   95.05110168    0.69000000    2.84999990
   16.50749969   91.70339966    0.69000000    2.84999990
   16.51055527   98.43599701    0.69000000    2.84999990
   16.51388931   90.30599976    0.70999998    2.84999990
   16.51694489   92.13739777    0.70999998    2.84999990
   16.52027702   89.66870117    0.70999998    2.84999990
   16.52361107   92.97250366    0.69000000    2.82999992
   16.52972221   92.97250366    0.69000000    2.84999990
   16.53388786  101.76599884    0.69000000    2.84999990
   16.53694344   93.64659882    0.67000002    2.82999992
   16.53972244   83.91130066    0.69000000    2.84999990
   16.54083252   95.79769897    0.67000002    2.84999990
   16.54388809   88.34200287    0.69000000    2.82999992
   16.54722214   83.08429718    0.69000000    2.84999990
   16.55027771   84.63480377    0.69000000    2.84999990
   16.55360985   92.38639832    0.69000000    2.84999990
   16.55694389   98.48660278    0.69000000    2.82999992
   16.55999947   96.19969940    0.69000000    2.84999990
   16.56333351   84.64589691    0.69000000    2.84999990
   16.56666756   90.08589935    0.69000000    2.84999990
   16.57250023   90.08589935    0.69000000    2.82999992
   16.59083366   85.24900055    0.70999998    2.82999992
   16.59416771   86.69580078    0.70999998    2.82999992
   16.59749985   82.58499908    0.70999998    2.82999992
   16.60055542   85.66149902    0.70999998    2.84999990
   16.60388947   88.50550079    0.70999998    2.82999992
   16.60694504   91.48629761    0.70999998    2.82999992
   16.61027908   88.46949768    0.70999998    2.82999992
   16.61555672   88.46949768    0.70999998    2.84999990
   16.61972237   87.59190369    0.69000000    2.84999990
   16.62305641   94.87030029    0.69000000    2.84999990
   16.62388992   89.51390076    0.69000000    2.84999990
   16.62666702   89.25039673    0.70999998    2.84999990
   16.63000107   95.40529633    0.69000000    2.84999990
   16.63305473   89.48490143    0.69000000    2.82999992
   16.63638878   83.77279663    0.69000000    2.84999990
   16.63944435   91.61399841    0.69000000    2.82999992
   16.64277840   88.59670258    0.69000000    2.84999990
   16.64611053   89.20030212    0.69000000    2.84999990
   16.64916611   94.80740356    0.69000000    2.84999990
   16.65250015   89.97160339    0.70999998    2.84999990
   16.65861130   89.97160339    0.70999998    2.84999990
   16.66250038   94.41369629    0.70999998    2.84999990
   16.66583252   89.83619690    0.73000002    2.84999990
   16.66916656  100.05999756    0.73000002    2.84999990
   16.67222214   87.48149872    0.73000002    2.82999992
   16.67555428   93.38909912    0.73000002    2.84999990
   16.67860985   75.68229675    0.73000002    2.84999990
   16.68194389   87.60829926    0.73000002    2.82999992
   16.68527603   88.73819733    0.75000000    2.82999992
   16.68833160   89.26999664    0.73000002    2.84999990
   16.69055557   88.68560028    0.73000002    2.82999992
   16.69194412   82.76349640    0.75000000    2.84999990
   16.69527626   86.62509918    0.75000000    2.82999992
   16.70138931   86.62509918    0.73000002    2.82999992
   16.70555687   96.18659973    0.75000000    2.84999990
   16.70861244   88.20989990    0.73000002    2.84999990
   16.71194458   92.02380371    0.73000002    2.84999990
   16.71500015   98.50340271    0.73000002    2.84999990
   16.71833420   95.79599762    0.73000002    2.82999992
   16.72166634   92.69370270    0.73000002    2.84999990
   16.72389030  101.19200134    0.73000002    2.84999990
   16.72527885   93.00109863    0.73000002    2.84999990
   16.72861099   93.64150238    0.73000002    2.86999989
   16.73166656   91.99469757    0.75000000    2.84999990
   16.73500061   88.73889923    0.75000000    2.84999990
   16.73805618   94.10099792    0.75000000    2.84999990
   16.74416733   94.10099792    0.73000002    2.84999990
   16.74833298   93.00630188    0.73000002    2.84999990
   16.75138855   93.44380188    0.73000002    2.84999990
   16.75472260   91.15619659    0.73000002    2.82999992
   16.75722313   96.70240021    0.73000002    2.84999990
   16.75833321  101.64800262    0.73000002    2.84999990
   16.76166725   99.05930328    0.73000002    2.84999990
   16.76472282   86.24320221    0.75000000    2.84999990
   16.76805496   85.78070068    0.73000002    2.84999990
   16.77111053   88.80570221    0.75000000    2.84999990
   16.77444458   89.73259735    0.73000002    2.84999990
   16.77777672   88.71420288    0.73000002    2.82999992
   16.78083229   90.76529694    0.73000002    2.84999990
   16.78694344   90.76529694    0.73000002    2.84999990
   16.79111099   94.61630249    0.73000002    2.84999990
   16.79444313   87.92109680    0.73000002    2.82999992
   16.79749870   83.71369934    0.75000000    2.84999990
   16.80083275   86.47059631    0.75000000    2.86999989
   16.80416679   86.14270020    0.75000000    2.84999990
   16.80722237   84.92639923    0.75000000    2.84999990
   16.81055450   87.59819794    0.73000002    2.82999992
   16.81361008   90.36180115    0.73000002    2.82999992
   16.81694603   92.67970276    0.73000002    2.84999990
   16.82027817   89.92539978    0.73000002    2.84999990
   16.82333374   94.41100311    0.73000002    2.84999990
   16.82389069   96.20490265    0.73000002    2.84999990
   16.82972336   96.20490265    0.73000002    2.84999990
   16.83388901   90.47100067    0.73000002    2.84999990
   16.83722305   90.82209778    0.73000002    2.84999990
   16.84055710   91.69270325    0.75000000    2.84999990
   16.84361267   93.34960175    0.75000000    2.84999990
   16.84694481   93.22270203    0.75000000    2.84999990
   16.85000038   94.49980164    0.75000000    2.84999990
   16.85333443   89.91110229    0.75000000    2.84999990
   16.85666656   88.75599670    0.75000000    2.84999990
   16.85722351   90.02200317    0.75000000    2.84999990
   16.86027908   95.20290375    0.75000000    2.84999990
   16.86361122   89.33619690    0.75000000    2.84999990
   16.86666679   82.50959778    0.75000000    2.84999990
   16.87277794   82.50959778    0.75000000    2.84999990
   16.87694550   88.64060211    0.75000000    2.84999990
   16.88000107   93.25839996    0.75000000    2.84999990
   16.88333321   90.22930145    0.75000000    2.84999990
   16.88638878   89.96880341    0.75000000    2.82999992
   16.88972282   90.56759644    0.75000000    2.84999990
   16.89055634   89.62660217    0.75000000    2.84999990
   16.89333344   86.11810303    0.75000000    2.84999990
   16.89666748  103.10900116    0.76999998    2.84999990
   16.89972115   93.73840332    0.75000000    2.84999990
   16.90305519   89.72429657    0.75000000    2.84999990
   16.90638924   88.89330292    0.75000000    2.84999990
   16.90944481   89.16979980    0.76999998    2.84999990
   16.91555595   89.16979980    0.76999998    2.84999990
   16.91972160   91.82379913    0.76999998    2.82999992
   16.92277718   91.38179779    0.76999998    2.82999992
   16.92388916   92.17230225    0.76999998    2.84999990
   16.92638779   92.01650238    0.76999998    2.84999990
   16.92972183   87.77500153    0.76999998    2.84999990
   16.93277740   88.40080261    0.76999998    2.82999992
   16.93610954   94.98819733    0.76999998    2.84999990
   16.93944359   96.55159760    0.76999998    2.82999992
   16.94249916   92.10579681    0.76999998    2.84999990
   16.94583321   86.92520142    0.76999998    2.84999990
   16.94888878   93.51049805    0.76999998    2.84999990
   16.95222282   88.61039734    0.75000000    2.82999992
   16.95833397   88.61039734    0.75000000    2.84999990
   16.96250153   90.63780212    0.75000000    2.82999992
   16.96583366   93.10520172    0.75000000    2.84999990
   16.96888924   88.77079773    0.73000002    2.82999992
   16.97222328   87.76670074    0.73000002    2.84999990
   16.97555542   87.68800354    0.75000000    2.84999990
   16.97861099   93.79550171    0.75000000    2.84999990
   16.98194504   86.22979736    0.75000000    2.84999990
   16.98527718   87.87280273    0.75000000    2.84999990
   16.98833275   89.91940308    0.75000000    2.84999990
   16.99055672   94.65119934    0.75000000    2.86999989
   16.99194527   88.34369659    0.75000000    2.84999990
   16.99527740   89.53220367    0.73000002    2.84999990
   17.00138855   89.53220367    0.73000002    2.82999992
   17.00527763   90.03769684    0.73000002    2.84999990
   17.00861168   95.33740234    0.73000002    2.84999990
   17.01194382   92.23169708    0.73000002    2.84999990
   17.01499939   97.28189850    0.75000000    2.84999990
   17.01833344   94.33889771    0.73000002    2.84999990
   17.02138901   94.50540161    0.73000002    2.84999990
   17.02388954   92.76490021    0.73000002    2.84999990
   17.02499962   84.97570038    0.73000002    2.84999990
   17.02833366   89.78810120    0.73000002    2.84999990
   17.03138924   95.87699890    0.73000002    2.84999990
   17.03472137   89.22019958    0.73000002    2.84999990
   17.03805542   94.11669922    0.73000002    2.84999990
   17.04416656   94.11669922    0.73000002    2.84999990
   17.04833221   89.55889893    0.73000002    2.84999990
   17.05138779   85.44270325    0.73000002    2.84999990
   17.05472183   90.50890350    0.75000000    2.84999990
   17.05722237   85.73880005    0.75000000    2.86999989
   17.05833244   91.64790344    0.75000000    2.86999989
   17.06166649   91.99839783    0.75000000    2.84999990
   17.06472206   96.03389740    0.75000000    2.84999990
   17.06805611   88.23670197    0.75000000    2.84999990
   17.07139015   94.36889648    0.75000000    2.84999990
   17.07444572   93.96700287    0.75000000    2.84999990
   17.07777786   88.75949860    0.75000000    2.84999990
   17.08083344   93.58000183    0.75000000    2.84999990
   17.08694458   93.58000183    0.76999998    2.84999990
   17.09111214   98.11399841    0.76999998    2.82999992
   17.09416771   84.98429871    0.79000002    2.84999990
   17.09749985   99.62500000    0.79000002    2.82999992
   17.10083389   95.49919891    0.79000002    2.82999992
   17.10388947   89.66699982    0.79000002    2.84999990
   17.10722351   95.14910126    0.79000002    2.82999992
   17.11055565   90.88320160    0.79000002    2.84999990
   17.11361122   95.42050171    0.76999998    2.84999990
   17.11694527   88.18350220    0.76999998    2.82999992
   17.12000084   97.10230255    0.76999998    2.84999990
   17.12333298   96.69259644    0.79000002    2.82999992
   17.12416649   96.33329773    0.79000002    2.84999990
   17.12972260   96.33329773    0.79000002    2.82999992
   17.13388824   95.46130371    0.76999998    2.82999992
   17.13722229   90.51000214    0.76999998    2.84999990
   17.14055634   91.97370148    0.76999998    2.82999992
   17.14388847   92.18170166    0.76999998    2.84999990
   17.14722252   87.64980316    0.76999998    2.84999990
   17.15055466   91.69940186    0.76999998    2.84999990
   17.15361023   91.09359741    0.76999998    2.84999990
   17.15694427   96.74299622    0.76999998    2.84999990
   17.15749931   92.38459778    0.76999998    2.84999990
   17.16027832   94.41020203    0.79000002    2.84999990
   17.16361046   93.08519745    0.79000002    2.86999989
   17.16694450   93.41139984    0.79000002    2.84999990
   17.17277718   93.41139984    0.76999998    2.84999990
   17.17666626   95.80329895    0.76999998    2.84999990
   17.18000031   92.13289642    0.76999998    2.84999990
   17.18333244   94.47270203    0.79000002    2.82999992
   17.18638802   91.71540070    0.79000002    2.82999992
   17.18972206   92.37969971    0.79000002    2.84999990
   17.19083214   91.41400146    0.79000002    2.84999990
   17.19333267   90.63559723    0.79000002    2.84999990
   17.19666672   98.89409637    0.76999998    2.82999992
   17.20000076   91.98809814    0.79000002    2.84999990
   17.20305634   89.61019897    0.79000002    2.84999990
   17.20639038   91.05300140    0.79000002    2.84999990
   17.20972252   96.46289825    0.76999998    2.84999990
   17.21555710   96.46289825    0.76999998    2.84999990
   17.21972275   92.72380066    0.79000002    2.84999990
   17.22277832   95.09369659    0.79000002    2.84999990
   17.22416687   86.67970276    0.79000002    2.84999990
   17.22638893   91.33219910    0.79000002    2.84999990
   17.22972298   92.13549805    0.79000002    2.84999990
   17.23305511   85.95379639    0.79000002    2.82999992
   17.23611069   90.31919861    0.79000002    2.84999990
   17.23944473   88.55439758    0.80000001    2.82999992
   17.24277878   88.55960083    0.80000001    2.84999990
   17.24583435   88.69100189    0.79000002    2.84999990
   17.24916649   96.09829712    0.80000001    2.84999990
   17.25250053   88.99659729    0.80000001    2.84999990
   17.25833321   88.99659729    0.80000001    2.84999990
   17.26250076   89.51210022    0.81999999    2.82999992
   17.26555634   91.57129669    0.81999999    2.82999992
   17.26888847   96.12670135    0.81999999    2.84999990
   17.27222252   92.36029816    0.81999999    2.82999992
   17.27527809   96.91429901    0.81999999    2.82999992
   17.27861023   93.74099731    0.81999999    2.82999992
   17.28194427   91.12770081    0.81999999    2.82999992
   17.28499985   92.72550201    0.81999999    2.84999990
   17.28833199   91.36910248    0.81999999    2.82999992
   17.29083252   91.51650238    0.81999999    2.82999992
   17.29166603   92.47000122    0.81999999    2.82999992
   17.29500008   91.35520172    0.81999999    2.82999992
   17.30111122   91.35520172    0.81999999    2.82999992
   17.30527687   84.62719727    0.83999997    2.82999992
   17.30861092   92.16000366    0.83999997    2.84999990
   17.31166649   91.83329773    0.83999997    2.86999989
   17.31499863   87.38449860    0.83999997    2.84999990
   17.31833458   85.74990082    0.83999997    2.84999990
   17.32139015   91.49389648    0.83999997    2.82999992
   17.32416725   97.10790253    0.83999997    2.82999992
   17.32500076   86.66139984    0.83999997    2.82999992
   17.32833481   89.47949982    0.83999997    2.82999992
   17.33166695   93.51689911    0.83999997    2.82999992
   17.33472252   86.24160004    0.83999997    2.82999992
   17.33805656   85.95140076    0.81999999    2.82999992
   17.34388924   85.95140076    0.83999997    2.82999992
   17.34805679   87.64659882    0.83999997    2.84999990
   17.35138893   87.38469696    0.81999999    2.84999990
   17.35472298   90.92890167    0.81999999    2.82999992
   17.35750008   94.30149841    0.81999999    2.84999990
   17.35805511   86.89880371    0.81999999    2.84999990
   17.36138916   88.49230194    0.81999999    2.84999990
   17.36472321   93.80500031    0.81999999    2.82999992
   17.36777878   90.48889923    0.81999999    2.82999992
   17.37111092   86.20850372    0.81999999    2.82999992
   17.37444496   87.49880219    0.81999999    2.84999990
   17.37750053   82.17949677    0.83999997    2.84999990
   17.38083267   88.09470367    0.83999997    2.84999990
   17.38694382   88.09470367    0.83999997    2.82999992
   17.39111137   88.01930237    0.83999997    2.82999992
   17.39416695   93.73200226    0.81999999    2.82999992
   17.39749908   89.14640045    0.83999997    2.82999992
   17.40055466   90.20410156    0.83999997    2.82999992
   17.40388870   89.64700317    0.83999997    2.82999992
   17.40722275   85.70240021    0.83999997    2.82999992
   17.41027832   90.54949951    0.83999997    2.82999992
   17.41361046   85.87359619    0.86000001    2.84999990
   17.41694450   89.65840149    0.86000001    2.82999992
   17.42000008   89.04070282    0.86000001    2.82999992
   17.42333221   97.57689667    0.86000001    2.82999992
   17.42416573   98.02559662    0.86000001    2.84999990
   17.42972183   98.02559662    0.86000001    2.82999992
   17.43388748   95.66739655    0.86000001    2.82999992
   17.43694305   89.92600250    0.88000000    2.82999992
   17.44027710   99.93640137    0.89999998    2.82999992
   17.44361115   86.84259796    0.89999998    2.84999990
   17.44666672   97.54149628    0.92000002    2.84999990
   17.45000076   90.13390350    0.89999998    2.84999990
   17.45333481   93.72730255    0.89999998    2.84999990
   17.45639038   93.75170135    0.88000000    2.82999992
   17.45750046   94.61060333    0.88000000    2.82999992
   17.46027946   92.76029968    0.88000000    2.82999992
   17.46333504   97.92179871    0.86000001    2.84999990
   17.46666718   93.73889923    0.86000001    2.84999990
   17.47249985   93.73889923    0.83999997    2.84999990
   17.47666740   91.81320190    0.83999997    2.84999990
   17.48000145   94.64409637    0.86000001    2.82999992
   17.48305511   88.58899689    0.86000001    2.84999990
   17.48638916   90.28919983    0.86000001    2.84999990
   17.48972321   88.66829681    0.86000001    2.84999990
   17.49083328   87.54679871    0.83999997    2.86999989
   17.49333382   90.73249817    0.83999997    2.84999990
   17.49638939   91.46109772    0.86000001    2.84999990
   17.49972153   88.98280334    0.88000000    2.82999992
   17.50277710   86.20989990    0.88000000    2.82999992
   17.50611115   93.13040161    0.88000000    2.82999992
   17.50944519   92.06829834    0.89999998    2.84999990
   17.51527786   92.06829834    0.89999998    2.82999992
   17.51944351   90.43470001    0.88000000    2.82999992
   17.52277756   96.40660095    0.89999998    2.82999992
   17.52416611   96.90589905    0.88000000    2.84999990
   17.52638817   95.83879852    0.88000000    2.82999992
   17.52944374   88.95610046    0.88000000    2.82999992
   17.53277779   95.82980347    0.88000000    2.84999990
   17.53583336   90.63659668    0.88000000    2.82999992
   17.53916550   93.91220093    0.88000000    2.82999992
   17.54249954   92.49060059    0.88000000    2.82999992
   17.54555511  100.06900024    0.88000000    2.82999992
   17.54888916   96.42250061    0.89999998    2.82999992
   17.55222130   89.00129700    0.89999998    2.82999992
   17.55833244   89.00129700    0.89999998    2.84999990
   17.56250000   93.29350281    0.89999998    2.82999992
   17.56555557   87.94200134    0.89999998    2.82999992
   17.56888962   90.60710144    0.89999998    2.82999992
   17.57194519   86.56479645    0.89999998    2.84999990
   17.57527924   92.89900208    0.89999998    2.82999992
   17.57861137   91.85769653    0.89999998    2.82999992
   17.58166695   95.45520020    0.89999998    2.82999992
   17.58500099   93.64499664    0.89999998    2.82999992
   17.58833313   98.35359955    0.89999998    2.82999992
   17.59083366   91.12359619    0.89999998    2.82999992
   17.61138916   91.12359619    0.89999998    2.82999992
   17.61555672   97.80380249    0.89999998    2.84999990
   17.61888885   98.05999756    0.88000000    2.82999992
   17.62194443  101.95899963    0.88000000    2.82999992
   17.62416649   97.39330292    0.88000000    2.84999990
   17.62583351   81.36499786    0.88000000    2.82999992
   17.62888908   99.52089691    0.89999998    2.82999992
   17.63222313   90.94570160    0.88000000    2.84999990
   17.63527679   92.51280212    0.89999998    2.82999992
   17.63861084   91.76190186    0.89999998    2.86999989
   17.64194489   97.03179932    0.89999998    2.82999992
   17.64500046   98.71440125    0.92000002    2.82999992
   17.64833260   93.71800232    0.92000002    2.82999992
   17.65416718   93.71800232    0.92000002    2.82999992
   17.65833282  122.41300201    0.92000002    2.82999992
   17.66166687  123.60099792    0.92000002    2.82999992
   17.66472244  128.99800110    0.92000002    2.82999992
