    HOUR (UT)   FLARE FACTOR    SKY TESTER    SUN TESTER
   12.72305489   -1.00000000   -1.00000000   -1.00000000
   13.22694397   55.66080093    0.19000000    0.61000001
   13.23027706   55.34909821    0.19000000    0.58999997
   13.23333359   55.19770050    0.19000000    0.58999997
   13.23666668   56.82619858    4.90999985    2.53999996
   13.24000072   55.87039948    0.46000001    2.44000006
   13.24305534   55.66199875    0.44000000    2.46000004
   13.24722290   55.66199875    0.46000001    2.46000004
   13.25138855   54.70539856    0.46000001    2.46000004
   13.25472260   56.05099869    0.46000001    2.46000004
   13.25777817   55.38830185    0.46000001    2.46000004
   13.26027775   57.31529999    0.46000001    2.46000004
   13.26166630   55.14270020    0.46000001    2.46000004
   13.26472187   56.16699982    0.46000001    2.46000004
   13.26805496   55.76850128    0.46000001    2.46000004
   13.27111053   55.97610092    0.46000001    2.46000004
   13.27444458   55.03369904    0.46000001    2.46000004
   13.27777767   55.40800095    0.46000001    2.46000004
   13.28083324   55.48479843    0.46000001    2.46000004
   13.28416729   55.78300095    0.46000001    2.46000004
   13.29000092   55.78300095    0.46000001    2.46000004
   13.29416752   56.77659988    0.46000001    2.46000004
   13.29750061   55.08900070    0.46000001    2.46000004
   13.30055618   54.95539856    0.46000001    2.46000004
   13.30388927   55.14939880    0.44000000    2.46000004
   13.30722237   54.80459976    0.44000000    2.46000004
   13.31027794   54.01179886    0.44000000    2.46000004
   13.31361103   55.16040039    0.46000001    2.46000004
   13.31694412   55.43719864    0.44000000    2.48000002
   13.31999969   54.56330109    0.46000001    2.48000002
   13.32333374   56.38629913    0.46000001    2.46000004
   13.32638836   56.56869888    0.44000000    2.46000004
   13.32694435   55.22900009    0.44000000    2.46000004
   13.33305550   55.22900009    0.44000000    2.46000004
   13.33694458   56.82360077    0.44000000    2.46000004
   13.34027767   55.33520126    0.44000000    2.46000004
   13.34361076   56.30849838    0.46000001    2.46000004
   13.34666634   56.39609909    0.50000000    2.48000002
   13.35000038   55.59989929    0.52999997    2.46000004
   13.35333347   54.44940186    0.64999998    2.48000002
   13.35638905   58.15409851    0.69000000    2.46000004
   13.35972214   55.04639816    0.70999998    2.46000004
   13.36027813   54.99539948    0.70999998    2.46000004
   13.36333370   56.09299850    0.83999997    2.48000002
   13.36666679   55.96709824    0.83999997    2.48000002
   13.36972237   56.03960037    0.92000002    2.48000002
   13.37583351   56.03960037    1.30999994    2.48000002
   13.38000011   56.04399872    1.73000002    2.48000002
   13.38305569   55.77700043    2.07999992    2.48000002
   13.38638878   56.09410095    2.13000011    2.48000002
   13.38972187   55.43080139    2.32999992    2.48000002
   13.39277744   54.62860107    2.94000006    2.50000000
   13.39361095   55.25379944    3.18000007    2.48000002
   13.39638901   56.95370102    3.82999992    2.48000002
   13.39972210   55.96089935    3.93000007    2.50000000
   13.40277767   55.64739990    4.09999990    2.50000000
   13.40611076   55.51020050    4.90999985    2.50000000
   13.40944386   55.65150070    4.90999985    2.50000000
   13.41249943   55.72370148    4.90999985    2.50000000
   13.41861153   55.72370148    4.90999985    2.51999998
   13.42277813   56.47570038    4.90999985    2.51999998
   13.42611122   56.64229965    4.90999985    2.51999998
   13.42694473   56.86439896    4.90999985    2.51999998
   13.42972279   57.69559860    4.90999985    2.50000000
   13.43305588   56.84590149    4.90999985    2.51999998
   13.43611145   56.57339859    4.90999985    2.51999998
   13.43944454   56.57170105    4.90999985    2.50000000
   13.44277763   55.76190186    4.90999985    2.50000000
   13.44583321   56.32789993    4.90999985    2.50000000
   13.44916630   55.10979843    4.90999985    2.50000000
   13.45249939   55.55979919    4.90999985    2.51999998
   13.45555496   55.45029831    4.90999985    2.50000000
   13.46138859   55.45029831    4.90999985    2.50000000
   13.46555519   56.88700104    4.90999985    2.50000000
   13.46888828   56.74800110    4.90999985    2.50000000
   13.47194386   55.27890015    4.90999985    2.51999998
   13.47527695   56.08919907    4.90999985    2.53999996
   13.47861099   56.40560150    4.90999985    2.53999996
   13.48166656   56.64759827    4.90999985    2.53999996
   13.48500061   56.41220093    4.90999985    2.55999994
   13.48833370   58.96089935    4.90999985    2.55999994
   13.49138927   57.97470093    4.90999985    2.57999992
   13.49361134   55.87919998    4.90999985    2.57999992
   13.49499989   56.40750122    4.90999985    2.59999990
   13.49833393   56.40930176    4.90999985    2.59999990
   13.50444412   56.40930176    4.90999985    2.59999990
   13.50833321   57.45750046    4.90999985    2.59999990
   13.51166630   55.86579895    4.90999985    2.59999990
   13.51500034   56.98170090    4.90999985    2.59999990
   13.51805496   56.85300064    4.90999985    2.59999990
   13.52138901   57.78720093    4.90999985    2.61999989
   13.52472210   58.37979889    4.90999985    2.59999990
   13.52694416   59.34700012    4.90999985    2.59999990
   13.52833271   57.10279846    4.90999985    2.59999990
   13.53166676   57.69010162    4.90999985    2.59999990
   13.53472233   56.52220154    4.90999985    2.59999990
   13.53805637   56.21220016    4.90999985    2.57999992
   13.54138947   55.17070007    4.90999985    2.57999992
   13.54722309   55.17070007    4.90999985    2.57999992
   13.55138874   56.78620148    4.90999985    2.57999992
   13.55444431   57.11569977    4.90999985    2.55999994
   13.55777836   56.38270187    4.90999985    2.57999992
   13.56027794   57.06650162    4.90999985    2.55999994
   13.56138897   57.15269852    4.90999985    2.55999994
   13.56472206   56.47409821    4.90999985    2.55999994
   13.56777763   57.49760056    4.90999985    2.57999992
   13.57111073   56.92940140    4.90999985    2.57999992
   13.57444477   60.59049988    4.90999985    2.57999992
   13.57750034   57.35820007    4.90999985    2.59999990
   13.58083344   57.89720154    4.90999985    2.59999990
   13.58388901   58.74319839    4.90999985    2.59999990
   13.59000015   58.74319839    4.90999985    2.61999989
   13.59416676   57.01990128    4.90999985    2.64000010
   13.59749985   57.42190170    4.90999985    2.64000010
   13.60055637   56.98749924    4.90999985    2.66000009
   13.60388947   57.28070068    4.90999985    2.66000009
   13.60694504   58.89789963    4.90999985    2.66000009
   13.61027813   57.90150070    4.90999985    2.67000008
   13.61361122   57.70270157    4.90999985    2.67000008
   13.61666679   56.64149857    4.90999985    2.67000008
   13.61999989   57.06999969    4.90999985    2.69000006
   13.62333393   58.28559875    4.90999985    2.69000006
   13.62638855   58.22959900    4.90999985    2.69000006
   13.62694454   58.95700073    4.90999985    2.69000006
   13.63277817   58.95700073    4.90999985    2.69000006
   13.63694477   58.69400024    4.90999985    2.69000006
   13.64027786   58.38140106    4.90999985    2.69000006
   13.64333344   58.77700043    4.38999987    2.69000006
   13.64666653   59.15940094    3.43000007    2.71000004
   13.64999962   58.29560089    2.64000010    2.69000006
   13.65305519   58.56489944    1.01999998    2.71000004
   13.65638828   58.53099823    1.07000005    2.71000004
   13.65972137   58.49560165    1.07000005    2.71000004
   13.66055489   59.52799988    1.07000005    2.71000004
   13.66305542   59.38190079    0.89999998    2.71000004
   13.66638851   59.33589935    0.67000002    2.71000004
   13.66944504   59.36909866    0.51999998    2.71000004
   13.67583370   59.36909866    0.46000001    2.71000004
   13.68000031   59.38830185    0.41999999    2.71000004
   13.68305588   61.75780106    0.31999999    2.71000004
   13.68638897   58.94039917    0.30000001    2.69000006
   13.68944454   59.32220078    0.30000001    2.71000004
   13.69277763   60.09870148    0.28000000    2.69000006
   13.69388866   58.91609955    0.28000000    2.69000006
   13.69638920   61.03900146    0.28000000    2.69000006
   13.69972229   60.78879929    0.25999999    2.69000006
   13.70305538   60.08190155    0.25999999    2.67000008
   13.70611095   60.96360016    0.25000000    2.66000009
   13.70944405   61.83119965    0.25000000    2.64000010
   13.71249962   61.49530029    0.23000000    2.61999989
   13.71861076   61.49530029    0.23000000    2.53999996
   13.72277737   61.45360184    0.23000000    2.46000004
   13.72583294   61.77890015    0.20999999    2.46000004
   13.72722149   61.73229980    0.23000000    2.46000004
   13.72944355   61.84899902    0.20999999    2.46000004
   13.73277760   63.67020035    0.20999999    2.34999990
   13.73583317   62.06240082    0.20999999    2.25000000
   13.73916721   63.42739868    0.19000000    2.09999990
   13.74250031   61.89810181    0.19000000    2.07999992
   13.74555588   64.03679657    0.19000000    1.83000004
   13.74888897   65.58190155    0.19000000    1.76999998
   13.75222206   64.13960266    0.19000000    1.48000002
   13.75527763   64.54100037    0.17000000    1.46000004
   13.76138878   64.54100037    0.17000000    1.07000005
   13.76555538   65.36380005    0.19000000    0.88000000
   13.76888847   66.03340149    0.17000000    0.79000002
   13.77194405   64.19660187    0.17000000    0.73000002
   13.77527714   66.07189941    0.17000000    0.70999998
   13.77833271   65.40029907    0.17000000    0.70999998
   13.78166676   64.62370300    0.17000000    0.64999998
   13.78500080   66.47560120    0.17000000    0.63000000
   13.78805637   65.90049744    0.17000000    0.61000001
   13.79138947   68.65779877    0.15000001    0.63000000
   13.79388905   66.44409943    0.17000000    0.63000000
   13.79500008   66.56569672    0.15000001    0.64999998
   13.79833412   65.67970276    0.15000001    0.67000002
   13.80416679   65.67970276    0.15000001    0.70999998
   13.80833340   68.38390350    0.17000000    0.73000002
   13.81166649   68.46410370    0.15000001    0.76999998
   13.81472206   68.50520325    0.15000001    0.76999998
   13.81805515   68.70639801    0.15000001    0.76999998
   13.82138920   69.34760284    0.15000001    0.76999998
   13.82444477   70.28839874    0.15000001    0.79000002
   13.82722187   70.13059998    0.15000001    0.79000002
   13.82805538   69.32379913    0.15000001    0.79000002
   13.83138847   72.12770081    0.15000001    0.76999998
   13.83444405   70.06490326    0.15000001    0.76999998
   13.83777714   69.51080322    0.15000001    0.79000002
   13.84111118   69.78820038    0.15000001    0.76999998
   13.84722233   69.78820038    0.13000000    0.76999998
   13.85111141   71.42259979    0.13000000    0.76999998
   13.85444450   72.37139893    0.13000000    0.76999998
   13.85777855   72.22630310    0.13000000    0.76999998
   13.86055565   73.96739960    0.15000001    0.76999998
   13.86138916   73.59549713    0.13000000    0.76999998
   13.86472225   72.56340027    0.13000000    0.76999998
   13.86777782   70.18299866    0.15000001    0.75000000
   13.87111092   74.15570068    0.13000000    0.76999998
   13.87444496   75.12789917    0.13000000    0.75000000
   13.87750053   75.82589722    0.13000000    0.75000000
   13.88083363   73.57929993    0.13000000    0.75000000
   13.88416672   74.44519806    0.13000000    0.75000000
   13.89000034   74.44519806    0.13000000    0.75000000
   13.89416695   72.33200073    0.13000000    0.75000000
   13.89722252   74.89240265    0.13000000    0.75000000
   13.90055561   76.75119781    0.13000000    0.75000000
   13.90388870   73.81459808    0.13000000    0.75000000
   13.90694427   77.37709808    0.13000000    0.75000000
   13.91027737   76.40239716    0.13000000    0.73000002
   13.91333294   78.80449677    0.13000000    0.73000002
   13.91666698   77.77580261    0.13000000    0.70999998
   13.92000008   78.98390198    0.13000000    0.70999998
   13.92305565   75.46520233    0.13000000    0.70999998
   13.92638874   77.53009796    0.13000000    0.69000000
   13.92722225   75.47530365    0.13000000    0.69000000
   13.93277836   75.47530365    0.13000000    0.67000002
   13.93694496   78.96849823    0.13000000    0.67000002
   13.94027805   76.29109955    0.13000000    0.67000002
   13.94333363   77.14019775    0.13000000    0.64999998
   13.94666672   77.28839874    0.13000000    0.64999998
   13.94999981   79.31990051    0.13000000    0.63000000
   13.95305538   80.02069855    0.13000000    0.61000001
   13.95638847   77.43740082    0.13000000    0.61000001
   13.95972157   80.96250153    0.13000000    0.61000001
   13.96055508   80.44779968    0.13000000    0.61000001
   13.96305561   86.44840240    0.13000000    0.61000001
   13.96638870   79.94940186    0.13000000    0.58999997
   13.96972179   83.95249939    0.13000000    0.58999997
   13.97555542   83.95249939    0.13000000    0.58999997
   13.97972202   83.27310181    0.13000000    0.56999999
   13.98305511   84.60299683    0.13000000    0.55000001
   13.98611164   88.11650085    0.13000000    0.55000001
   13.98944473   91.28440094    0.13000000    0.55000001
   13.99277782   89.12120056    0.13000000    0.52999997
   13.99388885   93.73329926    0.13000000    0.52999997
   13.99611092   91.49259949    0.13000000    0.52999997
   13.99944496   90.50109863    0.13000000    0.52999997
   14.00277805   94.35119629    0.13000000    0.52999997
   14.00583363   94.09700012    0.13000000    0.52999997
   14.00916672   98.47419739    0.13000000    0.51999998
   14.01222229   97.62359619    0.13000000    0.51999998
   14.01861095   97.62359619    0.13000000    0.51999998
   14.02277756  105.23400116    0.13000000    0.50000000
   14.02583313  103.23300171    0.13000000    0.50000000
   14.02722168  103.77300262    0.13000000    0.50000000
   14.02944374  107.27999878    0.13000000    0.50000000
   14.03277779  106.73799896    0.13000000    0.50000000
   14.03611183  106.77999878    0.13000000    0.50000000
   14.03916740  107.24299622    0.13000000    0.50000000
   14.04250050  107.49099731    0.13000000    0.50000000
   14.04555607  112.76599884    0.11000000    0.47999999
   14.04888916  112.08399963    0.13000000    0.47999999
   14.05222225  112.03199768    0.13000000    0.50000000
   14.05527782  115.30100250    0.13000000    0.47999999
   14.06138897  115.30100250    0.13000000    0.47999999
   14.06555557  120.47899628    0.13000000    0.47999999
   14.06861115  116.29499817    0.11000000    0.47999999
   14.07194424  119.08300018    0.13000000    0.47999999
   14.07527733  113.97899628    0.13000000    0.47999999
   14.07833290  117.91200256    0.11000000    0.47999999
   14.08166695  120.93199921    0.11000000    0.47999999
   14.08472157  125.03900146    0.11000000    0.47999999
   14.08805561  124.12300110    0.13000000    0.46000001
   14.09138870  125.82299805    0.11000000    0.46000001
   14.09388828  127.34700012    0.13000000    0.46000001
   14.09472179  127.94999695    0.13000000    0.46000001
   14.09805489  126.72699738    0.11000000    0.46000001
   14.10416698  126.72699738    0.11000000    0.46000001
   14.10833359  126.46299744    0.11000000    0.46000001
   14.11166668  130.46200562    0.11000000    0.44000000
   14.11472225  137.34899902    0.11000000    0.44000000
   14.11805534  128.05499268    0.11000000    0.44000000
   14.12138939  131.91200256    0.11000000    0.44000000
   14.12444496  130.76800537    0.11000000    0.44000000
   14.12722206  132.25900269    0.11000000    0.41999999
   14.12805557  131.22500610    0.11000000    0.41999999
   14.13138866  133.46299744    0.11000000    0.41999999
   14.13472176  142.48800659    0.11000000    0.41999999
   14.13777733  134.42700195    0.11000000    0.41999999
   14.14111137  142.16000366    0.11000000    0.41999999
   14.14694405  142.16000366    0.11000000    0.40000001
   14.15111065  145.78999329    0.11000000    0.40000001
   14.15444374  139.00199890    0.11000000    0.40000001
   14.15749931  138.87899780    0.11000000    0.40000001
   14.16055489  137.55299377    0.11000000    0.40000001
   14.16111088  139.43499756    0.11000000    0.40000001
   14.16444397  138.29100037    0.11000000    0.38000000
   14.16777802  139.09300232    0.11000000    0.38000000
   14.17083359  142.63600159    0.11000000    0.38000000
   14.17416668  144.04600525    0.11000000    0.38000000
   14.17722225  141.49800110    0.11000000    0.38000000
   14.18055630  145.40899658    0.11000000    0.38000000
   14.18388939  142.20899963    0.11000000    0.38000000
   14.19000053  142.20899963    0.11000000    0.36000001
   14.19388866  139.25199890    0.11000000    0.36000001
   14.19722271  135.57699585    0.11000000    0.36000001
   14.20055580  139.00300598    0.11000000    0.34000000
   14.20361137  146.03799438    0.11000000    0.34000000
   14.20694447  138.59100342    0.11000000    0.34000000
   14.21027756  146.37199402    0.11000000    0.34000000
   14.21333313  140.02600098    0.11000000    0.34000000
   14.21666622  140.97599792    0.11000000    0.34000000
   14.21972179  141.76199341    0.11000000    0.31999999
   14.22305489  141.96499634    0.11000000    0.31999999
   14.22638798  141.47599792    0.11000000    0.31999999
   14.22722149  149.90400696    0.11000000    0.31999999
   14.24777794  149.90400696    0.11000000    0.30000001
   14.25194454  144.57899475    0.11000000    0.28000000
   14.25527763  142.56100464    0.09000000    0.28000000
   14.25833321  134.20199585    0.11000000    0.28000000
   14.26055527  150.97000122    0.09000000    0.28000000
   14.26194477  145.01199341    0.09000000    0.28000000
   14.26527786  147.75900269    0.09000000    0.25999999
   14.26861095  141.28500366    0.11000000    0.25999999
   14.27166653  144.23800659    0.09000000    0.25999999
   14.27499962  141.99699402    0.09000000    0.25999999
   14.27833271  142.20799255    0.11000000    0.25999999
   14.28138828  143.39100647    0.09000000    0.25999999
   14.28472233  145.33299255    0.09000000    0.25999999
   14.29055595  145.33299255    0.11000000    0.25000000
   14.29472256  135.40199280    0.09000000    0.25000000
   14.29777813  138.25199890    0.11000000    0.25000000
   14.30111122  140.46200562    0.09000000    0.25000000
   14.30444431  141.74200439    0.11000000    0.23000000
   14.30749989  138.53100586    0.11000000    0.23000000
   14.31083393  136.39100647    0.11000000    0.23000000
   14.31416702  138.71800232    0.09000000    0.23000000
   14.31722260  142.23699951    0.09000000    0.23000000
   14.32055569  134.81100464    0.09000000    0.23000000
   14.32361126  138.33599854    0.11000000    0.23000000
   14.32694435  130.56599426    0.11000000    0.20999999
   14.32750034  137.69400024    0.11000000    0.20999999
   14.33333302  137.69400024    0.09000000    0.20999999
   14.33749962  133.86099243    0.09000000    0.20999999
   14.34083271  136.50700378    0.09000000    0.19000000
   14.34388828  139.10899353    0.09000000    0.19000000
   14.34722233  130.16999817    0.09000000    0.19000000
   14.35055637  129.98100281    0.09000000    0.19000000
   14.35361195  122.06900024    0.09000000    0.19000000
   14.35694504  128.73899841    0.09000000    0.19000000
   14.36000061  124.44100189    0.09000000    0.17000000
   14.36083412  126.95400238    0.09000000    0.17000000
   14.36388969  129.25399780    0.09000000    0.17000000
   14.36694431  127.24299622    0.09000000    0.17000000
   14.37027836  122.15499878    0.09000000    0.17000000
   14.37611103  122.15499878    0.09000000    0.15000001
   14.38027763  124.09999847    0.09000000    0.15000001
   14.38361073  123.69899750    0.09000000    0.15000001
   14.38694477  124.04299927    0.09000000    0.15000001
   14.39000034  122.19999695    0.09000000    0.15000001
   14.39333344  120.75000000    0.09000000    0.15000001
   14.39416695  124.37100220    0.09000000    0.15000001
   14.39694405  123.58300018    0.09000000    0.13000000
   14.39999962  122.20500183    0.09000000    0.13000000
   14.40333271  119.50099945    0.09000000    0.13000000
   14.40666676  118.22399902    0.09000000    0.13000000
   14.40972137  117.08799744    0.09000000    0.13000000
   14.41305542  117.01999664    0.09000000    0.11000000
   14.41916656  117.01999664    0.09000000    0.11000000
   14.42333412  117.83499908    0.09000000    0.11000000
   14.42638874  115.86100006    0.09000000    0.11000000
   14.42750072  114.79900360    0.09000000    0.09000000
   14.43027782  112.22899628    0.09000000    0.09000000
   14.43333340  112.32700348    0.09000000    0.09000000
   14.43666649  111.50199890    0.09000000    0.09000000
   14.44000053  114.72899628    0.09000000    0.09000000
   14.44305515  111.62300110    0.09000000    0.07000000
   14.44638920  110.95600128    0.09000000    0.07000000
   14.44944477  115.33200073    0.09000000    0.07000000
   14.45277786  108.87899780    0.09000000    0.07000000
   14.45611095  106.37999725    0.09000000    0.07000000
   14.46194458  106.37999725    0.09000000    0.07000000
   14.46611118  109.33799744    0.09000000    0.07000000
   14.46916580  101.25599670    0.09000000    0.07000000
   14.47249985  101.34100342    0.09000000    0.07000000
   14.47583294  103.49099731    0.09000000    0.05000000
   14.47888851  105.32099915    0.09000000    0.05000000
   14.48222160   99.50460052    0.09000000    0.05000000
   14.48555565  104.83100128    0.09000000    0.05000000
   14.48861122   98.84839630    0.09000000    0.05000000
   14.49194431   99.51560211    0.09000000    0.05000000
   14.49416733  102.99400330    0.09000000    0.05000000
   14.49555588  107.77200317    0.09000000    0.05000000
   14.49861145   98.71900177    0.09000000    0.05000000
   14.50472260   98.71900177    0.09000000    0.05000000
   14.50888920   96.00450134    0.09000000    0.05000000
   14.51222229   97.88719940    0.09000000    0.05000000
   14.51527786   97.93630219    0.09000000    0.03000000
   14.51861095  101.03900146    0.09000000    0.03000000
   14.52194405   97.62349701    0.09000000    0.05000000
   14.52499962   98.10970306    0.09000000    0.03000000
   14.52750015   94.54080200    0.09000000    0.05000000
   14.52888870   99.81770325    0.09000000    0.03000000
   14.53194427   97.47869873    0.09000000    0.05000000
   14.53527832   95.15000153    0.09000000    0.05000000
   14.53861141  102.60399628    0.09000000    0.05000000
   14.54166698   99.20330048    0.09000000    0.03000000
   14.54750061   99.20330048    0.03000000    0.03000000
   14.55166721   99.91880035    0.05000000    0.03000000
   14.55500031   93.97200012    0.03000000    0.03000000
   14.55833340   95.22450256    0.05000000    0.03000000
   14.56083393   96.94329834    0.03000000    0.03000000
   14.56194496   93.02549744    0.05000000    0.03000000
   14.56500053   89.82089996    0.03000000    0.03000000
   14.56833363   93.14089966    0.05000000    0.01000000
   14.57166672   91.62259674    0.03000000    0.03000000
   14.57472229   93.54149628    0.03000000    0.01000000
   14.57805538   91.95420074    0.05000000    0.01000000
   14.58111095   90.81369781    0.05000000    0.01000000
   14.58444405   91.31050110    0.03000000    0.01000000
   14.59055519   91.31050110    0.03000000    0.01000000
   14.59472179   90.59069824    0.03000000    0.01000000
   14.59777737   85.69239807    0.03000000    0.01000000
   14.60111141   90.06620026    0.03000000    0.01000000
   14.60416698   88.05079651    0.03000000    0.01000000
   14.60750008   89.97820282    0.03000000    0.01000000
   14.61083412   84.92710114    0.05000000    0.01000000
   14.61388969   88.11329651    0.03000000    0.01000000
   14.61722279   82.54049683    0.05000000    0.01000000
   14.62055588   84.71849823    0.05000000    0.01000000
   14.62361145   85.53330231    0.03000000    0.01000000
   14.62694454   91.36930084    0.03000000    0.01000000
   14.62750053   85.50420380    0.03000000    0.01000000
   14.63333321   85.50420380    0.03000000    0.01000000
   14.63749981   82.72730255    0.03000000    0.01000000
   14.64055538   84.62349701    0.05000000    0.01000000
   14.64388847   83.62909698    0.03000000    0.01000000
   14.64722252   84.51499939    0.03000000    0.01000000
   14.65027714   86.00450134    0.03000000    0.01000000
   14.65361118   82.16429901    0.03000000    0.01000000
   14.65694427   81.60549927    0.05000000    0.01000000
   14.65999985   90.28359985    0.05000000    0.01000000
   14.66083336   85.71939850    0.05000000    0.01000000
   14.66388893  103.63300323    0.05000000    0.01000000
   14.66694450   86.59839630    0.03000000    0.01000000
   14.67027855  102.08899689    0.03000000    0.01000000
   14.67611122  102.08899689    0.03000000    0.01000000
   14.68027782   85.56939697    0.05000000    0.01000000
   14.68361092   85.57599640    0.05000000    0.01000000
   14.68666649   92.36090088    0.05000000    0.01000000
   14.69000053   94.86730194    0.03000000    0.01000000
   14.69333363   92.97360229    0.03000000    0.01000000
   14.69416714   84.08969879    0.03000000    0.01000000
   14.69694424   83.13220215    0.05000000    0.01000000
   14.69999981   88.37210083    0.05000000    0.01000000
   14.70333290   87.26360321    0.03000000    0.01000000
   14.70666695   84.30329895    0.03000000    0.01000000
   14.70972157   81.97889709    0.05000000    0.01000000
   14.71305561   82.82769775    0.05000000    0.01000000
   14.71888828   82.82769775    0.05000000    0.01000000
   14.72305489   84.42769623    0.05000000    0.01000000
   14.72638798   85.44680023    0.05000000    0.01000000
   14.72749996   82.73010254    0.05000000    0.01000000
   14.72999954   83.73979950    0.05000000    0.01000000
   14.73333359   87.83239746    0.05000000    0.01000000
   14.73638916   80.80989838    0.05000000    0.01000000
   14.73972225   87.60099792    0.05000000    0.01000000
   14.74305534   83.04329681    0.05000000    0.01000000
   14.74611092   77.85150146    0.05000000    0.01000000
   14.74944496   87.19789886    0.05000000    0.01000000
   14.75249958   89.19170380    0.05000000    0.01000000
   14.75583363   80.31179810    0.05000000    0.01000000
   14.76194477   80.31179810    0.05000000    0.01000000
   14.76611137   80.09079742    0.05000000    0.01000000
   14.76916599   80.73680115    0.05000000    0.01000000
   14.77250004   79.13559723    0.05000000    0.01000000
   14.77555561   77.66519928    0.05000000    0.01000000
   14.77888870   82.62889862    0.05000000    0.01000000
   14.78222179   72.89800262    0.05000000    0.01000000
   14.78527832   76.14929962    0.05000000    0.01000000
   14.78861141   84.70800018    0.05000000    0.01000000
   14.79194450   77.66790009    0.05000000    0.01000000
   14.79416752   84.02980042    0.05000000    0.01000000
   14.79555607   82.97280121    0.05000000    0.01000000
   14.79888916   84.31980133    0.05000000    0.01000000
   14.80472279   84.31980133    0.05000000    0.01000000
   14.80888939   77.80229950    0.05000000    0.01000000
   14.81194496   79.48529816    0.05000000    0.01000000
   14.81527805   73.16210175    0.05000000    0.01000000
   14.81861115   78.07929993    0.05000000    0.01000000
   14.82166672   78.01190186    0.05000000    0.01000000
   14.82499981   75.54650116    0.05000000    0.01000000
   14.82750034   76.14209747    0.05000000    0.01000000
   14.82861137   81.75779724    0.05000000    0.01000000
   14.83166695   82.90000153    0.05000000    0.01000000
   14.83500004   94.32119751    0.05000000    0.01000000
   14.83833313   90.02760315    0.05000000    0.01000000
   14.84138870   95.33560181    0.05000000    0.01000000
   14.84749985   95.33560181    0.05000000    0.01000000
   14.85166740   86.93119812    0.05000000    0.01000000
   14.85472298   81.43579865    0.05000000    0.01000000
   14.85805607   94.87650299    0.05000000    0.01000000
   14.86083412   94.02490234    0.05000000    0.01000000
   14.86166668   83.23880005    0.05000000    0.01000000
   14.86472225   85.96929932    0.05000000    0.01000000
   14.86805534  102.13400269    0.05000000    0.01000000
   14.87138939   80.46810150    0.05000000    0.01000000
   14.87444496   79.35220337    0.05000000    0.01000000
   14.87777805   89.04299927    0.05000000    0.01000000
   14.88111115   94.34210205    0.05000000    0.01000000
   14.88416672   88.48549652    0.05000000    0.01000000
   14.89027786   88.48549652    0.05000000    0.01000000
   14.89444447   88.68479919    0.05000000    0.01000000
   14.89777756   80.96949768    0.05000000    0.01000000
   14.90111065   80.15280151    0.05000000    0.01000000
   14.90416622   80.45559692    0.05000000    0.01000000
   14.90749931   81.72170258    0.05000000    0.01000000
   14.91055489   86.75370026    0.05000000    0.01000000
   14.91388893   88.10320282    0.05000000    0.01000000
   14.91722298   71.39939880    0.05000000    0.01000000
   14.92027855   76.15149689    0.05000000    0.01000000
   14.92361164   75.26319885    0.05000000    0.01000000
   15.02305508   -1.00000000   -1.00000000   -1.00000000
   15.15972137   -1.00000000   -1.00000000   -1.00000000
   15.33972168   -1.00000000   -1.00000000   -1.00000000
   15.40777779   87.23580170    0.05000000    0.01000000
   15.41111088   71.63430023    0.05000000    0.01000000
   15.41444397   73.36940002    0.05000000    0.01000000
   15.41750050   72.20549774    0.05000000    0.01000000
   15.42083359   71.38700104    0.05000000    0.01000000
   15.42388916   73.20819855    0.05000000    0.01000000
   15.42805576   73.20819855    0.05000000    0.25999999
   15.43222237   71.65820313    0.41999999    2.73000002
   15.43555546   71.82779694    0.40000001    2.73000002
   15.43861103   72.21839905    0.40000001    2.71000004
   15.44111156   71.12200165    0.40000001    2.73000002
   15.44250011   69.80239868    0.40000001    2.73000002
   15.44583321   71.76239777    0.40000001    2.73000002
   15.44888878   76.64140320    0.40000001    2.73000002
   15.45222187   73.15000153    0.40000001    2.73000002
   15.45527744   73.09780121    0.40000001    2.73000002
   15.45861053   75.61869812    0.40000001    2.73000002
   15.46194458   76.83979797    0.40000001    2.73000002
   15.46500015   73.91380310    0.40000001    2.73000002
   15.47111034   73.91380310    0.36000001    2.73000002
   15.47499943   71.75260162    0.38000000    2.73000002
   15.47833252   71.11080170    0.38000000    2.73000002
   15.48166656   72.03369904    0.34000000    2.71000004
   15.48472214   70.78299713    0.34000000    2.73000002
   15.48805618   71.51999664    0.34000000    2.73000002
   15.49138927   70.74919891    0.36000001    2.73000002
   15.49444485   72.17430115    0.36000001    2.73000002
   15.49777794   71.45829773    0.36000001    2.73000002
   15.50083351   70.09300232    0.38000000    2.73000002
   15.50416660   75.39029694    0.40000001    2.73000002
   15.50749969   74.29989624    0.41999999    2.75000000
   15.50805569   71.20240021    0.41999999    2.75000000
   15.51388931   71.20240021    0.40000001    2.73000002
   15.51805496   72.42430115    0.40000001    2.73000002
   15.52111053   72.92810059    0.38000000    2.73000002
   15.52444458   70.61470032    0.38000000    2.73000002
   15.52777767   76.25559998    0.38000000    2.73000002
   15.53083324   71.07769775    0.40000001    2.73000002
   15.53416729   73.29709625    0.40000001    2.73000002
   15.53722286   72.91419983    0.40000001    2.73000002
   15.54055595   73.19689941    0.40000001    2.73000002
   15.54138947   74.34380341    0.40000001    2.73000002
   15.54416752   73.74639893    0.40000001    2.73000002
   15.54750061   73.40809631    0.50000000    2.73000002
   15.55083370   70.96420288    0.47999999    2.73000002
   15.55666733   70.96420288    0.46000001    2.75000000
   15.56083393   70.56909943    0.44000000    2.71000004
   15.56416702   74.28330231    0.41999999    2.73000002
   15.56722260   76.99340057    0.41999999    2.71000004
   15.57055569   71.58399963    0.41999999    2.73000002
   15.57361126   72.96600342    0.44000000    2.73000002
   15.57472229   72.74790192    0.41999999    2.73000002
   15.57722187   72.78849792    0.41999999    2.73000002
   15.58055592   70.99579620    0.40000001    2.73000002
   15.58388901   74.97280121    0.40000001    2.73000002
   15.58694458   71.68620300    0.36000001    2.73000002
   15.59027767   72.55329895    0.36000001    2.73000002
   15.59333324   69.27610016    0.36000001    2.73000002
   15.59944439   69.27610016    0.36000001    2.73000002
   15.60361195   72.76989746    0.36000001    2.73000002
   15.60694504   72.14160156    0.36000001    2.73000002
   15.60805607   72.78910065    0.36000001    2.73000002
   15.61055565   73.12760162    0.34000000    2.73000002
   15.61388969   71.34429932    0.36000001    2.75000000
   15.61722279   71.18090057    0.34000000    2.73000002
   15.62027836   72.72160339    0.34000000    2.73000002
   15.62361145   72.27369690    0.34000000    2.73000002
   15.62666702   71.98200226    0.31999999    2.73000002
   15.63000011   71.73880005    0.31999999    2.73000002
   15.63333321   70.01180267    0.31999999    2.73000002
   15.63638878   69.54299927    0.31999999    2.73000002
   15.64249992   69.54299927    0.34000000    2.75000000
   15.64666653   72.77259827    0.34000000    2.73000002
   15.64972210   76.22630310    0.34000000    2.75000000
   15.65305519   74.95240021    0.36000001    2.73000002
   15.65611076   72.55000305    0.34000000    2.73000002
   15.65944386   73.03890228    0.36000001    2.73000002
   15.66277695   73.84159851    0.36000001    2.73000002
   15.66583252   71.66780090    0.36000001    2.73000002
   15.66916656   73.03320313    0.36000001    2.73000002
   15.67250061   73.37770081    0.36000001    2.73000002
   15.67472267   74.07869720    0.38000000    2.73000002
   15.67583370   69.96640015    0.40000001    2.75000000
   15.67916679   72.14550018    0.40000001    2.73000002
   15.68527794   72.14550018    0.40000001    2.73000002
   15.68944454   73.48459625    0.40000001    2.73000002
   15.69250011   71.78530121    0.40000001    2.73000002
   15.69583321   73.39749908    0.40000001    2.73000002
   15.69916630   74.32710266    0.40000001    2.73000002
   15.70222187   73.59729767    0.40000001    2.73000002
   15.70555496   70.07420349    0.40000001    2.73000002
   15.70805550   72.79679871    0.40000001    2.73000002
   15.70916653   72.29560089    0.40000001    2.73000002
   15.71249962   69.84290314    0.40000001    2.73000002
   15.71583271   72.48310089    0.40000001    2.73000002
   15.71888828   71.68180084    0.40000001    2.73000002
   15.72222137   75.04489899    0.40000001    2.75000000
   15.72805500   75.04489899    0.40000001    2.75000000
   15.73222160   71.81040192    0.38000000    2.73000002
   15.73555565   71.86090088    0.36000001    2.73000002
   15.73861122   69.53459930    0.38000000    2.73000002
   15.74138927   71.43630219    0.38000000    2.73000002
   15.74222279   73.23860168    0.38000000    2.73000002
   15.74555588   71.18289948    0.38000000    2.73000002
   15.74888897   70.06439972    0.38000000    2.75000000
   15.75194454   70.13369751    0.38000000    2.73000002
   15.75527763   71.52760315    0.38000000    2.75000000
   15.75833321   71.49810028    0.38000000    2.75000000
   15.76166630   71.37249756    0.38000000    2.73000002
   15.76500034   73.63269806    0.38000000    2.75000000
   15.77083302   73.63269806    0.40000001    2.73000002
   15.77499962   74.56009674    0.38000000    2.73000002
   15.77833271   72.66609955    0.38000000    2.75000000
   15.78138828   71.70379639    0.38000000    2.75000000
   15.78472233   80.62400055    0.38000000    2.75000000
   15.78805637   73.35690308    0.36000001    2.73000002
   15.79111195   79.86660004    0.38000000    2.73000002
   15.79444504   77.89830017    0.40000001    2.75000000
   15.79777813   85.93150330    0.40000001    2.75000000
   15.80083370   91.33840179    0.40000001    2.75000000
   15.80416679   79.00710297    0.40000001    2.73000002
   15.80722237   76.45359802    0.41999999    2.75000000
   15.80805588   77.15110016    0.41999999    2.73000002
   15.81388950   77.15110016    0.44000000    2.73000002
   15.81777763   76.04399872    0.50000000    2.75000000
   15.82111073   75.42109680    0.51999998    2.73000002
   15.82444477   79.06580353    0.50000000    2.75000000
   15.82777786   78.15740204    0.50000000    2.73000002
   15.83083344   74.16699982    0.50000000    2.73000002
   15.83416653   77.08550262    0.52999997    2.73000002
   15.83749962   79.54299927    0.55000001    2.73000002
   15.84055519   74.56410217    0.55000001    2.75000000
   15.84138870   72.86489868    0.55000001    2.75000000
   15.84416676   75.92269897    0.55000001    2.73000002
   15.84749985   72.32240295    0.55000001    2.73000002
   15.85083389   72.59449768    0.56999999    2.73000002
   15.85666752   72.59449768    0.61000001    2.73000002
   15.86083412   74.08419800    0.67000002    2.73000002
   15.86388969   75.19000244    0.67000002    2.73000002
   15.86722279   76.50920105    0.69000000    2.73000002
   15.87055588   73.66230011    0.70999998    2.73000002
   15.87361145   76.83519745    0.70999998    2.73000002
   15.87472248   76.13310242    0.70999998    2.73000002
   15.87722206   75.90689850    0.70999998    2.73000002
   15.88055611   76.88529968    0.70999998    2.73000002
   15.88388920   76.06240082    0.80000001    2.73000002
   15.88694477   77.82109833    0.89999998    2.73000002
   15.89027786   77.60600281    0.94000000    2.73000002
   15.89361095   79.84310150    0.92000002    2.73000002
   15.89944458   79.84310150    1.05999994    2.73000002
   15.90361118   72.03230286    1.03999996    2.73000002
   15.90694427   78.70349884    1.00000000    2.73000002
   15.90805531   80.83899689    1.00000000    2.71000004
   15.91027737   77.15090179    0.83999997    2.73000002
   15.91361046   74.85769653    0.81999999    2.73000002
   15.91694450   79.65160370    0.79000002    2.73000002
   15.92027855   77.97899628    0.79000002    2.73000002
   15.92333412   75.45439911    0.70999998    2.71000004
   15.92666721   73.47709656    0.70999998    2.75000000
   15.93000031   77.78179932    0.58999997    2.73000002
   15.93305588   73.29640198    0.58999997    2.73000002
   15.93638897   74.75659943    0.51999998    2.75000000
   15.94222260   74.75659943    0.50000000    2.73000002
   15.94638920   73.46779633    0.47999999    2.73000002
   15.94972229   73.28070068    0.50000000    2.73000002
   15.95277786   73.15619659    0.67000002    2.73000002
   15.95611095   75.33830261    0.75000000    2.73000002
   15.95944405   75.74130249    0.73000002    2.75000000
   15.96249962   73.01799774    0.64999998    2.73000002
   15.96583271   76.29270172    0.64999998    2.73000002
   15.96916580   76.58599854    0.67000002    2.73000002
   15.97222137   74.71690369    0.75000000    2.73000002
   15.97472191   75.98739624    0.75000000    2.73000002
   15.97611046   75.07849884    0.75000000    2.73000002
   15.97916603   73.60379791    0.75000000    2.73000002
   15.98527813   73.60379791    0.56999999    2.73000002
   15.98916721   76.03170013    0.58999997    2.73000002
   15.99250031   76.06999969    0.56999999    2.73000002
   15.99583340   74.52110291    0.52999997    2.73000002
   15.99888897   74.56349945    0.52999997    2.73000002
   16.00222206   76.68389893    0.40000001    2.73000002
   16.00555611   77.09559631    0.41999999    2.75000000
   16.00805473   74.70059967    0.40000001    2.73000002
   16.00888824   72.19920349    0.40000001    2.73000002
   16.01222229   71.19850159    0.40000001    2.73000002
   16.01555634   73.29190063    0.40000001    2.73000002
   16.01861000   76.45580292    0.40000001    2.73000002
   16.02194405   74.18689728    0.40000001    2.73000002
   16.02805519   74.18689728    0.44000000    2.73000002
   16.03222275   79.96980286    0.41999999    2.73000002
   16.03527641   80.35040283    0.41999999    2.73000002
   16.03861046   83.39700317    0.41999999    2.75000000
   16.04138756   78.13980103    0.41999999    2.73000002
   16.04222107   74.49089813    0.44000000    2.73000002
   16.04527664   78.97740173    0.41999999    2.73000002
   16.04861069   76.63539886    0.44000000    2.73000002
   16.05166626   82.00620270    0.44000000    2.75000000
   16.05499840   77.55780029    0.46000001    2.73000002
   16.05833244   77.65720367    0.44000000    2.73000002
   16.06138802   78.41069794    0.41999999    2.73000002
   16.06472206   77.93039703    0.41999999    2.75000000
   16.07083511   77.93039703    0.38000000    2.73000002
   16.07500076   79.60710144    0.38000000    2.73000002
   16.07805634   76.26100159    0.36000001    2.75000000
   16.08139038   79.16510010    0.38000000    2.73000002
   16.08472252   82.58769989    0.38000000    2.73000002
   16.08777809   79.21929932    0.38000000    2.73000002
   16.09111214   81.86869812    0.40000001    2.75000000
   16.09444427   81.14450073    0.40000001    2.75000000
   16.09749985   85.27480316    0.40000001    2.73000002
   16.10083389   81.10340118    0.41999999    2.73000002
   16.10388947   84.76750183    0.38000000    2.73000002
   16.10722351   92.45950317    0.38000000    2.73000002
   16.10805511   88.71779633    0.40000001    2.73000002
   16.11361122   88.71779633    0.40000001    2.75000000
   16.11777878   83.00009918    0.38000000    2.73000002
   16.12111092   83.97609711    0.36000001    2.73000002
   16.12416649   82.48889923    0.36000001    2.73000002
   16.12750053   84.29299927    0.36000001    2.73000002
   16.13083267   87.56050110    0.40000001    2.75000000
   16.13388824   86.28369904    0.40000001    2.75000000
   16.13722229   88.53330231    0.40000001    2.75000000
   16.14027786   89.26080322    0.38000000    2.73000002
   16.14138794   85.81870270    0.38000000    2.73000002
   16.14416695   84.12449646    0.36000001    2.73000002
   16.14722252   88.02330017    0.36000001    2.73000002
   16.15055466   89.20359802    0.40000001    2.73000002
   16.15638924   89.20359802    0.40000001    2.73000002
   16.16055489   91.34030151    0.38000000    2.73000002
   16.16388893   89.17269897    0.34000000    2.75000000
   16.16722107   91.08850098    0.34000000    2.73000002
   16.17027664   89.97299957    0.31999999    2.73000002
   16.17361069   88.30899811    0.31999999    2.73000002
   16.17472076   88.85030365    0.31999999    2.75000000
   16.17722130   92.72859955    0.31999999    2.75000000
   16.18027687   90.17790222    0.31999999    2.73000002
   16.18361092   88.48179626    0.31999999    2.73000002
   16.18666649  100.58599854    0.31999999    2.73000002
   16.18999863  101.05899811    0.30000001    2.73000002
   16.19333267   98.21469879    0.30000001    2.73000002
   16.19944382   98.21469879    0.30000001    2.75000000
   16.20361137  109.11699677    0.31999999    2.75000000
   16.20666695  112.69799805    0.30000001    2.75000000
   16.20805550  114.98799896    0.30000001    2.73000002
   16.21055603  113.32199860    0.30000001    2.73000002
   16.21361160  122.68800354    0.30000001    2.73000002
   16.21694565  121.53800201    0.30000001    2.75000000
   16.22027779  123.30500031    0.30000001    2.73000002
   16.22333336  133.73399353    0.30000001    2.73000002
   16.22666740  127.29799652    0.30000001    2.73000002
   16.22972298  124.32499695    0.30000001    2.73000002
   16.23305511  133.61999512    0.30000001    2.73000002
   16.23638916  123.00599670    0.30000001    2.73000002
   16.24222183  123.00599670    0.30000001    2.75000000
   16.24638939  170.77499390    0.30000001    2.75000000
   16.24944496  186.76400757    0.30000001    2.75000000
   16.25277710  174.72399902    0.30000001    2.73000002
   16.25611115  203.37899780    0.30000001    2.73000002
   16.25916672  214.56199646    0.30000001    2.73000002
   16.26250076  226.04400635    0.30000001    2.75000000
   16.26583290  202.51400757    0.28000000    2.75000000
   16.26888847  210.62600708    0.28000000    2.73000002
   16.27222252  184.49699402    0.30000001    2.73000002
   16.27472115  195.17599487    0.30000001    2.75000000
   16.27583313  215.04299927    0.28000000    2.75000000
   16.27888870  165.22599792    0.30000001    2.73000002
   16.28499985  165.22599792    0.30000001    2.75000000
   16.28916550  162.01600647    0.30000001    2.75000000
   16.29249954  172.54200745    0.28000000    2.73000002
   16.29555511  157.88699341    0.28000000    2.73000002
   16.29888916  144.56700134    0.30000001    2.73000002
   16.30222130  159.09700012    0.28000000    2.73000002
   16.30527687  173.30900574    0.28000000    2.73000002
   16.30805397  167.20399475    0.28000000    2.75000000
   16.30916595  165.09100342    0.28000000    2.75000000
   16.31222153  151.55000305    0.28000000    2.73000002
   16.31555557  161.37500000    0.28000000    2.73000002
   16.31888962  158.10699463    0.28000000    2.73000002
   16.32194519  154.43200684    0.28000000    2.73000002
   16.32777786  154.43200684    0.28000000    2.73000002
   16.33194542  153.40299988    0.28000000    2.73000002
   16.33527756  141.69099426    0.28000000    2.73000002
   16.33861160  139.88999939    0.28000000    2.73000002
   16.34138870  147.88499451    0.28000000    2.73000002
   16.34222221  147.08399963    0.28000000    2.73000002
   16.34527779  149.58000183    0.28000000    2.75000000
   16.34861183  156.03100586    0.28000000    2.73000002
   16.35194397  142.53700256    0.30000001    2.73000002
   16.35499954  137.79600525    0.30000001    2.73000002
   16.35833359  130.14799500    0.30000001    2.75000000
   16.36138916  144.63900757    0.30000001    2.73000002
   16.36472321  142.52400208    0.30000001    2.73000002
   16.37083435  142.52400208    0.30000001    2.73000002
   16.37500000  143.88000488    0.30000001    2.75000000
   16.37805557  133.75700378    0.31999999    2.75000000
   16.38138962  146.23699951    0.31999999    2.75000000
   16.38444519  128.64100647    0.31999999    2.73000002
   16.38777733  121.27899933    0.31999999    2.75000000
   16.39111137  133.45399475    0.31999999    2.73000002
   16.39416695  145.70799255    0.31999999    2.73000002
   16.39749908  139.42799377    0.31999999    2.73000002
   16.40083313  140.45300293    0.31999999    2.73000002
   16.40388870  138.21000671    0.31999999    2.73000002
   16.40722275  141.49600220    0.31999999    2.73000002
   16.40805435  138.96499634    0.31999999    2.73000002
   16.42888832  138.96499634    0.31999999    2.73000002
   16.43305397  131.73800659    0.30000001    2.73000002
   16.43610954  126.93599701    0.30000001    2.73000002
   16.43944359  126.35700226    0.30000001    2.73000002
   16.44138718  130.74200439    0.31999999    2.73000002
   16.44305420  124.36499786    0.30000001    2.75000000
   16.44610977  126.32499695    0.30000001    2.73000002
   16.44944382  128.00100708    0.30000001    2.75000000
   16.45277786  139.03599548    0.30000001    2.75000000
   16.45583344  131.35699463    0.30000001    2.75000000
   16.45916748  141.66999817    0.31999999    2.75000000
   16.46250153  141.97099304    0.31999999    2.75000000
   16.46555710  146.95199585    0.31999999    2.73000002
   16.47166634  146.95199585    0.31999999    2.75000000
   16.47555542  175.97000122    0.31999999    2.73000002
   16.47888947  194.33599854    0.31999999    2.73000002
   16.48222351  217.55700684    0.31999999    2.73000002
   16.48527718  215.47000122    0.31999999    2.73000002
   16.48861122  208.51899719    0.30000001    2.73000002
   16.49194527  203.68800354    0.30000001    2.75000000
   16.49500084  213.78700256    0.31999999    2.75000000
   16.49833298  207.39199829    0.30000001    2.75000000
   16.50138855  210.40699768    0.30000001    2.73000002
   16.50472260  215.26199341    0.30000001    2.73000002
   16.50805473  235.06300354    0.30000001    2.73000002
   16.50861168  235.47599792    0.30000001    2.73000002
   16.51444435  235.47599792    0.40000001    2.75000000
   16.51861000  227.04499817    0.38000000    2.75000000
   16.52166557  217.11000061    0.34000000    2.75000000
   16.52499962  247.80200195    0.31999999    2.75000000
   16.52833366  233.78300476    0.31999999    2.73000002
   16.53138924  216.66099548    0.31999999    2.73000002
   16.53472137  233.78599548    0.31999999    2.75000000
   16.53777695  232.76199341    0.31999999    2.73000002
   16.54111099  213.86000061    0.34000000    2.73000002
   16.54194450  179.32099915    0.36000001    2.75000000
   16.54472160  200.24699402    0.36000001    2.73000002
   16.54805565  191.84599304    0.31999999    2.73000002
   16.55138779  206.85699463    0.30000001    2.73000002
   16.55722237  206.85699463    0.30000001    2.73000002
   16.56138802  204.12600708    0.30000001    2.75000000
   16.56472206  199.94299316    0.31999999    2.73000002
   16.56777954  163.49699402    0.30000001    2.75000000
   16.57111168  174.08500671    0.31999999    2.75000000
   16.57416725  180.87899780    0.31999999    2.73000002
   16.57527924  185.13099670    0.31999999    2.73000002
   16.57777786  184.25999451    0.31999999    2.73000002
   16.58111191  181.04600525    0.30000001    2.73000002
   16.58444595  190.94500732    0.30000001    2.75000000
   16.58750153  186.20199585    0.30000001    2.75000000
   16.59083366  189.38000488    0.31999999    2.75000000
   16.59416771  176.15899658    0.30000001    2.73000002
   16.60000038  176.15899658    0.30000001    2.75000000
   16.60416794  172.72099304    0.30000001    2.73000002
   16.60750008  163.00000000    0.30000001    2.73000002
   16.60861206  178.44400024    0.30000001    2.75000000
   16.61083412  190.37699890    0.30000001    2.75000000
   16.61416626  173.99800110    0.30000001    2.73000002
   16.61750031  181.71200562    0.30000001    2.73000002
   16.62055588  186.87699890    0.30000001    2.73000002
   16.62388992  179.29400635    0.30000001    2.75000000
   16.62694550  179.17199707    0.30000001    2.75000000
   16.63027763  193.45899963    0.30000001    2.75000000
   16.63361168  190.19900513    0.30000001    2.73000002
   16.63666725  198.77299500    0.30000001    2.73000002
   16.64305496  198.77299500    0.30000001    2.73000002
   16.64694405  184.35499573    0.30000001    2.73000002
   16.65027809  198.08599854    0.30000001    2.73000002
   16.65361023  192.75700378    0.30000001    2.75000000
   16.65666580  185.25000000    0.30000001    2.75000000
   16.65999985  192.08399963    0.31999999    2.75000000
   16.66333389  186.60800171    0.31999999    2.75000000
   16.66638756  174.80599976    0.30000001    2.75000000
   16.66972160  184.95700073    0.30000001    2.75000000
   16.67277718  181.15600586    0.30000001    2.73000002
   16.67527771  167.64500427    0.30000001    2.73000002
   16.67638779  172.52999878    0.30000001    2.73000002
   16.67972183  182.26800537    0.31999999    2.73000002
   16.68583298  182.26800537    0.30000001    2.73000002
   16.68999863  182.99099731    0.30000001    2.75000000
   16.69305420  172.85499573    0.31999999    2.75000000
   16.69638824  170.02600098    0.30000001    2.75000000
   16.69944382  161.14900208    0.31999999    2.75000000
   16.70277786  166.27299500    0.31999999    2.75000000
   16.70611191  161.69000244    0.31999999    2.75000000
   16.70861244  165.80799866    0.31999999    2.75000000
   16.70944595  169.57600403    0.31999999    2.75000000
   16.71277809  168.01800537    0.30000001    2.75000000
   16.71611214  160.27299500    0.30000001    2.73000002
   16.71916771  150.94700623    0.30000001    2.75000000
   16.72249985  181.62800598    0.30000001    2.73000002
   16.72861099  181.62800598    0.31999999    2.75000000
   16.73277855  148.51899719    0.31999999    2.75000000
   16.73611069  150.35200500    0.31999999    2.75000000
   16.73916626  171.08399963    0.31999999    2.73000002
   16.74194527  174.86300659    0.31999999    2.73000002
   16.74277878  155.39500427    0.31999999    2.75000000
   16.74611092  158.58200073    0.31999999    2.75000000
   16.74944496  153.71000671    0.31999999    2.75000000
   16.75250053  161.36399841    0.30000001    2.73000002
   16.75583267  165.60299683    0.30000001    2.73000002
   16.75916672  169.79499817    0.31999999    2.73000002
   16.76222229  156.07099915    0.31999999    2.75000000
   16.76555634  153.27099609    0.31999999    2.75000000
   16.77138901  153.27099609    0.31999999    2.75000000
   16.77555466  152.73199463    0.31999999    2.73000002
   16.77888870  153.48899841    0.31999999    2.73000002
   16.78194427  159.88900757    0.31999999    2.73000002
   16.78527641  157.89399719    0.31999999    2.75000000
   16.78861046  161.83299255    0.31999999    2.75000000
   16.79166603  165.77099609    0.31999999    2.75000000
   16.79527664  152.26100159    0.31999999    2.75000000
   16.79861069  157.82200623    0.30000001    2.73000002
   16.80194283  154.96400452    0.31999999    2.73000002
   16.80499840  155.09399414    0.30000001    2.75000000
   16.80833244  140.59899902    0.30000001    2.75000000
   16.80888748  139.85899353    0.30000001    2.75000000
   16.81444359  139.85899353    0.30000001    2.75000000
   16.81833458  140.13800049    0.30000001    2.75000000
   16.82166672  150.44900513    0.30000001    2.73000002
   16.82500076  140.37899780    0.30000001    2.73000002
   16.82805634  152.12500000    0.30000001    2.73000002
   16.83139038  150.97999573    0.30000001    2.75000000
   16.83472252  144.84300232    0.30000001    2.73000002
   16.83777809  162.64700317    0.28000000    2.75000000
   16.84111214  159.77600098    0.28000000    2.75000000
   16.84222221  158.62899780    0.28000000    2.75000000
   16.84472275  160.68099976    0.28000000    2.75000000
   16.84777832  159.69799805    0.30000001    2.73000002
   16.85111237  164.32899475    0.28000000    2.73000002
   16.85722351  164.32899475    0.30000001    2.75000000
   16.86138916  152.37899780    0.28000000    2.75000000
   16.86444473  157.75199890    0.30000001    2.75000000
   16.86777878  152.56199646    0.28000000    2.75000000
   16.87111092  175.40199280    0.30000001    2.75000000
   16.87416649  161.17199707    0.30000001    2.75000000
   16.87555504  159.11399841    0.30000001    2.75000000
   16.87805557  171.49499512    0.30000001    2.75000000
   16.88111115  181.17799377    0.30000001    2.73000002
   16.88444519  167.44900513    0.30000001    2.75000000
   16.88750076  191.66600037    0.30000001    2.73000002
   16.89083290  174.41099548    0.30000001    2.73000002
   16.89416695  183.69799805    0.30000001    2.73000002
   16.89999962  183.69799805    0.31999999    2.75000000
   16.90416718  191.30299377    0.31999999    2.75000000
   16.90749931  204.15299988    0.31999999    2.73000002
   16.90888786  181.59599304    0.31999999    2.73000002
   16.91110992  195.06599426    0.31999999    2.73000002
   16.91416550  193.35600281    0.31999999    2.75000000
   16.91749954  190.33999634    0.34000000    2.75000000
   16.92083359  201.06300354    0.31999999    2.75000000
   16.92388916  205.12899780    0.31999999    2.75000000
   16.92722130  205.43899536    0.31999999    2.73000002
   16.93027687  190.91999817    0.31999999    2.75000000
   16.93361092  217.47399902    0.31999999    2.73000002
   16.93694305  219.66400146    0.31999999    2.75000000
   16.94277763  219.66400146    0.31999999    2.75000000
   16.94694328  220.31700134    0.31999999    2.73000002
   16.95027924  223.11199951    0.31999999    2.75000000
   16.95333481  230.53500366    0.31999999    2.73000002
   16.95666695  215.54899597    0.31999999    2.73000002
   16.96000099  209.65699768    0.31999999    2.73000002
   16.96305656  190.12199402    0.31999999    2.75000000
   16.96638870  202.68899536    0.31999999    2.73000002
   16.96944427  207.07099915    0.31999999    2.73000002
   16.97277832  212.97000122    0.31999999    2.73000002
   16.97555542  214.17500305    0.31999999    2.73000002
   16.97666740  221.12899780    0.31999999    2.73000002
   16.97972298  203.24000549    0.31999999    2.73000002
   16.98555565  203.24000549    0.31999999    2.73000002
   16.98972321  218.08999634    0.31999999    2.73000002
   16.99305534  211.36300659    0.31999999    2.73000002
   16.99638939  219.27600098    0.31999999    2.73000002
   16.99944496  217.19200134    0.31999999    2.73000002
   17.00277710  213.20100403    0.31999999    2.73000002
   17.00583267  211.82800293    0.31999999    2.75000000
   17.00888824  218.84399414    0.31999999    2.73000002
   17.00972176  211.25100708    0.31999999    2.75000000
   17.01277733  218.53500366    0.31999999    2.73000002
   17.01611137  201.31900024    0.31999999    2.73000002
   17.01944351  212.21800232    0.31999999    2.73000002
   17.02249908  210.67300415    0.30000001    2.75000000
   17.02861023  210.67300415    0.30000001    2.73000002
   17.03277779  201.83299255    0.30000001    2.75000000
   17.03583336  220.66900635    0.30000001    2.73000002
   17.03916550  218.54299927    0.30000001    2.73000002
   17.04222107  208.57600403    0.30000001    2.73000002
   17.04277802  216.39500427    0.30000001    2.73000002
   17.04583359  210.39199829    0.30000001    2.73000002
   17.04916573  208.66700745    0.30000001    2.75000000
   17.05222130  204.97599792    0.30000001    2.75000000
   17.05555534  210.42999268    0.30000001    2.73000002
   17.05888748  206.50799561    0.30000001    2.73000002
   17.06194305  205.19200134    0.30000001    2.73000002
   17.06527710  190.14999390    0.30000001    2.73000002
   17.07139015  190.14999390    0.31999999    2.75000000
   17.07555580  198.47599792    0.31999999    2.75000000
   17.07611275  200.93699646    0.30000001    2.75000000
   17.07916832  197.08900452    0.31999999    2.75000000
   17.08250046  171.71600342    0.31999999    2.73000002
   17.08555603  191.68800354    0.31999999    2.73000002
   17.08889008  194.78900146    0.31999999    2.73000002
   17.09222221  195.88999939    0.31999999    2.73000002
   17.09555626  187.89500427    0.31999999    2.73000002
   17.09861183  195.08299255    0.31999999    2.73000002
   17.10194397  190.35899353    0.31999999    2.75000000
   17.10499954  183.63600159    0.31999999    2.73000002
   17.10833359  185.11199951    0.31999999    2.75000000
   17.10888863  195.19400024    0.31999999    2.75000000
   17.11416626  195.19400024    0.31999999    2.73000002
   17.11833382  197.70399475    0.31999999    2.73000002
   17.12166595  185.65499878    0.31999999    2.73000002
   17.12472153  197.30299377    0.31999999    2.73000002
   17.12805557  189.41400146    0.31999999    2.73000002
   17.13138962  187.09300232    0.31999999    2.75000000
   17.13444519  185.25300598    0.34000000    2.73000002
   17.13777733  188.02299500    0.34000000    2.73000002
   17.14083290  182.49099731    0.34000000    2.73000002
   17.14222145  179.37199402    0.34000000    2.73000002
   17.14472198  181.89799500    0.34000000    2.73000002
   17.14777756  180.39599609    0.31999999    2.73000002
   17.15111160  182.32899475    0.34000000    2.75000000
   17.15694427  182.32899475    0.34000000    2.73000002
   17.16110992  179.32400513    0.34000000    2.73000002
   17.16444397  180.52099609    0.34000000    2.73000002
   17.16777802  178.91200256    0.34000000    2.73000002
   17.17083359  170.49200439    0.34000000    2.73000002
   17.17416573  179.30599976    0.34000000    2.73000002
   17.17555428  172.39399719    0.34000000    2.73000002
   17.17777634  179.37399292    0.34000000    2.73000002
   17.18083191  168.86799622    0.34000000    2.75000000
   17.18416595  169.61099243    0.36000001    2.73000002
   17.18750000  164.29299927    0.34000000    2.73000002
   17.19055557  166.79899597    0.34000000    2.75000000
   17.19388771  170.44500732    0.36000001    2.73000002
   17.20000076  170.44500732    0.34000000    2.73000002
   17.20416832  165.35099792    0.34000000    2.73000002
   17.20722389  165.50999451    0.34000000    2.73000002
   17.20888901  161.96000671    0.34000000    2.73000002
   17.21111107  169.09300232    0.34000000    2.73000002
   17.21416664  166.64399719    0.34000000    2.73000002
   17.21750069  167.19200134    0.34000000    2.73000002
   17.22083473  165.26800537    0.31999999    2.73000002
   17.22389030  162.32699585    0.31999999    2.75000000
   17.22722244  172.66799927    0.31999999    2.75000000
   17.23027802  171.52499390    0.31999999    2.73000002
   17.23361206  163.51499939    0.34000000    2.73000002
   17.23694420  161.89799500    0.31999999    2.73000002
   17.24277878  161.89799500    0.31999999    2.73000002
   17.24694443  160.04299927    0.34000000    2.73000002
   17.25000000  164.93899536    0.34000000    2.73000002
   17.25333405  158.11900330    0.34000000    2.73000002
   17.25666618  162.71099854    0.34000000    2.75000000
   17.25972176  156.60299683    0.34000000    2.73000002
   17.26305580  159.83900452    0.34000000    2.73000002
   17.26638794  156.63600159    0.34000000    2.75000000
   17.26944351  158.94700623    0.31999999    2.73000002
   17.27277756  153.86500549    0.31999999    2.73000002
   17.27555466  161.04800415    0.34000000    2.73000002
   17.27638817  154.85600281    0.31999999    2.73000002
   17.27944374  157.37300110    0.31999999    2.73000002
   17.28555489  157.37300110    0.34000000    2.73000002
   17.28972244  155.75199890    0.34000000    2.73000002
   17.29305458  159.40299988    0.34000000    2.73000002
   17.29638863  156.06199646    0.34000000    2.73000002
   17.29944420  151.19099426    0.36000001    2.73000002
   17.30277634  163.57499695    0.34000000    2.73000002
   17.30583191  162.23800659    0.34000000    2.73000002
   17.30888748  158.48599243    0.36000001    2.73000002
   17.30972099  151.63099670    0.36000001    2.73000002
   17.31277657  151.96299744    0.36000001    2.73000002
   17.31611061  147.28500366    0.36000001    2.73000002
   17.31944466  150.98800659    0.34000000    2.73000002
   17.32250023  151.58299255    0.34000000    2.73000002
   17.32833481  151.58299255    0.34000000    2.73000002
   17.33250046  149.69500732    0.34000000    2.73000002
   17.33583450  155.95700073    0.34000000    2.73000002
   17.33916664  148.32600403    0.34000000    2.73000002
   17.34222221  147.48300171    0.34000000    2.73000002
   17.34277916  150.91999817    0.34000000    2.73000002
   17.34583473  146.56199646    0.34000000    2.73000002
   17.34916687  147.43299866    0.34000000    2.73000002
   17.35250092  149.76699829    0.34000000    2.73000002
   17.35555649  140.28199768    0.36000001    2.73000002
   17.35888863  149.84599304    0.36000001    2.73000002
   17.36194420  145.66600037    0.34000000    2.73000002
   17.36527824  142.71499634    0.34000000    2.75000000
   17.37138939  142.71499634    0.36000001    2.73000002
   17.37555504  150.37800598    0.34000000    2.73000002
   17.37583351  149.75300598    0.34000000    2.73000002
   17.37916756  139.57299805    0.34000000    2.73000002
   17.38249969  143.50799561    0.34000000    2.73000002
   17.38555527  142.16099548    0.34000000    2.73000002
   17.38888931  142.37300110    0.34000000    2.73000002
   17.39222145  144.54100037    0.36000001    2.73000002
   17.39527702  143.85699463    0.36000001    2.71000004
   17.39861107  149.20599365    0.36000001    2.71000004
   17.40194321  149.16799927    0.36000001    2.73000002
   17.40499878  146.13699341    0.36000001    2.73000002
   17.40833282  145.63299561    0.36000001    2.73000002
   17.40916634  144.52900696    0.36000001    2.73000002
   17.41416550  144.52900696    0.36000001    2.73000002
   17.41833305  148.67599487    0.36000001    2.71000004
   17.42138863  143.56399536    0.36000001    2.73000002
   17.42472076  134.19700623    0.38000000    2.73000002
   17.44277763  147.59300232    0.38000000    2.73000002
   17.44499969  136.17900085    0.36000001    2.71000004
   17.44805527  144.75199890    0.36000001    2.73000002
   17.45138931  142.98300171    0.36000001    2.73000002
   17.45722389  142.98300171    0.36000001    2.71000004
   17.46138954  145.61199951    0.38000000    2.73000002
   17.46444511  148.27999878    0.38000000    2.73000002
   17.46777916  152.06300354    0.38000000    2.73000002
   17.47111130  153.52299500    0.36000001    2.73000002
   17.47416687  146.67100525    0.38000000    2.73000002
   17.47611237  141.08799744    0.40000001    2.73000002
   17.47777748  150.17500305    0.40000001    2.73000002
   17.48111153  150.80299377    0.40000001    2.73000002
   17.48444557  151.33399963    0.40000001    2.73000002
   17.48750114  147.32899475    0.38000000    2.73000002
   17.49083328  142.76800537    0.38000000    2.73000002
   17.49416733  140.36300659    0.40000001    2.73000002
   17.50000000  140.36300659    0.38000000    2.73000002
   17.50416756  147.16499329    0.38000000    2.71000004
   17.50749969  155.39999390    0.38000000    2.73000002
   17.50944519  141.10099792    0.38000000    2.71000004
   17.51083374  148.86099243    0.38000000    2.71000004
   17.51416588  119.40399933    0.38000000    2.71000004
   17.51749992  143.04200745    0.38000000    2.73000002
   17.52055550  152.79299927    0.38000000    2.73000002
   17.52388954  145.81900024    0.38000000    2.73000002
   17.52722168  147.18600464    0.38000000    2.71000004
   17.53027725  139.71800232    0.38000000    2.73000002
   17.53361130  130.58799744    0.36000001    2.73000002
   17.53666687  147.71299744    0.36000001    2.73000002
   17.54277802  147.71299744    0.36000001    2.73000002
   17.54694366  133.50799561    0.38000000    2.73000002
   17.55027771  149.75000000    0.36000001    2.73000002
   17.55333328  146.48800659    0.36000001    2.73000002
   17.55666542  135.80599976    0.36000001    2.73000002
   17.55999947  129.87600708    0.38000000    2.73000002
   17.56305504  137.31199646    0.38000000    2.73000002
   17.56638718  147.51800537    0.38000000    2.71000004
   17.56972313  151.04200745    0.38000000    2.71000004
   17.57277870  147.86199951    0.38000000    2.71000004
   17.57611275  144.41799927    0.38000000    2.73000002
   17.57666779  132.84599304    0.38000000    2.73000002
   17.57972336  137.28900146    0.38000000    2.71000004
   17.58583450  137.28900146    0.38000000    2.71000004
   17.59000015  145.12699890    0.38000000    2.71000004
   17.59333420  146.60699463    0.36000001    2.71000004
   17.59638977  133.54299927    0.36000001    2.71000004
   17.59972191  140.49099731    0.36000001    2.71000004
   17.60305595  140.23500061    0.36000001    2.71000004
   17.60611153  143.51699829    0.38000000    2.71000004
   17.60944557  143.94700623    0.36000001    2.71000004
   17.61000061  143.97000122    0.36000001    2.71000004
   17.61305618  142.36000061    0.36000001    2.71000004
   17.61638832  137.32400513    0.38000000    2.73000002
   17.61944389  137.75799561    0.38000000    2.71000004
   17.62277794  147.24499512    0.38000000    2.71000004
   17.62861061  147.24499512    0.38000000    2.71000004
   17.63277817  134.72599792    0.38000000    2.71000004
   17.63583374  146.08700562    0.40000001    2.71000004
   17.63916588  141.93600464    0.38000000    2.71000004
   17.64249992  148.06100464    0.40000001    2.73000002
   17.64277840  152.88099670    0.38000000    2.73000002
   17.64583397  139.10000610    0.38000000    2.73000002
   17.64916611  128.97900391    0.38000000    2.71000004
   17.65222168  144.26699829    0.40000001    2.73000002
   17.65555573  140.26499939    0.40000001    2.73000002
   17.65888786  133.40699768    0.40000001    2.73000002
   17.66194344  134.41999817    0.38000000    2.71000004
   17.66527748  132.39700317    0.40000001    2.71000004
   17.67138863  132.39700317    0.38000000    2.71000004
   17.67555428  140.58399963    0.38000000    2.71000004
   17.67611122  133.02699280    0.38000000    2.71000004
   17.67916679  133.44500732    0.38000000    2.73000002
   17.68249893  128.47200012    0.38000000    2.71000004
   17.68555450  130.02200317    0.38000000    2.71000004
   17.68888855  139.76100159    0.40000001    2.71000004
   17.69222069  130.34300232    0.44000000    2.71000004
   17.69527626  136.04499817    0.44000000    2.71000004
   17.69861031  131.87800598    0.41999999    2.71000004
   17.70194435  136.71000671    0.41999999    2.71000004
   17.70499992  134.56300354    0.41999999    2.71000004
   17.70833397  131.81199646    0.41999999    2.71000004
   17.70972252  136.88400269    0.44000000    2.71000004
   17.71416664  136.88400269    0.41999999    2.71000004
   17.71833420  145.53799438    0.40000001    2.71000004
   17.72166634  129.16600037    0.41999999    2.71000004
   17.72472191  130.11799622    0.41999999    2.71000004
   17.72805595  137.78199768    0.41999999    2.71000004
   17.73139000  133.33500671    0.44000000    2.71000004
   17.73444557  134.63600159    0.41999999    2.73000002
   17.73777771  128.36199951    0.40000001    2.71000004
   17.74111176  134.87600708    0.40000001    2.71000004
   17.74305534  135.14500427    0.40000001    2.73000002
   17.74472237  134.93800354    0.40000001    2.71000004
   17.74805641  131.40100098    0.40000001    2.71000004
   17.75111198  134.58200073    0.40000001    2.71000004
   17.75722313  134.58200073    0.41999999    2.71000004
   17.76111031  137.40899658    0.40000001    2.73000002
   17.76444435  131.13800049    0.41999999    2.71000004
   17.76777840  130.18099976    0.41999999    2.71000004
   17.77083397  123.19599915    0.41999999    2.71000004
   17.77416611  129.80700684    0.41999999    2.71000004
   17.77638817  133.48199463    0.41999999    2.71000004
   17.77777672  129.79899597    0.41999999    2.71000004
   17.78111076  124.30699921    0.41999999    2.71000004
   17.78416634  126.58699799    0.44000000    2.71000004
   17.78750038  126.45400238    0.41999999    2.71000004
   17.79083252  128.93499756    0.41999999    2.71000004
   17.79388809  122.03099823    0.44000000    2.71000004
   17.79999924  122.03099823    0.41999999    2.71000004
   17.80416679  119.85900116    0.41999999    2.73000002
   17.80722237  121.82599640    0.41999999    2.73000002
   17.80972099  126.27600098    0.41999999    2.71000004
   17.81083298  125.15499878    0.41999999    2.71000004
   17.81416512  121.95999908    0.41999999    2.71000004
   17.81750107  119.84300232    0.41999999    2.71000004
   17.82055664  120.01499939    0.41999999    2.71000004
   17.82389069  122.08799744    0.41999999    2.71000004
   17.82694626  118.28700256    0.41999999    2.71000004
   17.83027840  120.85900116    0.41999999    2.71000004
   17.83361244  121.64299774    0.41999999    2.71000004
   17.83666801  123.51699829    0.41999999    2.69000006
   17.84277916  123.51699829    0.41999999    2.71000004
   17.84694481  117.86000061    0.41999999    2.71000004
   17.85027885  119.17800140    0.41999999    2.71000004
   17.85333443  116.76899719    0.41999999    2.71000004
   17.85666656  114.34100342    0.41999999    2.71000004
   17.85972214  119.62000275    0.41999999    2.71000004
   17.86305618  119.55699921    0.41999999    2.71000004
   17.86638832  114.08100128    0.41999999    2.71000004
   17.86944389  117.32800293    0.41999999    2.71000004
   17.87277794  116.64700317    0.41999999    2.71000004
   17.87611198  121.04699707    0.41999999    2.71000004
   17.87777710  114.78299713    0.44000000    2.71000004
   17.87972260  116.22599792    0.44000000    2.71000004
   17.88555527  116.22599792    0.44000000    2.71000004
   17.88972282  120.61299896    0.44000000    2.71000004
   17.89305496  118.01200104    0.44000000    2.71000004
   17.89611053  112.57299805    0.44000000    2.71000004
   17.89944458  117.20899963    0.44000000    2.71000004
   17.90277672  116.24299622    0.44000000    2.71000004
   17.90583229  116.66899872    0.44000000    2.71000004
   17.90916634  118.53099823    0.44000000    2.71000004
   17.91110992  115.22499847    0.44000000    2.71000004
   17.91277695  114.24900055    0.44000000    2.71000004
   17.91611099  116.20200348    0.44000000    2.71000004
   17.91916656  112.24500275    0.41999999    2.71000004
   17.92249870  119.21700287    0.41999999    2.71000004
   17.92860985  119.21700287    0.44000000    2.71000004
   17.93249893  117.41100311    0.44000000    2.71000004
   17.93583298  113.59400177    0.44000000    2.71000004
   17.93916512  114.87300110    0.44000000    2.71000004
   17.94222069  112.33200073    0.44000000    2.71000004
   17.94472122  108.61699677    0.44000000    2.71000004
   17.94610977  110.08399963    0.44000000    2.71000004
   17.94916534  111.21399689    0.44000000    2.69000006
   17.95250130  112.02300262    0.44000000    2.71000004
   17.95583344  111.37300110    0.44000000    2.71000004
   17.95888901  115.39900208    0.44000000    2.71000004
   17.96222305  109.06400299    0.44000000    2.71000004
   17.96555710  108.80799866    0.44000000    2.71000004
   17.97138977  108.80799866    0.44000000    2.71000004
   17.97555542  115.50000000    0.46000001    2.71000004
   17.97805595  111.76599884    0.44000000    2.71000004
   17.97916794  108.47200012    0.46000001    2.69000006
   17.98222351  108.92400360    0.46000001    2.71000004
   17.98555565  104.08799744    0.46000001    2.71000004
   17.98888969  112.81700134    0.46000001    2.71000004
   17.99194527  113.09200287    0.46000001    2.71000004
   17.99527740  114.55899811    0.46000001    2.71000004
   17.99833298  108.71800232    0.46000001    2.69000006
   18.00166702  111.66400146    0.46000001    2.71000004
   18.00499916  110.83599854    0.46000001    2.71000004
   18.00805473  112.82700348    0.46000001    2.71000004
   18.01416588  112.82700348    0.46000001    2.71000004
   18.01833344  108.43599701    0.46000001    2.71000004
   18.02166557  110.93900299    0.46000001    2.69000006
   18.02472115  106.58999634    0.46000001    2.69000006
   18.02805519  100.80999756    0.46000001    2.71000004
   18.03138924  110.13400269    0.46000001    2.69000006
   18.03444481  112.05400085    0.47999999    2.69000006
   18.03777695  108.49299622    0.46000001    2.69000006
   18.04111099  102.53700256    0.46000001    2.71000004
   18.04416656  113.44699860    0.46000001    2.69000006
   18.04500008  108.95899963    0.46000001    2.69000006
   18.04777718  109.91699982    0.46000001    2.69000006
   18.05111122  105.21299744    0.46000001    2.71000004
   18.05694389  105.21299744    0.46000001    2.71000004
   18.06110954  106.23799896    0.46000001    2.71000004
   18.06444359  108.44000244    0.46000001    2.71000004
   18.06750107  105.43099976    0.46000001    2.71000004
   18.07083511  103.45400238    0.46000001    2.71000004
   18.07416725  109.56900024    0.46000001    2.71000004
   18.07722282  105.09600067    0.46000001    2.71000004
   18.07833481  106.12999725    0.46000001    2.71000004
   18.08083344  108.91799927    0.46000001    2.71000004
   18.08416748  101.74199677    0.46000001    2.69000006
   18.08722305  100.18000031    0.46000001    2.69000006
   18.09055710  105.48899841    0.46000001    2.69000006
   18.09361267   99.62310028    0.46000001    2.69000006
   18.10000038   99.62310028    0.47999999    2.69000006
   18.10416794   97.22499847    0.47999999    2.69000006
   18.10722351  103.33499908    0.47999999    2.69000006
   18.11055565  101.40599823    0.47999999    2.69000006
   18.11194420  103.69300079    0.47999999    2.69000006
   18.11416626  106.09799957    0.47999999    2.71000004
   18.11750031  103.49199677    0.47999999    2.69000006
   18.12055588  100.89900208    0.47999999    2.69000006
   18.12388992  100.04199982    0.47999999    2.69000006
   18.12722206  105.32900238    0.47999999    2.69000006
   18.13027763  104.53299713    0.47999999    2.71000004
   18.13361168   98.56529999    0.47999999    2.69000006
   18.13666725   96.82309723    0.47999999    2.69000006
   18.14277840   96.82309723    0.47999999    2.69000006
   18.14694405   95.74150085    0.47999999    2.69000006
   18.14999962   98.09130096    0.47999999    2.69000006
   18.15333366   95.11640167    0.47999999    2.71000004
   18.15666580   99.61959839    0.47999999    2.69000006
   18.15972137   98.15249634    0.47999999    2.69000006
   18.16305542   98.18460083    0.47999999    2.69000006
   18.16611099  100.28700256    0.47999999    2.71000004
   18.16944313  100.75599670    0.47999999    2.71000004
   18.17277718   94.86150360    0.47999999    2.71000004
   18.17583275   96.83560181    0.47999999    2.69000006
   18.17860985   97.32959747    0.47999999    2.69000006
   18.17972183   96.22070313    0.47999999    2.69000006
   18.18555450   96.22070313    0.47999999    2.69000006
   18.18972206   96.15360260    0.47999999    2.69000006
   18.19305420   94.12139893    0.47999999    2.69000006
   18.19610977   95.84380341    0.47999999    2.69000006
   18.19944382   93.64140320    0.47999999    2.69000006
   18.20277786   92.59490204    0.47999999    2.69000006
   18.20583344   93.60679626    0.47999999    2.71000004
   18.20916748   90.63379669    0.46000001    2.69000006
   18.21194458   92.77290344    0.47999999    2.71000004
   18.21277809   93.87470245    0.47999999    2.71000004
   18.21583366   94.30030060    0.47999999    2.69000006
   18.21916771   90.43650055    0.47999999    2.69000006
   18.22249985   84.81780243    0.47999999    2.69000006
   18.22833443   84.81780243    0.47999999    2.69000006
   18.23250008   94.31639862    0.47999999    2.71000004
   18.23583412   93.99780273    0.47999999    2.71000004
   18.23888969   99.45999908    0.50000000    2.69000006
   18.24222183   88.58879852    0.50000000    2.71000004
   18.24527740   92.88320160    0.47999999    2.69000006
   18.24583435   90.14790344    0.47999999    2.69000006
   18.24888992   91.72609711    0.47999999    2.69000006
   18.25222206   91.84809875    0.47999999    2.69000006
   18.25555611   91.58979797    0.47999999    2.69000006
   18.25861168   89.74559784    0.47999999    2.69000006
   18.26194382   88.59420013    0.47999999    2.69000006
   18.26527786   92.59780121    0.47999999    2.69000006
   18.27138901   92.59780121    0.50000000    2.69000006
   18.27527809   93.57589722    0.47999999    2.69000006
   18.27861023   87.54260254    0.47999999    2.67000008
   18.27916718   85.73380280    0.47999999    2.67000008
   18.28249931   92.60530090    0.50000000    2.69000006
   18.28555489   89.98770142    0.50000000    2.69000006
   18.28888893   88.44509888    0.50000000    2.69000006
   18.29194450   90.24890137    0.50000000    2.69000006
   18.29527664   92.88210297    0.50000000    2.69000006
   18.29861069   92.94409943    0.50000000    2.69000006
   18.30166626   90.57039642    0.50000000    2.69000006
   18.30499840   88.53170013    0.50000000    2.69000006
   18.30833244   89.25070190    0.50000000    2.69000006
   18.31416512   89.25070190    0.50000000    2.69000006
   18.31833458   82.73529816    0.50000000    2.69000006
   18.32139015   94.32209778    0.50000000    2.69000006
   18.32472229   91.84899902    0.50000000    2.69000006
   18.32805634   84.34480286    0.50000000    2.67000008
   18.33111191   83.03939819    0.51999998    2.69000006
   18.33444595   83.98400116    0.51999998    2.69000006
   18.33750153   84.97889709    0.50000000    2.67000008
   18.34083366   80.28500366    0.50000000    2.69000006
   18.34416771   84.12159729    0.51999998    2.69000006
   18.34527779   79.98840332    0.50000000    2.69000006
   18.34777832   83.33619690    0.50000000    2.69000006
   18.35111237   84.88420105    0.50000000    2.69000006
   18.35694504   84.88420105    0.50000000    2.69000006
   18.36111069   82.85780334    0.50000000    2.69000006
   18.36444473   80.89109802    0.50000000    2.69000006
   18.36750031   79.41149902    0.50000000    2.69000006
   18.37083435   80.43199921    0.50000000    2.69000006
   18.37416649   79.60540009    0.50000000    2.69000006
   18.37722206   82.63819885    0.50000000    2.69000006
   18.37861061   85.32810211    0.50000000    2.69000006
   18.38083267   85.99720001    0.50000000    2.69000006
   18.38416672   80.86699677    0.51999998    2.67000008
   18.38722229   82.09349823    0.51999998    2.69000006
   18.39055634   83.18019867    0.51999998    2.67000008
   18.39361191   81.40560150    0.50000000    2.69000006
   18.39972115   81.40560150    0.51999998    2.67000008
   18.40388870   79.19190216    0.50000000    2.69000006
   18.40722275   85.14510345    0.50000000    2.69000006
   18.41055489   84.72949982    0.50000000    2.69000006
   18.41222191   84.48590088    0.50000000    2.69000006
   18.41416550   83.70179749    0.50000000    2.69000006
   18.41722107   78.94539642    0.51999998    2.67000008
   18.42055511   82.14080048    0.50000000    2.67000008
   18.42388916   76.29460144    0.50000000    2.67000008
   18.42694473   77.09549713    0.50000000    2.67000008
   18.43027687   83.14949799    0.50000000    2.67000008
   18.43333244   82.76490021    0.50000000    2.67000008
   18.43666649   82.54029846    0.51999998    2.67000008
   18.44277763   82.54029846    0.51999998    2.67000008
   18.46111107   78.28420258    0.51999998    2.67000008
   18.46416664   76.03900146    0.52999997    2.67000008
   18.46750069   76.69290161    0.52999997    2.69000006
   18.47083473   78.26809692    0.52999997    2.67000008
   18.47389030   73.05190277    0.51999998    2.67000008
   18.47722244   73.76560211    0.52999997    2.67000008
   18.48055649   76.15989685    0.51999998    2.67000008
   18.48583412   76.15989685    0.51999998    2.67000008
   18.48999977   72.01499939    0.52999997    2.67000008
   18.49305534   70.11560059    0.52999997    2.67000008
   18.49416733   76.91130066    0.52999997    2.67000008
   18.49666786   76.97460175    0.52999997    2.67000008
   18.50000000   75.73829651    0.52999997    2.67000008
   18.50333405   72.40090179    0.52999997    2.67000008
   18.50638962   71.81430054    0.52999997    2.67000008
   18.50972176   73.28099823    0.55000001    2.67000008
   18.51305580   70.98560333    0.52999997    2.67000008
   18.51611137   71.38449860    0.52999997    2.67000008
   18.51944351   75.13549805    0.52999997    2.67000008
   18.52249908   74.86540222    0.55000001    2.67000008
   18.52861023   74.86540222    0.52999997    2.67000008
   18.53277779   71.41320038    0.52999997    2.69000006
   18.53610992   73.10299683    0.52999997    2.67000008
   18.53916550   69.29979706    0.52999997    2.67000008
   18.54249954   71.30200195    0.52999997    2.67000008
   18.54583359   73.45069885    0.52999997    2.67000008
   18.54888916   74.28669739    0.52999997    2.67000008
   18.55222130   71.83540344    0.52999997    2.67000008
   18.55555534   71.57289886    0.52999997    2.67000008
   18.55861092   67.50839996    0.51999998    2.67000008
   18.56083298   71.39309692    0.52999997    2.67000008
   18.56222153   69.73889923    0.52999997    2.67000008
   18.56555557   69.21119690    0.52999997    2.66000009
   18.57139015   69.21119690    0.52999997    2.67000008
   18.57555580   70.53250122    0.52999997    2.67000008
   18.57888985   71.62129974    0.52999997    2.66000009
   18.58194542   70.48120117    0.52999997    2.66000009
   18.58527756   70.46389771    0.55000001    2.66000009
   18.58861160   65.77149963    0.52999997    2.67000008
   18.59166718   66.26119995    0.52999997    2.67000008
   18.59416771   68.82689667    0.55000001    2.67000008
   18.59527779   69.44029999    0.55000001    2.67000008
   18.59861183   69.95189667    0.55000001    2.67000008
   18.60194397   64.29550171    0.55000001    2.66000009
   18.60499954   67.25250244    0.55000001    2.67000008
   18.60833359   67.12570190    0.55000001    2.67000008
   18.61416626   67.12570190    0.55000001    2.67000008
   18.61833382   67.82649994    0.55000001    2.67000008
   18.62166595   64.26329803    0.55000001    2.67000008
   18.62500000   65.12689972    0.55000001    2.66000009
   18.62750053   66.14720154    0.55000001    2.67000008
   18.62833405   66.16500092    0.55000001    2.67000008
   18.63166618   67.49189758    0.52999997    2.66000009
   18.63500023   66.18720245    0.52999997    2.67000008
   18.63805580   65.97540283    0.52999997    2.67000008
   18.64138794   63.76160049    0.52999997    2.67000008
   18.64472198   64.66349792    0.52999997    2.67000008
   18.64777756   66.89839935    0.52999997    2.66000009
   18.65111160   66.87680054    0.52999997    2.66000009
   18.65722275   66.87680054    0.52999997    2.66000009
   18.66138840   65.23259735    0.52999997    2.67000008
   18.66444397   67.84290314    0.55000001    2.66000009
   18.66777802   69.29830170    0.52999997    2.67000008
   18.67083359   66.84420013    0.52999997    2.66000009
   18.67416573   64.66950226    0.52999997    2.67000008
   18.67749977   67.78559875    0.52999997    2.66000009
   18.68055534   63.86360168    0.52999997    2.66000009
   18.68388748   64.54180145    0.52999997    2.66000009
   18.68722153   63.75559998    0.55000001    2.66000009
   18.69027710   64.02279663    0.55000001    2.66000009
   18.69361115   66.84929657    0.56999999    2.67000008
   18.69416618   67.97959900    0.56999999    2.67000008
   18.70000076   67.97959900    0.56999999    2.66000009
   18.70416832   66.44730377    0.56999999    2.67000008
   18.70722389   65.50659943    0.56999999    2.66000009
   18.71055603   66.56659698    0.58999997    2.66000009
   18.71389008   67.65290070    0.56999999    2.66000009
   18.71694565   64.55210114    0.58999997    2.66000009
   18.72027779   64.04419708    0.56999999    2.66000009
   18.72361183   69.18560028    0.56999999    2.66000009
   18.72666740   63.40050125    0.56999999    2.66000009
   18.72750092   63.11989975    0.56999999    2.66000009
   18.73055649   64.87100220    0.56999999    2.66000009
   18.73361206   64.63929749    0.56999999    2.66000009
   18.73694420   64.45559692    0.56999999    2.66000009
   18.74277878   64.45559692    0.56999999    2.66000009
   18.74694443   63.47010040    0.56999999    2.66000009
   18.75027847   64.20700073    0.56999999    2.66000009
   18.75333405   62.46300125    0.55000001    2.66000009
   18.75666618   63.43650055    0.55000001    2.66000009
   18.75972176   62.83679962    0.55000001    2.66000009
   18.76083374   62.86190033    0.55000001    2.66000009
   18.76361084   63.66019821    0.55000001    2.66000009
   18.76666641   65.05079651    0.56999999    2.66000009
   18.77000046   65.27020264    0.56999999    2.66000009
   18.77305603   63.06039810    0.56999999    2.66000009
   18.77638817   64.04519653    0.56999999    2.66000009
   18.77972221   67.03520203    0.56999999    2.66000009
   18.78555489   67.03520203    0.56999999    2.66000009
   18.78972244   62.85580063    0.56999999    2.66000009
   18.79305458   63.31290054    0.56999999    2.66000009
   18.79416656   62.40480042    0.58999997    2.66000009
   18.79638863   63.59059906    0.56999999    2.66000009
   18.79972076   62.90700150    0.56999999    2.66000009
   18.80305481   62.94639969    0.56999999    2.66000009
   18.80611038   64.62699890    0.56999999    2.66000009
   18.80944443   64.89669800    0.56999999    2.64000010
   18.81277657   62.36169815    0.56999999    2.66000009
   18.81583214   65.12139893    0.55000001    2.66000009
   18.81916809   64.51969910    0.56999999    2.64000010
   18.82250023   62.55770111    0.56999999    2.66000009
   18.82861137   62.55770111    0.56999999    2.64000010
   18.83277893   63.05490112    0.56999999    2.66000009
   18.83583450   62.91249847    0.56999999    2.64000010
   18.83916664   63.61240005    0.56999999    2.64000010
   18.84222221   63.89670181    0.58999997    2.66000009
   18.84555626   62.99300003    0.58999997    2.66000009
   18.84889030   64.62760162    0.58999997    2.64000010
   18.85194397   62.30210114    0.58999997    2.64000010
   18.85527802   67.38020325    0.58999997    2.64000010
   18.85861206   64.15850067    0.58999997    2.64000010
   18.86083412   63.17419815    0.58999997    2.66000009
   18.86222267   61.94150162    0.58999997    2.66000009
   18.86527824   64.12640381    0.58999997    2.64000010
   18.87138939   64.12640381    0.61000001    2.64000010
   18.87555504   63.12129974    0.63000000    2.64000010
   18.87861061   62.33840179    0.61000001    2.64000010
   18.88194466   63.22880173    0.63000000    2.64000010
   18.88527679   64.17520142    0.63000000    2.64000010
   18.88833237   63.00619888    0.64999998    2.64000010
   18.89166641   63.50899887    0.64999998    2.64000010
   18.89416695   62.76810074    0.67000002    2.64000010
   18.89527702   62.70349884    0.67000002    2.66000009
   18.89861107   63.53010178    0.69000000    2.64000010
   18.90194321   62.72769928    0.67000002    2.64000010
   18.90499878   61.60979843    0.69000000    2.64000010
   18.90833282   63.27360153    0.67000002    2.64000010
   18.91416550   63.27360153    0.69000000    2.64000010
   18.91833305   62.64039993    0.67000002    2.64000010
   18.92166519   63.64039993    0.67000002    2.64000010
   18.92472076   62.75469971    0.67000002    2.64000010
   18.92749977   62.71920013    0.67000002    2.64000010
   18.92860985   62.61679840    0.67000002    2.64000010
   18.93166542   62.50289917    0.67000002    2.64000010
   18.93499947   61.69419861    0.67000002    2.64000010
   18.93805504   64.06559753    0.67000002    2.64000010
   18.94138718   63.86709976    0.67000002    2.64000010
   18.94472122   62.65090179    0.67000002    2.64000010
   18.94777679   64.77919769    0.64999998    2.64000010
   18.95111275   63.83710098    0.67000002    2.64000010
   18.95694542   63.83710098    0.64999998    2.64000010
   18.96111107   62.69179916    0.64999998    2.64000010
   18.96444511   61.67910004    0.64999998    2.64000010
   18.96777916   62.09999847    0.64999998    2.64000010
   18.97083473   62.01839828    0.64999998    2.64000010
   18.97416687   63.99980164    0.64999998    2.61999989
   18.97750092   63.53250122    0.64999998    2.64000010
   18.98055649   63.33940125    0.64999998    2.64000010
   18.98388863   62.53269958    0.64999998    2.61999989
   18.98722267   61.94850159    0.64999998    2.64000010
   18.99027824   61.96400070    0.64999998    2.61999989
   18.99361229   63.46649933    0.64999998    2.61999989
   18.99416733   63.26470184    0.64999998    2.61999989
   19.00000000   63.26470184    0.64999998    2.61999989
   19.00416756   62.93740082    0.67000002    2.64000010
   19.00722313   61.53919983    0.67000002    2.64000010
   19.01055527   62.15530014    0.67000002    2.61999989
   19.01361084   61.73680115    0.67000002    2.64000010
   19.01694489   61.38970184    0.67000002    2.61999989
   19.02027702   61.90060043    0.67000002    2.61999989
   19.02333260   62.07889938    0.67000002    2.61999989
   19.02666664   61.84960175    0.67000002    2.61999989
   19.02750015   61.61140060    0.67000002    2.61999989
   19.03055573   61.10329819    0.69000000    2.61999989
   19.03361130   63.86270142    0.69000000    2.61999989
   19.03694344   61.65050125    0.69000000    2.61999989
   19.04277802   61.65050125    0.69000000    2.64000010
   19.04694366   61.21459961    0.69000000    2.64000010
   19.04999924   61.17570114    0.69000000    2.64000010
   19.05333328   61.13069916    0.69000000    2.61999989
   19.05666542   62.28960037    0.69000000    2.61999989
   19.05972099   62.48960114    0.69000000    2.61999989
   19.06083298   61.87889862    0.69000000    2.61999989
   19.06361008   61.25329971    0.69000000    2.61999989
   19.06666756   61.97679901    0.69000000    2.61999989
   19.07000160   61.60800171    0.70999998    2.61999989
   19.07305717   63.03639984    0.70999998    2.61999989
   19.07638931   60.86009979    0.70999998    2.64000010
   19.07972336   62.62519836    0.70999998    2.61999989
   19.08555603   62.62519836    0.70999998    2.64000010
   19.08972359   62.54740143    0.69000000    2.61999989
   19.09305573   62.35670090    0.67000002    2.61999989
   19.09416771   62.26219940    0.67000002    2.61999989
   19.09666824   62.53699875    0.69000000    2.61999989
   19.09972191   61.57809830    0.70999998    2.61999989
   19.10305595   63.62390137    0.70999998    2.61999989
   19.10611153   60.84460068    0.70999998    2.61999989
   19.10944557   62.19350052    0.70999998    2.61999989
   19.11277771   61.21459961    0.70999998    2.61999989
   19.11583328   61.72689819    0.70999998    2.61999989
   19.11916733   61.79159927    0.70999998    2.61999989
   19.12249947   61.86899948    0.70999998    2.61999989
   19.12833405   61.86899948    0.70999998    2.59999990
   19.13249969   60.40599823    0.70999998    2.61999989
   19.13583374   62.20429993    0.73000002    2.61999989
   19.13916588   61.57770157    0.73000002    2.61999989
   19.14222145   62.25780106    0.73000002    2.61999989
   19.14555550   62.93140030    0.75000000    2.59999990
   19.14861107   61.27310181    0.73000002    2.61999989
   19.15194321   61.55569839    0.73000002    2.61999989
   19.15527725   61.52809906    0.73000002    2.61999989
   19.15833282   61.87340164    0.75000000    2.61999989
   19.16083336   62.16550064    0.75000000    2.59999990
   19.16222191   63.60250092    0.75000000    2.59999990
   19.16527748   63.81439972    0.75000000    2.61999989
   19.17138863   63.81439972    0.75000000    2.61999989
   19.17527771   61.13410187    0.76999998    2.61999989
   19.17860985   61.70009995    0.76999998    2.59999990
   19.18194389   61.48730087    0.76999998    2.61999989
   19.18499947   61.34749985    0.76999998    2.61999989
   19.18833160   60.90570068    0.76999998    2.61999989
   19.19166565   60.25490189    0.76999998    2.61999989
   19.19416618   61.88290024    0.76999998    2.61999989
   19.19527626   61.58810043    0.76999998    2.61999989
   19.19833183   60.55680084    0.76999998    2.59999990
   19.20166779   61.30699921    0.76999998    2.59999990
   19.20499992   62.05429840    0.75000000    2.59999990
   19.20805550   61.38219833    0.75000000    2.59999990
   19.21416664   61.38219833    0.76999998    2.59999990
   19.21833420   62.14599991    0.76999998    2.59999990
   19.22138977   60.86159897    0.76999998    2.59999990
   19.22472191   61.74649811    0.79000002    2.59999990
   19.22750092   59.41180038    0.79000002    2.59999990
   19.22833443   60.93529892    0.79000002    2.59999990
   19.23139000   61.20560074    0.80000001    2.59999990
   19.23472214   60.69290161    0.80000001    2.59999990
   19.23777771   61.66320038    0.80000001    2.59999990
   19.24111176   60.55110168    0.80000001    2.57999992
   19.24444389   60.21960068    0.80000001    2.59999990
   19.24749947   61.07189941    0.80000001    2.59999990
   19.25083351   60.88970184    0.80000001    2.59999990
   19.25694466   60.88970184    0.79000002    2.59999990
   19.26111031   59.99829865    0.79000002    2.59999990
   19.26444435   62.00210190    0.79000002    2.59999990
   19.26749992   61.76589966    0.80000001    2.59999990
   19.27083397   60.84980011    0.80000001    2.57999992
   19.27416611   60.97610092    0.80000001    2.59999990
   19.27722168   61.33840179    0.80000001    2.59999990
   19.28055573   61.94440079    0.80000001    2.59999990
   19.28361130   61.32419968    0.80000001    2.57999992
   19.28694344   62.67200089    0.81999999    2.59999990
   19.29027748   61.69929886    0.83999997    2.59999990
   19.29333305   63.43339920    0.86000001    2.57999992
   19.29416656   62.39680099    0.86000001    2.57999992
   19.29972076   62.39680099    0.86000001    2.59999990
   19.30388832   62.74800110    0.88000000    2.57999992
   19.30722237   60.85319901    0.86000001    2.57999992
   19.31055450   62.11050034    0.86000001    2.57999992
   19.31361008   62.07429886    0.86000001    2.59999990
   19.31694603   62.33670044    0.83999997    2.57999992
   19.32027817   62.54059982    0.86000001    2.59999990
   19.32333374   62.78710175    0.83999997    2.59999990
   19.32666779   62.29109955    0.83999997    2.59999990
   19.32750130   60.76250076    0.81999999    2.59999990
   19.33027840   62.92929840    0.81999999    2.59999990
   19.33333397   61.28710175    0.83999997    2.57999992
   19.33666801   61.18460083    0.83999997    2.57999992
   19.34277916   61.18460083    0.86000001    2.57999992
   19.34666824   60.65309906    0.86000001    2.57999992
   19.35000038   61.71929932    0.86000001    2.57999992
   19.35333443   60.81140137    0.89999998    2.57999992
   19.35639000   61.55030060    0.92000002    2.57999992
   19.35972214   61.32730103    0.94000000    2.57999992
   19.36083412   61.43629837    0.94000000    2.57999992
   19.36333466   61.79830170    0.94000000    2.57999992
   19.36666679   61.80820084    0.95999998    2.59999990
   19.36972237   63.50310135    0.95999998    2.59999990
   19.37305641   64.56089783    0.95999998    2.57999992
   19.37611198   62.67490005    0.95999998    2.57999992
   19.37944412   63.16920090    0.95999998    2.57999992
   19.38555527   63.16920090    0.98000002    2.57999992
   19.38972282   61.58530045    0.95999998    2.57999992
   19.39277840   61.06549835    0.95999998    2.55999994
   19.39416695   61.85469818    0.95999998    2.55999994
   19.39666748   61.81510162    0.95999998    2.57999992
   19.39972115   61.99520111    0.98000002    2.55999994
   19.40305519   61.03219986    0.95999998    2.57999992
   19.40638924   62.27460098    0.95999998    2.57999992
   19.40944481   62.83010101    0.95999998    2.57999992
   19.41277695   62.76480103    0.98000002    2.57999992
   19.41583252   62.11370087    0.98000002    2.57999992
   19.41916656   63.76499939    0.98000002    2.55999994
   19.42249870   61.92380142    0.98000002    2.55999994
   19.42833328   61.92380142    1.00000000    2.55999994
   19.43249893   61.85020065    1.01999998    2.55999994
   19.43583298   61.61040115    1.03999996    2.55999994
   19.43888855   62.65489960    1.03999996    2.55999994
   19.44222069   62.48460007    1.05999994    2.55999994
   19.44555473   62.35260010    1.05999994    2.55999994
   19.44861031   61.97460175    1.05999994    2.55999994
   19.45194435   61.31969833    1.05999994    2.55999994
   19.45499992   62.47869873    1.05999994    2.55999994
   19.45833397   62.97809982    1.05999994    2.55999994
   19.46083450   62.88700104    1.03999996    2.55999994
   19.48139000   62.88700104    1.00000000    2.55999994
   19.48555565   60.01119995    1.00000000    2.55999994
   19.48888969   60.39519882    1.00000000    2.55999994
   19.49222183   61.11920166    1.00000000    2.55999994
   19.49416733   61.86009979    1.00000000    2.55999994
   19.49583435   61.11130142    1.00000000    2.55999994
   19.49916649   61.28829956    0.98000002    2.55999994
   19.50250053   63.56829834    0.98000002    2.55999994
   19.50583267   60.04880142    0.98000002    2.55999994
   19.50888824   60.66930008    1.00000000    2.55999994
   19.51222229   61.19639969    1.00000000    2.55999994
   19.51555634   60.11740112    1.00000000    2.55999994
   19.51888847   60.42760086    1.00000000    2.55999994
   19.52416611   60.42760086    1.00000000    2.53999996
   19.52833366   60.53910065    0.98000002    2.55999994
   19.53166580   60.20840073    0.98000002    2.53999996
   19.53499985   59.56230164    0.98000002    2.53999996
   19.53805542   60.26060104    0.98000002    2.55999994
   19.54138756   60.43019867    0.98000002    2.53999996
   19.54444313   59.90510178    0.98000002    2.53999996
   19.54777718   60.63199997    0.98000002    2.53999996
   19.55111122   59.80009842    1.00000000    2.53999996
   19.55416679   60.82559967    1.01999998    2.53999996
   19.55749893   59.60189819    1.03999996    2.55999994
   19.56083298   60.56219864    1.03999996    2.53999996
   19.56110954   59.42380142    1.03999996    2.53999996
   19.56722260   59.42380142    1.03999996    2.55999994
   19.57111168   61.67110062    1.03999996    2.53999996
   19.57444572   61.13510132    1.03999996    2.53999996
   19.57777786   60.69639969    1.03999996    2.53999996
   19.58083344   60.84609985    1.03999996    2.53999996
   19.58416748   59.71760178    1.05999994    2.53999996
   19.58750153   61.06399918    1.05999994    2.53999996
   19.59055710   61.21289825    1.05999994    2.53999996
   19.59388924   61.76210022    1.05999994    2.53999996
   19.59444427   61.27450180    1.05999994    2.53999996
   19.59749985   59.46530151    1.05999994    2.53999996
   19.60083389   56.88550186    1.07000005    2.53999996
   19.60388947   56.22090149    1.07000005    2.53999996
   19.61000061   56.22090149    1.07000005    2.53999996
   19.61416626   50.03390121    1.09000003    2.51999998
   19.61722183   49.99629974    1.07000005    2.51999998
   19.62055588   51.48659897    1.07000005    2.51999998
   19.62388992   54.18320084    1.09000003    2.51999998
   19.62694550   56.59149933    1.07000005    2.53999996
   19.62777710   58.69509888    1.07000005    2.53999996
   19.63055611   70.55729675    1.07000005    2.51999998
   19.63388824  135.41200256    1.05999994    2.51999998
   19.63694382   -1.00000000    1.05999994    2.51999998
   19.64027786   -1.00000000    1.07000005    2.51999998
   19.64361191   -1.00000000    1.07000005    2.51999998
   19.64666748   -1.00000000    1.09000003    2.51999998
   19.65694427   -1.00000000    1.09000003    2.51999998
   19.65999985   -1.00000000    1.11000001    2.51999998
   19.66361046   -1.00000000    1.13000000    2.51999998
   19.66666603   -1.00000000    1.14999998    2.51999998
   19.67000008   -1.00000000    1.16999996    2.50000000
   19.67333221   -1.00000000    1.19000006    2.51999998
   19.67638779   -1.00000000    1.16999996    2.51999998
   19.67972183   -1.00000000    1.16999996    2.51999998
   19.68277740   -1.00000000    1.16999996    2.51999998
   19.68610954   -1.00000000    1.16999996    2.51999998
   19.68944359   -1.00000000    1.16999996    2.51999998
   19.69972038   -1.00000000    1.19000006    2.50000000
   19.70277786   -1.00000000    1.19000006    2.51999998
   19.70611191   -1.00000000    1.19000006    2.50000000
   19.70944595   -1.00000000    1.19000006    2.50000000
   19.71250153   -1.00000000    1.19000006    2.50000000
   19.71583366   -1.00000000    1.19000006    2.50000000
   19.71916771   -1.00000000    1.16999996    2.50000000
   19.72222328   -1.00000000    1.16999996    2.50000000
   19.72555542   -1.00000000    1.14999998    2.51999998
   19.72916794   -1.00000000    1.14999998    2.50000000
   19.73222351   -1.00000000    1.13000000    2.50000000
   19.74250031   -1.00000000    1.14999998    2.50000000
   19.74583435   -1.00000000    1.13000000    2.50000000
   19.74888992   -1.00000000    1.14999998    2.50000000
   19.75222206   -1.00000000    1.14999998    2.50000000
   19.75555611   -1.00000000    1.13000000    2.50000000
   19.75861168   -1.00000000    1.14999998    2.50000000
   19.76222229   -1.00000000    1.13000000    2.50000000
   19.76527786   -1.00000000    1.14999998    2.50000000
   19.76861000   -1.00000000    1.14999998    2.50000000
   19.77194405   -1.00000000    1.14999998    2.50000000
   19.77499962   -1.00000000    1.14999998    2.50000000
   19.78527641   -1.00000000    1.16999996    2.50000000
   19.78861046   -1.00000000    1.16999996    2.50000000
   19.79194450   -1.00000000    1.16999996    2.50000000
   19.79555511   -1.00000000    1.16999996    2.50000000
   19.79861069   -1.00000000    1.16999996    2.48000002
   19.80194283   -1.00000000    1.16999996    2.48000002
   19.80527687   -1.00000000    1.16999996    2.48000002
   19.80833244   -1.00000000    1.16999996    2.48000002
   19.81166649   -1.00000000    1.16999996    2.48000002
   19.81472206   -1.00000000    1.16999996    2.48000002
   19.81805611   -1.00000000    1.16999996    2.48000002
   19.82833481   -1.00000000    1.19000006    2.48000002
   19.83139038   -1.00000000    1.19000006    2.48000002
   19.83472252   -1.00000000    1.16999996    2.48000002
   19.83777809   -1.00000000    1.16999996    2.48000002
   19.84111214   -1.00000000    1.16999996    2.48000002
   19.84444427   -1.00000000    1.16999996    2.48000002
   19.84749985   -1.00000000    1.14999998    2.48000002
   19.85083389   -1.00000000    1.16999996    2.48000002
   19.85416794   -1.00000000    1.16999996    2.48000002
   19.85722351   -1.00000000    1.19000006    2.48000002
   19.86055565   -1.00000000    1.19000006    2.48000002
   19.87111092   -1.00000000    1.25000000    2.48000002
   19.87416649   -1.00000000    1.25000000    2.46000004
   19.87750053   -1.00000000    1.25000000    2.48000002
   19.88083267   -1.00000000    1.25000000    2.48000002
   19.88388824   -1.00000000    1.23000002    2.46000004
   19.88722229   -1.00000000    1.23000002    2.48000002
   19.89055634   -1.00000000    1.25000000    2.48000002
   19.89361191   -1.00000000    1.23000002    2.46000004
   19.89722252   -1.00000000    1.23000002    2.46000004
   19.90055466   -1.00000000    1.25000000    2.46000004
   19.90361023   -1.00000000    1.25000000    2.46000004
   19.91388893   -1.00000000    1.25000000    2.46000004
   19.91722107   -1.00000000    1.25000000    2.46000004
   19.92027664   -1.00000000    1.26999998    2.46000004
   19.92361069   -1.00000000    1.26999998    2.44000006
   19.92694473   -1.00000000    1.28999996    2.46000004
   19.93027687   -1.00000000    1.28999996    2.46000004
   19.93333244   -1.00000000    1.28999996    2.46000004
   19.93666649   -1.00000000    1.30999994    2.46000004
   19.93999863   -1.00000000    1.30999994    2.46000004
   19.94305420   -1.00000000    1.33000004    2.46000004
   19.94638824   -1.00000000    1.33000004    2.46000004
   19.95666695   -1.00000000    1.33000004    2.44000006
   19.96000099   -1.00000000    1.34000003    2.44000006
   19.96361160   -1.00000000    1.34000003    2.44000006
   19.96666718   -1.00000000    1.36000001    2.44000006
