    HOUR (UT)   FLARE FACTOR    SKY TESTER    SUN TESTER
   12.10000038   -1.00000000   -1.00000000   -1.00000000
   12.12027836  273.04199219    1.39999998    1.86000001
   12.12472248  276.12500000    1.39999998    1.86000001
   12.12888908  292.36898804    1.39999998    1.86000001
   12.13194466  264.28298950    1.39999998    1.86000001
   12.13527775  302.85299683    1.39999998    1.88000000
   12.13833332  268.95700073    1.41999996    1.88000000
   12.14166641  316.25601196    1.41999996    1.88000000
   12.14499950  301.51501465    1.39999998    1.88000000
   12.14805508  311.75100708    1.39999998    1.89999998
   12.15138817  315.31698608    1.38000000    1.88000000
   12.15305519  250.17599487    1.38000000    1.88000000
   12.15527725  299.34100342    1.38000000    1.88000000
   12.15861034  251.37699890    1.39999998    1.89999998
   12.16166592  276.37899780    1.38000000    1.89999998
   12.16499996  294.18099976    1.38000000    1.89999998
   12.16833401  262.37399292    1.38000000    1.89999998
   12.17138958  241.07400513    1.38000000    1.89999998
   12.17472267  201.24600220    1.36000001    1.91999996
   12.17777824  266.47900391    1.36000001    1.91999996
   12.18111134  259.38299561    1.36000001    1.94000006
   12.18444443  272.19000244    1.36000001    1.94000006
   12.18638897  244.19799805    1.36000001    1.91999996
   12.18805599  281.46200562    1.36000001    1.91999996
   12.19111156  260.65701294    1.34000003    1.91999996
   12.19444466  310.14401245    1.34000003    1.94000006
   12.19750023  299.37399292    1.34000003    1.94000006
   12.20083332  267.77499390    1.34000003    1.94000006
   12.20416641  288.49099731    1.34000003    1.94000006
   12.20722198  258.00799561    1.33000004    1.96000004
   12.21055508  268.76901245    1.33000004    1.96000004
   12.21388912  301.80700684    1.33000004    1.96000004
   12.21694374  271.21200562    1.33000004    1.96000004
   12.21972179  201.52999878    1.33000004    1.96000004
   12.22055531  220.64500427    1.33000004    1.96000004
   12.22416592  244.46400452    1.33000004    1.98000002
   12.22749996  199.97700500    1.33000004    1.98000002
   12.23055553  219.77099609    1.33000004    2.00000000
   12.23388958  216.51899719    1.33000004    2.00000000
   12.23722267  225.19099426    1.33000004    1.98000002
   12.24027824  222.49899292    1.33000004    1.98000002
   12.24361134  217.36900330    1.33000004    1.98000002
   12.24694443  207.11099243    1.33000004    1.98000002
   12.25000000  212.33900452    1.33000004    2.00000000
   12.25305557  226.73399353    1.33000004    2.00000000
   12.25388908  197.02799988    1.33000004    2.00000000
   12.25694466  218.07699585    1.30999994    2.00000000
   12.26027775  234.92999268    1.33000004    2.00000000
   12.26333332  239.13699341    1.30999994    2.00000000
   12.26666641  244.22500610    1.33000004    2.01999998
   12.26999950  216.11999512    1.33000004    2.01999998
   12.27305508  224.20100403    1.33000004    2.01999998
   12.27638817  204.25999451    1.33000004    2.00000000
   12.27944374  197.05000305    1.33000004    2.01999998
   12.28277779  191.14900208    1.33000004    2.01999998
   12.28611183  229.43600464    1.33000004    2.01999998
   12.28666687  216.53199768    1.33000004    2.01999998
   12.29000092  214.64900208    1.33000004    2.01999998
   12.29305553  215.01899719    1.33000004    2.01999998
   12.29638958  238.35800171    1.33000004    2.01999998
   12.29944515  198.34599304    1.30999994    2.03999996
   12.30277824  200.17199707    1.30999994    2.01999998
   12.30611134  240.65100098    1.30999994    2.03999996
   12.30916691  220.16900635    1.33000004    2.03999996
   12.31250000  235.64199829    1.33000004    2.03999996
   12.31583309  210.48500061    1.34000003    2.05999994
   12.31888866  214.46600342    1.41999996    2.05999994
   12.31999969  211.70399475    1.41999996    2.05999994
   12.32277775  232.73699951    1.41999996    2.05999994
   12.32583332  202.65499878    1.41999996    2.05999994
   12.32916641  215.52299500    1.44000006    2.05999994
   12.33222198  217.70500183    1.46000004    2.05999994
   12.33555508  248.47099304    1.48000002    2.05999994
   12.33888817  214.56399536    1.55999994    2.03999996
   12.34194374  207.42300415    1.64999998    2.05999994
   12.34527779  214.03900146    1.80999994    2.05999994
   12.34861088  228.68200684    1.88000000    2.05999994
   12.35166740  242.82600403    1.96000004    2.05999994
   12.35333347  198.72900391    2.23000002    2.07999992
   12.35555553  204.10299683    2.25000000    2.07999992
   12.35861111  193.51699829    2.21000004    2.07999992
   12.36194515  197.47200012    2.05999994    2.07999992
   12.36500072  186.03999329    1.96000004    2.09999990
   12.36833382  188.42100525    1.83000004    2.07999992
   12.37166691  191.65199280    1.64999998    2.09999990
   12.37472248  204.74800110    1.60000002    2.09999990
   12.37805557  181.99899292    1.58000004    2.09999990
   12.38138866  194.41600037    1.48000002    2.09999990
   12.38444424  208.49800110    1.34000003    2.09999990
   12.38666630  211.45500183    1.30999994    2.09999990
   12.38833332  193.51899719    1.28999996    2.09999990
   12.39138889  187.95199585    1.25000000    2.11999989
   12.39472198  217.51899719    1.25000000    2.11999989
   12.39777756  237.64999390    1.23000002    2.09999990
   12.40111065  191.86199951    1.23000002    2.11999989
   12.40444374  174.09899902    1.19000006    2.11999989
   12.40749931  182.04100037    1.16999996    2.11999989
   12.41083336  184.44799805    1.16999996    2.11999989
   12.41416645  193.32299805    1.16999996    2.11999989
   12.41722298  205.47000122    1.16999996    2.11999989
   12.42000008  202.30099487    1.14999998    2.13000011
   12.42111111  191.72099304    1.14999998    2.13000011
   12.42416668  198.81599426    1.14999998    2.13000011
   12.42750072  196.45199585    1.14999998    2.11999989
   12.43055630  203.37800598    1.13000000    2.13000011
   12.43388939  180.90100098    1.13000000    2.15000010
   12.43722248  188.12500000    1.11000001    2.13000011
   12.44027805  179.18899536    1.11000001    2.13000011
   12.44361115  196.46099854    1.13000000    2.13000011
   12.44694424  183.33299255    1.11000001    2.13000011
   12.44999981  178.48199463    1.11000001    2.13000011
   12.45333290  195.91799927    1.11000001    2.13000011
   12.45388889  189.05499268    1.11000001    2.15000010
   12.45694447  185.51899719    1.09000003    2.15000010
   12.46027756  172.86799622    1.09000003    2.15000010
   12.46333313  175.94099426    1.09000003    2.15000010
   12.46666622  171.27799988    1.09000003    2.15000010
   12.46999931  194.04400635    1.09000003    2.15000010
   12.47305489  181.89399719    1.09000003    2.15000010
   12.47638798  184.47900391    1.09000003    2.15000010
   12.47972202  159.80499268    1.09000003    2.17000008
   12.48277760  149.87100220    1.11000001    2.17000008
   12.48611164  171.46099854    1.11000001    2.17000008
   12.48666668  180.08999634    1.11000001    2.17000008
   12.48972225  175.45399475    1.13000000    2.17000008
   12.49277782  171.37100220    1.14999998    2.17000008
   12.49611092  185.18699646    1.14999998    2.17000008
   12.49944496  183.36000061    1.19000006    2.19000006
   12.50249958  184.62399292    1.19000006    2.19000006
   12.50583363  173.19900513    1.19000006    2.19000006
   12.50888920  194.14100647    1.21000004    2.17000008
   12.51222229  199.83900452    1.26999998    2.19000006
   12.51555538  172.79100037    1.33000004    2.19000006
   12.51861095  163.07299805    1.36000001    2.19000006
   12.51999950  178.88699341    1.36000001    2.19000006
   12.52250004  180.60099792    1.41999996    2.19000006
   12.52583313  192.70199585    1.41999996    2.19000006
   12.52888870  189.29499817    1.41999996    2.21000004
   12.53222179  184.28300476    1.41999996    2.21000004
   12.53555584  172.74000549    1.39999998    2.19000006
   12.53861141  176.21400452    1.30999994    2.21000004
   12.54194450  172.42999268    1.28999996    2.21000004
   12.54500008  181.40800476    1.26999998    2.21000004
   12.54833412  162.54699707    1.26999998    2.21000004
   12.55166721  162.57200623    1.28999996    2.21000004
   12.55333328  169.03799438    1.28999996    2.19000006
   12.55527782  170.02400208    1.30999994    2.21000004
   12.55833340  173.49400330    1.34000003    2.19000006
   12.56166649  168.11399841    1.38000000    2.21000004
   12.56472206  188.60299683    1.44000006    2.21000004
   12.56805515  173.46400452    1.48000002    2.21000004
   12.57138920  181.24600220    1.48000002    2.21000004
   12.57444477  172.43400574    1.64999998    2.21000004
   12.57777786  171.89399719    1.69000006    2.23000002
   12.58111095  157.66700745    2.13000011    2.21000004
   12.58416653  184.06300354    2.23000002    2.21000004
   12.58666611  167.88499451    2.34999990    2.19000006
   12.58805561  165.34899902    2.40000010    2.19000006
   12.59111118  158.68600464    2.57999992    2.21000004
   12.59444427  159.07000732    2.91000009    2.21000004
   12.59777737  174.92100525    3.16000009    2.19000006
   12.60083389  245.56799316    3.34999990    2.11999989
   12.60416698  197.69200134    3.53999996    2.05999994
   12.60722256  216.22799683    3.72000003    2.05999994
   12.61055565  314.90798950    3.84999990    2.00000000
   12.61388969  210.02499390    4.01999998    2.00000000
   12.61694431  161.04400635    4.11999989    2.01999998
   12.61999989  156.92599487    4.26000023    2.03999996
   12.62083340  137.87300110    4.26000023    2.03999996
   12.62388897  141.67500305    4.69999981    2.07999992
   12.62722206  158.19000244    4.90999985    2.19000006
   12.63027763  175.91499329    4.90999985    2.26999998
   12.63361073  171.87399292    4.90999985    2.28999996
   12.63694477  176.25100708    4.90999985    2.28999996
   12.64000034  160.74899292    4.90999985    2.28999996
   12.64333344  180.90499878    4.90999985    2.28999996
   12.64666653  191.61500549    4.90999985    2.30999994
   12.64972210  189.66400146    4.90999985    2.30999994
   12.65305519  188.28900146    4.90999985    2.28999996
   12.65361118  199.88499451    4.90999985    2.26999998
   12.65666676  175.45399475    4.90999985    2.26999998
   12.65999985  184.97799683    4.90999985    2.26999998
   12.66333294  176.01400757    4.90999985    2.25000000
   12.66638851  168.38099670    4.90999985    2.25000000
   12.66972256  197.58700562    4.90999985    2.26999998
   12.67305565  169.49600220    4.90999985    2.25000000
   12.67611122  173.96400452    4.90999985    2.26999998
   12.67944431  167.08900452    4.90999985    2.25000000
   12.68249989  183.11500549    4.90999985    2.26999998
   12.68583298  196.11000061    4.90999985    2.25000000
   12.68694496  190.35499573    4.90999985    2.26999998
   12.68944454  198.69299316    4.90999985    2.26999998
   12.69277763  191.08799744    4.90999985    2.28999996
   12.69611073  190.06100464    4.90999985    2.28999996
   12.69916630  170.04200745    4.90999985    2.32999992
   12.70249939  171.94900513    4.90999985    2.32999992
   12.70583344  174.96499634    4.90999985    2.34999990
   12.70888901  176.17300415    4.90999985    2.34999990
   12.71222210  171.45300293    4.90999985    2.36999989
   12.71527767  172.13999939    4.90999985    2.36999989
   12.71861076  173.33099365    4.90999985    2.36999989
   12.72027779  169.11099243    4.90999985    2.39000010
   12.72222137  157.90199280    4.90999985    2.39000010
   12.72555542  166.46600342    4.90999985    2.39000010
   12.72888851  161.50500488    4.90999985    2.40000010
   12.73194408  155.58099365    4.90999985    2.39000010
   12.73527813  160.34800720    4.90999985    2.39000010
   12.73861122  170.57699585    4.90999985    2.39000010
   12.74166679  162.84899902    4.90999985    2.40000010
   12.74499989  188.03599548    4.90999985    2.39000010
   12.74805546  157.47999573    4.90999985    2.39000010
   12.75138855  153.59500122    4.90999985    2.36999989
   12.75361156  155.76800537    4.90999985    2.36999989
   12.75500011  175.94299316    4.90999985    2.36999989
   12.75833321  177.61799622    4.90999985    2.34999990
   12.76166630  179.73300171    4.90999985    2.36999989
   12.76472187  149.42100525    4.90999985    2.34999990
   12.76805496  159.60699463    4.90999985    2.32999992
   12.77138901  148.38099670    4.90999985    2.32999992
   12.77444458  160.25599670    4.90999985    2.32999992
   12.77777767  163.10499573    4.90999985    2.34999990
   12.78083324  164.32000732    4.90999985    2.34999990
   12.78416729  166.99499512    4.90999985    2.36999989
   12.78694534  176.18200684    4.90999985    2.36999989
   12.78777790  176.06900024    4.90999985    2.36999989
   12.79111195  161.75799561    4.90999985    2.40000010
   12.79444504  170.13699341    4.90999985    2.40000010
   12.79750061  173.65499878    4.90999985    2.42000008
   12.80083370  171.69900513    4.90999985    2.44000006
   12.80416679  159.26300049    4.90999985    2.44000006
   12.80722237  165.54800415    4.90999985    2.46000004
   12.81055546  169.88099670    4.90999985    2.46000004
   12.81361103  166.16700745    4.90999985    2.46000004
   12.81694412  167.36399841    4.90999985    2.48000002
   12.82027817  162.34700012    4.90999985    2.48000002
   12.82055569  158.55200195    4.90999985    2.48000002
   12.82388878  168.33299255    4.90999985    2.48000002
   12.82722187  169.53599548    4.86999989    2.50000000
   12.83027744  182.24099731    3.66000009    2.50000000
   12.83361053  179.63099670    2.86999989    2.50000000
   12.83694458  169.50999451    2.23000002    2.50000000
   12.84000015  166.25100708    0.44000000    2.32999992
   12.84333324  173.83799744    0.44000000    2.28999996
   12.84638882  173.20599365    0.44000000    2.28999996
   12.84972191  181.28399658    0.41999999    2.28999996
   12.85305595  179.22599792    0.41999999    2.26999998
   12.85361195  181.26800537    0.41999999    2.19000006
   12.85638905  165.28399658    0.41999999    2.17000008
   12.85972214  176.11500549    0.41999999    2.17000008
   12.86305618  177.57099915    0.40000001    2.09999990
   12.86611176  178.75199890    0.40000001    2.00000000
   12.86944485  178.19200134    0.38000000    1.86000001
   12.87277794  172.30700684    0.38000000    1.73000002
   12.87583351  170.92900085    0.36000001    1.61000001
   12.87916660  165.72099304    0.36000001    1.53999996
   12.88249969  170.64599609    0.38000000    1.51999998
   12.88555527  165.76800537    0.36000001    1.39999998
   12.88694477  168.74800110    0.36000001    1.36000001
   12.88916683  172.44700623    0.36000001    1.23000002
   12.89249992  173.73300171    0.36000001    1.09000003
   12.89583302  164.63800049    0.34000000    0.94000000
   12.89888859  166.18200684    0.34000000    0.81999999
   12.90222168  159.39599609    0.34000000    0.75000000
   12.90555477  157.22999573    0.34000000    0.67000002
   12.90861034  153.43699646    0.34000000    0.63000000
   12.91194439  168.17799377    0.31999999    0.58999997
   12.91499996  167.02799988    0.31999999    0.56999999
   12.91833401  158.06500244    0.31999999    0.56999999
   12.92027855  153.54299927    0.31999999    0.58999997
   12.92194462  166.41000366    0.30000001    0.58999997
   12.92527771  178.92900085    0.30000001    0.61000001
   12.92861176  154.25199890    0.30000001    0.64999998
   12.93166733  172.92100525    0.30000001    0.67000002
   12.93500042  156.71200562    0.30000001    0.69000000
   12.93833351  167.61900330    0.30000001    0.70999998
   12.94138908  150.43600464    0.28000000    0.70999998
   12.94472218  159.98300171    0.28000000    0.73000002
   12.94777775  166.63200378    0.30000001    0.73000002
   12.95111084  165.71099854    0.28000000    0.73000002
   12.95361137  174.22500610    0.28000000    0.73000002
   12.95499992  168.11999512    0.28000000    0.73000002
   12.95805550  175.79699707    0.28000000    0.75000000
   12.96138859  157.84100342    0.28000000    0.73000002
   12.96444416  168.95399475    0.25999999    0.73000002
   12.96777725  172.15400696    0.25999999    0.73000002
   12.97111034  164.72799683    0.25999999    0.73000002
   12.97416592  169.37399292    0.25999999    0.70999998
   12.97749996  171.56599426    0.25999999    0.70999998
   12.98083305  167.86099243    0.25999999    0.70999998
   12.98388958  155.47799683    0.25999999    0.70999998
   12.98694515  158.30599976    0.25999999    0.70999998
   12.98777771  148.03900146    0.25999999    0.70999998
   12.99083328  150.75999451    0.25999999    0.70999998
   12.99416733  173.25300598    0.25999999    0.70999998
   12.99722290  163.44799805    0.25999999    0.70999998
   13.00055599  163.58500671    0.25999999    0.70999998
   13.00388908  168.38200378    0.28000000    0.70999998
   13.00694466  171.47399902    0.31999999    0.69000000
   13.01027775  162.92300415    0.36000001    0.69000000
   13.01333332  160.62300110    0.40000001    0.70999998
   13.01666641  154.62899780    0.41999999    0.69000000
   13.01999950  160.60299683    0.44000000    0.69000000
   13.02055550  153.42999268    0.44000000    0.69000000
   13.02361107  175.06399536    0.44000000    0.69000000
   13.02694416  173.27900696    0.46000001    0.69000000
   13.03027725  163.84800720    0.47999999    0.69000000
   13.03333378  156.19200134    0.47999999    0.69000000
   13.03666687  163.64700317    0.47999999    0.69000000
   13.03972244  165.65899658    0.50000000    0.69000000
   13.04305553  163.27600098    0.51999998    0.67000002
   13.04638958  160.35299683    0.51999998    0.67000002
   13.04944515  163.75500488    0.50000000    0.67000002
   13.05277824  176.66799927    0.47999999    0.64999998
   13.05388927  178.29499817    0.47999999    0.64999998
   13.05638885  169.75700378    0.46000001    0.64999998
   13.05972195  166.13499451    0.44000000    0.63000000
   13.06305599  159.72500610    0.41999999    0.63000000
   13.06611156  169.93600464    0.41999999    0.63000000
   13.06944466  180.09899902    0.40000001    0.63000000
   13.07250023  174.83799744    0.40000001    0.61000001
   13.07583332  177.44299316    0.40000001    0.61000001
   13.07916641  168.02099609    0.40000001    0.61000001
   13.08222198  170.81399536    0.41999999    0.61000001
   13.08555508  169.58599854    0.41999999    0.58999997
   13.08722210  164.81700134    0.41999999    0.58999997
   13.08916664  169.24699402    0.41999999    0.56999999
   13.09249973  175.64500427    0.40000001    0.56999999
   13.09583282  175.52499390    0.40000001    0.56999999
   13.09888840  181.05799866    0.38000000    0.56999999
   13.10222244  181.59399414    0.38000000    0.55000001
   13.10527802  170.70100403    0.38000000    0.47999999
   13.10861111  176.87300110    4.90999985    2.50000000
   13.11194515  179.09100342    1.63000000    2.44000006
   13.11500072  167.27699280    1.13000000    2.44000006
   13.11833382  170.38499451    0.94000000    2.44000006
   13.13638878  174.96499634    0.79000002    2.46000004
   13.13833332  175.06399536    0.79000002    2.46000004
   13.14138889  162.25999451    0.86000001    2.46000004
   13.14472198  164.67799377    0.98000002    2.48000002
   13.14805508  166.30799866    1.05999994    2.46000004
   13.15111065  176.68800354    0.86000001    2.46000004
   13.15444374  176.21800232    0.95999998    2.46000004
   13.15749931  179.82099915    1.13000000    2.46000004
   13.16083336  173.01100159    1.61000001    2.46000004
   13.16416645  169.60000610    1.69000006    2.46000004
   13.16722298  175.07299805    1.63000000    2.46000004
   13.16972256  180.48800659    1.25000000    2.46000004
   13.17083359  177.09399414    1.25000000    2.46000004
   13.17416668  174.24200439    0.98000002    2.48000002
   13.17750072  186.77999878    0.95999998    2.46000004
   13.18055630  170.91099548    0.94000000    2.48000002
   13.18388939  174.21000671    0.83999997    2.46000004
   13.18694496  171.96099854    0.86000001    2.46000004
   13.19027805  157.63800049    0.86000001    2.46000004
   13.19361115  167.31300354    0.86000001    2.46000004
   13.19666672  163.32400513    0.86000001    2.46000004
   13.19999981  165.67100525    0.94000000    2.48000002
   13.20305538  177.68899536    0.92000002    2.48000002
   13.20361137  172.26400757    0.92000002    2.46000004
   13.20694447  173.61900330    0.89999998    2.48000002
   13.21027756  163.96800232    0.86000001    2.48000002
   13.21333313  174.38800049    0.86000001    2.48000002
   13.21666622  166.91700745    0.88000000    2.48000002
   13.21999931  172.23199463    0.98000002    2.46000004
   13.22305489  158.53199768    1.11000001    2.48000002
   13.22638798  172.44099426    1.16999996    2.46000004
   13.22944355  160.48699951    1.14999998    2.48000002
   13.23277760  170.38200378    1.13000000    2.48000002
   13.23611164  168.36700439    1.07000005    2.46000004
   13.23666668  163.74299622    1.09000003    2.48000002
   13.23972225  156.79400635    1.07000005    2.46000004
   13.24305534  174.59399414    1.07000005    2.46000004
   13.24611092  165.60200500    1.03999996    2.48000002
   13.24944496  171.81700134    0.89999998    2.48000002
   13.25277805  165.49600220    0.81999999    2.48000002
   13.25583363  172.09199524    0.80000001    2.48000002
   13.25916672  177.22900391    0.76999998    2.48000002
   13.26249981  176.38999939    0.75000000    2.48000002
   13.26555538  175.30299377    0.75000000    2.48000002
   13.26888847  172.87300110    0.75000000    2.48000002
   13.26999950  175.75399780    0.75000000    2.48000002
   13.27250004  173.94999695    0.73000002    2.48000002
   13.27583313  179.80000305    0.69000000    2.50000000
   13.27916622  161.70399475    0.69000000    2.50000000
   13.28222179  172.94500732    0.69000000    2.50000000
   13.28555584  157.69200134    0.69000000    2.50000000
   13.28861141  165.30099487    0.73000002    2.50000000
   13.29194450  163.19700623    0.75000000    2.50000000
   13.29527855  180.00100708    0.80000001    2.50000000
   13.29833412  172.92300415    0.81999999    2.50000000
   13.30166721  165.11999512    0.89999998    2.50000000
   13.30333328  177.73599243    0.94000000    2.50000000
   13.30555534  170.04200745    1.00000000    2.50000000
   13.30861092  182.65299988    0.98000002    2.50000000
   13.31194496  163.89999390    0.98000002    2.50000000
   13.31500053  167.80799866    0.98000002    2.50000000
   13.31833363  174.50199890    0.94000000    2.50000000
   13.32166672  174.38699341    0.94000000    2.51999998
   13.32472229  169.62800598    0.92000002    2.50000000
   13.32805538  154.53399658    0.88000000    2.50000000
   13.33138847  156.26199341    0.73000002    2.50000000
   13.33444405  160.89100647    0.63000000    2.50000000
   13.33666611  162.92500305    0.63000000    2.50000000
   13.33833313  165.45100403    0.63000000    2.50000000
   13.34138870  171.93400574    0.63000000    2.50000000
   13.34472179  168.47599792    0.63000000    2.50000000
   13.34777737  158.53999329    0.61000001    2.51999998
   13.35111141  167.64399719    0.63000000    2.50000000
   13.35444450  167.38499451    0.61000001    2.51999998
   13.35750008  158.04400635    0.61000001    2.50000000
   13.36083412  164.31100464    0.63000000    2.51999998
   13.36416721  163.58099365    0.61000001    2.50000000
   13.36722279  161.58299255    0.61000001    2.50000000
   13.36999989  156.50700378    0.61000001    2.50000000
   13.37111092  158.12899780    0.63000000    2.50000000
   13.37416649  161.12800598    0.61000001    2.51999998
   13.37750053  171.50100708    0.61000001    2.51999998
   13.38055611  175.91799927    0.61000001    2.50000000
   13.38388920  174.73699951    0.61000001    2.51999998
   13.38722229  180.91600037    0.61000001    2.51999998
   13.39027786  179.05999756    0.61000001    2.51999998
   13.39361095  180.91099548    0.61000001    2.51999998
   13.39694405  182.75000000    0.61000001    2.51999998
   13.39999962  185.18800354    0.61000001    2.51999998
   13.40333271  186.38900757    0.61000001    2.51999998
   13.40388870  169.11399841    0.61000001    2.51999998
   13.40694427  166.10400391    0.61000001    2.51999998
   13.41027737  171.37199402    0.61000001    2.51999998
   13.41333294  168.04499817    0.58999997    2.51999998
   13.41666698  165.25900269    0.61000001    2.51999998
   13.42000008  168.46499634    0.61000001    2.51999998
   13.42305565  171.31799316    0.58999997    2.51999998
   13.42638874  170.28100586    0.58999997    2.51999998
   13.42972279  162.05499268    0.58999997    2.51999998
   13.43277836  164.92599487    0.61000001    2.51999998
   13.43611145  160.93899536    0.61000001    2.51999998
   13.43666649  173.22599792    0.61000001    2.51999998
   13.43972206  162.46400452    0.63000000    2.51999998
   13.44277763  161.94000244    0.63000000    2.51999998
   13.44611073  166.45899963    0.63000000    2.51999998
   13.44916630  153.85600281    0.63000000    2.51999998
   13.45249939  162.71699524    0.63000000    2.51999998
   13.56444454   -1.00000000   -1.00000000   -1.00000000
   13.66138840   -1.00000000   -1.00000000   -1.00000000
   13.75972176   -1.00000000   -1.00000000   -1.00000000
   13.82055569  105.91300201    0.28000000    2.64000010
   13.82388878  159.58900452    0.28000000    2.61999989
   13.82694435  163.65199280    0.28000000    2.61999989
   13.83027744  168.82099915    0.28000000    2.57999992
   13.83361053  182.23699951    0.25999999    2.55999994
   13.83666611  169.08999634    0.25999999    2.55999994
   13.84083271  169.08999634    0.28000000    2.51999998
   13.84499931  172.45500183    0.25999999    2.51999998
   13.84833336  176.31700134    0.25999999    2.50000000
   13.85138893  162.84599304    0.25999999    2.48000002
   13.85388947  166.87199402    0.25999999    2.48000002
   13.85500050  162.65199280    0.25999999    2.48000002
   13.85833359  167.38000488    0.25999999    2.48000002
   13.86166668  160.82699585    0.25999999    2.48000002
   13.86472225  165.50100708    0.25000000    2.34999990
   13.86805534  164.17900085    0.25000000    2.28999996
   13.87111092  166.83399963    0.25000000    2.23000002
   13.87444496  158.57200623    0.20999999    1.05999994
   13.87777805  161.52499390    0.17000000    0.79000002
   13.88361073  161.52499390    0.17000000    0.79000002
   13.88777733  160.38900757    0.17000000    0.79000002
   13.89111137  151.79400635    0.17000000    0.79000002
   13.89444447  149.18400574    0.17000000    0.79000002
   13.89750004  167.20100403    0.17000000    0.79000002
   13.90083313  158.38800049    0.17000000    0.79000002
   13.90388870  167.92300415    0.17000000    0.79000002
   13.90722179  157.97500610    0.17000000    0.79000002
   13.91055489  169.27900696    0.17000000    0.80000001
   13.91361046  173.51400757    0.17000000    0.80000001
   13.91694450  161.77000427    0.17000000    0.79000002
   13.92027855  154.08799744    0.17000000    0.79000002
   13.92083359  162.49299622    0.17000000    0.79000002
   13.92666721  162.49299622    0.17000000    0.80000001
   13.93083382  169.00599670    0.15000001    0.80000001
   13.93388939  151.16999817    0.15000001    0.80000001
   13.93722248  160.96499634    0.15000001    0.80000001
   13.94027805  164.35400391    0.15000001    0.80000001
   13.94361115  171.01600647    0.15000001    0.80000001
   13.94694424  166.28900146    0.15000001    0.79000002
   13.94999981  176.56599426    0.15000001    0.79000002
   13.95333290  167.52499390    0.15000001    0.79000002
   13.95416641  164.05599976    0.15000001    0.79000002
   13.95694447  167.98300171    0.17000000    0.80000001
   13.96027756  158.79600525    0.15000001    0.79000002
   13.96361065  147.32600403    0.15000001    0.79000002
   13.96944427  147.32600403    0.17000000    0.79000002
   13.97361088  156.75199890    0.17000000    0.79000002
   13.97666645  158.18899536    0.17000000    0.79000002
   13.97999954  142.95399475    0.17000000    0.79000002
   13.98333359  153.25900269    0.17000000    0.79000002
   13.98638916  149.11300659    0.17000000    0.79000002
   13.98750019  147.65299988    0.17000000    0.79000002
   13.99000072  152.02099609    0.17000000    0.79000002
   13.99333382  145.85800171    0.17000000    0.79000002
   13.99666691  155.48300171    0.17000000    0.79000002
   13.99972248  148.22799683    0.17000000    0.79000002
   14.00305557  143.36399841    0.15000001    0.79000002
   14.00638866  150.53199768    0.15000001    0.79000002
   14.01222229  150.53199768    0.15000001    0.79000002
   14.01638889  140.62800598    0.15000001    0.79000002
   14.01972198  151.55499268    0.15000001    0.79000002
   14.02083302  154.13800049    0.15000001    0.79000002
   14.02305508  146.01100159    0.15000001    0.79000002
   14.02638817  150.61099243    0.15000001    0.79000002
   14.02972221  161.81300354    0.15000001    0.79000002
   14.03277779  148.80200195    0.15000001    0.81999999
   14.03611183  143.44700623    0.15000001    0.80000001
   14.03916740  147.08099365    4.90999985    2.66000009
   14.04250050  156.41600037    4.90999985    2.67000008
   14.04583359  150.85400391    0.51999998    2.64000010
   14.04888916  152.71099854    0.51999998    2.64000010
   14.05500031  152.71099854    0.50000000    2.64000010
   14.05916691  157.03700256    0.51999998    2.64000010
   14.06250000  149.44999695    0.51999998    2.64000010
   14.06583309  162.95899963    0.51999998    2.66000009
   14.06888866  156.82499695    0.51999998    2.64000010
   14.07222176  148.25500488    0.51999998    2.64000010
   14.07527733  150.29400635    0.51999998    2.64000010
   14.07861137  154.42500305    0.51999998    2.64000010
   14.08194447  153.59300232    0.51999998    2.64000010
   14.08527756  151.57400513    0.51999998    2.64000010
   14.08749962  154.83599854    0.51999998    2.64000010
   14.08861065  150.00500488    0.51999998    2.64000010
   14.09194374  161.46699524    0.51999998    2.64000010
   14.09805489  161.46699524    0.51999998    2.64000010
   14.10222244  164.96499634    0.51999998    2.64000010
   14.10527802  152.44999695    0.51999998    2.66000009
   14.10861111  164.48800659    0.52999997    2.67000008
   14.11194515  160.80000305    0.52999997    2.66000009
   14.11500072  149.97599792    0.52999997    2.64000010
   14.11833382  154.10299683    0.52999997    2.66000009
   14.12083340  138.85200500    0.52999997    2.64000010
   14.12194443  156.84500122    0.52999997    2.64000010
   14.12527752  151.85299683    0.52999997    2.66000009
   14.12861156  160.74899292    0.52999997    2.64000010
   14.13166714  163.19900513    0.52999997    2.66000009
   14.13500023  154.90400696    0.51999998    2.64000010
   14.14083290  154.90400696    0.51999998    2.66000009
   14.14499950  149.07499695    0.51999998    2.66000009
   14.14805508  156.74699402    0.50000000    2.64000010
   14.15138817  146.21299744    0.50000000    2.64000010
   14.15416622  152.35200500    0.50000000    2.64000010
   14.15499973  133.54800415    0.50000000    2.66000009
   14.15833282  151.11599731    0.50000000    2.66000009
   14.16166592  130.21299744    0.50000000    2.66000009
   14.16472149  155.32400513    0.50000000    2.64000010
   14.16805553  148.08200073    0.50000000    2.64000010
   14.17138958  160.38400269    0.50000000    2.66000009
   14.17444515  161.82600403    0.50000000    2.67000008
   14.17777824  132.50700378    0.50000000    2.64000010
   14.18361092  132.50700378    0.50000000    2.66000009
   14.18777752  154.46600342    0.50000000    2.66000009
   14.19111156  148.07600403    0.50000000    2.64000010
   14.19416714  172.11500549    0.51999998    2.66000009
   14.19750023  172.45799255    0.50000000    2.64000010
   14.20083332  159.88900757    0.51999998    2.66000009
   14.20388889  174.75500488    0.50000000    2.67000008
   14.20722198  170.25300598    0.51999998    2.67000008
   14.21027756  159.08799744    0.51999998    2.66000009
   14.21361065  159.94700623    0.50000000    2.66000009
   14.21694374  157.03999329    0.50000000    2.66000009
   14.21999931  174.08999634    0.50000000    2.66000009
   14.22083282  159.24299622    0.50000000    2.66000009
   14.22638798  159.24299622    0.50000000    2.66000009
   14.23055553  152.97500610    0.47999999    2.66000009
   14.23388958  165.75000000    0.47999999    2.66000009
   14.23722267  171.60200500    0.47999999    2.66000009
   14.24027824  161.26600647    0.47999999    2.66000009
   14.24361134  176.46499634    0.47999999    2.66000009
   14.24666691  171.62199402    0.50000000    2.66000009
   14.25000000  159.33299255    0.63000000    2.66000009
   14.25333309  166.70599365    0.70999998    2.66000009
   14.25416660  156.85800171    0.73000002    2.66000009
   14.25666714  155.98599243    0.76999998    2.66000009
   14.26000023  182.57899475    0.83999997    2.66000009
   14.26333332  160.20599365    0.83999997    2.66000009
   14.26944447  160.20599365    0.95999998    2.67000008
   14.27361107  155.70700073    1.13000000    2.66000009
   14.27666664  157.48500061    1.21000004    2.66000009
   14.27999973  151.78199768    1.28999996    2.66000009
   14.28333378  135.57699585    1.33000004    2.66000009
   14.28638935  155.07899475    1.28999996    2.66000009
   14.28750038  148.42500305    1.30999994    2.67000008
   14.29000092  154.17500305    1.39999998    2.66000009
   14.29333401  161.20799255    1.64999998    2.67000008
   14.29666710  164.72999573    1.89999998    2.66000009
   14.29972267  160.23899841    2.25000000    2.66000009
   14.30305576  157.92999268    2.61999989    2.66000009
   14.30638885  150.52799988    2.71000004    2.64000010
   14.31222248  150.52799988    2.17000008    2.66000009
   14.31638908  151.27799988    1.00000000    2.66000009
   14.31944466  148.72099304    0.81999999    2.67000008
   14.32083321  162.37800598    0.81999999    2.67000008
   14.32305527  153.26400757    0.81999999    2.67000008
   14.32638836  147.73899841    0.51999998    2.67000008
   14.32972240  163.87100220    0.51999998    2.67000008
   14.33277798  155.96600342    0.52999997    2.67000008
   14.33611107  152.84599304    0.50000000    2.67000008
   14.33944416  150.27799988    0.50000000    2.67000008
   14.34249973  156.61799622    0.64999998    2.67000008
   14.34583282  148.46000671    0.98000002    2.66000009
   14.34888840  143.39300537    2.32999992    2.66000009
   14.35500050  143.39300537    0.70999998    2.67000008
   14.35916710  154.36599731    0.55000001    2.67000008
   14.36250019  152.00300598    0.47999999    2.67000008
   14.36555576  160.20199585    0.47999999    2.67000008
   14.36888885  161.77499390    0.50000000    2.67000008
   14.37222195  152.77099609    0.46000001    2.66000009
   14.37527752  154.90299988    0.46000001    2.66000009
   14.37861156  165.62800598    0.46000001    2.67000008
   14.38166714  172.31500244    0.46000001    2.67000008
   14.38500023  163.06100464    0.50000000    2.67000008
   14.38749981  169.44599915    0.50000000    2.67000008
   14.38861084  156.33799744    0.51999998    2.67000008
   14.39194393  154.70500183    0.86000001    2.67000008
   14.39777756  154.70500183    1.26999998    2.67000008
   14.40194416  155.26800537    1.39999998    2.66000009
   14.40527725  154.86900330    1.61000001    2.66000009
   14.40861034  161.25900269    1.63000000    2.66000009
   14.41166592  155.92300415    1.53999996    2.64000010
   14.41499996  168.30599976    1.53999996    2.64000010
   14.41833401  154.69200134    1.53999996    2.64000010
   14.42083359  162.06799316    1.53999996    2.66000009
   14.42194462  148.33999634    1.46000004    2.67000008
   14.42500019  147.59700012    1.39999998    2.67000008
   14.42833328  155.14799500    1.55999994    2.67000008
   14.43138885  156.30099487    1.83000004    2.66000009
   14.43472195  160.38999939    1.85000002    2.66000009
   14.44083309  160.38999939    1.71000004    2.66000009
   14.44499969  163.30299377    1.71000004    2.66000009
   14.44833374  151.25199890    1.66999996    2.66000009
   14.45138836  155.47900391    0.86000001    2.67000008
   14.45416641  143.08900452    0.86000001    2.67000008
   14.45499992  148.11399841    0.86000001    2.67000008
   14.45833302  152.63600159    0.83999997    2.67000008
   14.46166611  156.10099792    0.83999997    2.69000006
   14.46472168  154.72999573    0.83999997    2.66000009
   14.46805477  156.33099365    1.11000001    2.67000008
   14.47138882  157.47700500    1.11000001    2.67000008
   14.47444439  146.39399719    1.71000004    2.67000008
   14.47777748  148.06399536    1.98000002    2.66000009
   14.48361111  148.06399536    2.44000006    2.66000009
   14.48777771  139.22500610    2.82999992    2.66000009
   14.49083328  147.23899841    3.03999996    2.66000009
   14.49416733  152.71299744    3.34999990    2.67000008
   14.49750042  143.56700134    3.66000009    2.64000010
   14.50055599  150.22900391    3.82999992    2.66000009
   14.50388908  145.95899963    4.03999996    2.66000009
   14.50722218  151.06700134    4.30999994    2.66000009
   14.51027775  154.44599915    4.59999990    2.66000009
   14.51361084  154.91400146    4.90999985    2.64000010
   14.51666641  147.86500549    4.90999985    2.66000009
   14.51999950  159.85600281    4.90999985    2.64000010
   14.52083302  149.12899780    4.90999985    2.64000010
   14.52638817  149.12899780    4.90999985    2.66000009
   14.53055573  154.57699585    4.90999985    2.66000009
   14.53388977  144.24099731    4.90999985    2.66000009
   14.53694534  159.62699890    4.90999985    2.66000009
   14.54027843  152.47799683    4.90999985    2.66000009
   14.54361153  153.50199890    4.90999985    2.64000010
   14.54666710  152.04499817    4.90999985    2.66000009
   14.55000019  147.88099670    4.73999977    2.66000009
   14.55305576  158.03900146    4.53000021    2.66000009
   14.55416679  142.65299988    4.42999983    2.66000009
   14.55694485  148.86300659    4.11999989    2.66000009
   14.56000042  150.04100037    3.91000009    2.67000008
   14.56333351  148.36999512    3.72000003    2.67000008
   14.56916618  148.36999512    3.14000010    2.67000008
   14.57333374  151.81599426    2.71000004    2.67000008
   14.57666683  152.33399963    2.34999990    2.67000008
   14.57999992  148.72500610    2.09999990    2.67000008
   14.58305550  150.06700134    1.55999994    2.67000008
   14.58638859  151.98300171    1.41999996    2.67000008
   14.58749962  142.49299622    1.19000006    2.67000008
   14.59000015  136.60400391    1.19000006    2.67000008
   14.59305477  149.12300110    0.76999998    2.69000006
   14.59638882  147.17500305    0.58999997    2.67000008
   14.59944439  147.44900513    0.50000000    2.69000006
   14.60277843  146.15400696    0.46000001    2.69000006
   14.60611153  148.01499939    0.46000001    2.69000006
   14.61222267  148.01499939    0.44000000    2.69000006
   14.61638927  162.09199524    0.44000000    2.69000006
   14.61944485  153.76100159    0.44000000    2.69000006
   14.62083340  147.68200684    0.44000000    2.69000006
   14.62333393  151.76100159    0.44000000    2.69000006
   14.62638855  151.89199829    0.44000000    2.69000006
   14.62972260  152.95500183    0.44000000    2.69000006
   14.63305569  151.15499878    0.44000000    2.69000006
   14.63611126  150.57400513    0.44000000    2.69000006
   14.63944435  147.55099487    0.44000000    2.69000006
   14.64249992  148.43800354    0.44000000    2.69000006
   14.64583302  167.88400269    0.44000000    2.69000006
   14.64916611  143.82299805    0.44000000    2.69000006
   14.65499973  143.82299805    0.44000000    2.69000006
   14.65916634  144.57000732    0.44000000    2.69000006
   14.66222191  144.24299622    0.44000000    2.69000006
   14.66555500  144.26499939    0.44000000    2.69000006
   14.66888905  147.20399475    0.44000000    2.71000004
   14.67222214  142.32600403    0.44000000    2.69000006
   14.67527771  137.65600586    0.44000000    2.69000006
   14.67861176  146.27900696    0.44000000    2.69000006
   14.68166733  146.55700684    0.44000000    2.69000006
   14.68500042  137.38699341    0.46000001    2.69000006
   14.68750000  153.30599976    0.46000001    2.69000006
   14.68888855  137.56599426    0.46000001    2.69000006
   14.69194412  137.66200256    0.46000001    2.69000006
   14.69777775  137.66200256    0.46000001    2.69000006
   14.70194435  150.26800537    0.47999999    2.69000006
   14.70527744  156.33799744    0.47999999    2.69000006
   14.70833302  143.67199707    0.46000001    2.71000004
   14.71166611  155.38900757    0.46000001    2.69000006
   14.71500015  144.08700562    0.46000001    2.69000006
   14.71805477  150.19000244    0.47999999    2.69000006
   14.72083282  147.19799805    0.47999999    2.69000006
   14.72194386  151.97599792    0.46000001    2.69000006
   14.72499943  142.46200562    0.46000001    2.69000006
   14.72833252  141.12399292    0.46000001    2.71000004
   14.73166656  149.39399719    0.46000001    2.69000006
   14.73472214  152.36799622    0.46000001    2.69000006
   14.74055576  152.36799622    0.46000001    2.69000006
   14.74472237  145.85800171    0.46000001    2.69000006
   14.74805546  153.14500427    0.46000001    2.69000006
   14.75138855  162.18600464    0.46000001    2.69000006
   14.75416660  147.71699524    0.46000001    2.69000006
   14.75500011  140.94599915    0.46000001    2.69000006
   14.75805569  157.82699585    0.46000001    2.69000006
   14.76138878  152.03599548    0.46000001    2.69000006
   14.76472187  156.98100281    0.44000000    2.67000008
   14.76777744  163.97300720    0.44000000    2.69000006
   14.77111053  148.29600525    0.44000000    2.69000006
   14.77416611  151.90800476    0.44000000    2.69000006
   14.77750015  141.00399780    0.46000001    2.71000004
   14.78361130  141.00399780    0.44000000    2.71000004
   14.78750038  155.75999451    0.46000001    2.69000006
   14.79083347  155.32600403    0.44000000    2.69000006
   14.79416752  137.36500549    0.44000000    2.69000006
   14.79722309  151.57099915    0.44000000    2.69000006
   14.80055618  163.05499268    0.44000000    2.69000006
   14.80388927  158.38800049    0.44000000    2.69000006
   14.80694485  154.87300110    0.44000000    2.69000006
   14.81027794  138.38699341    0.44000000    2.71000004
   14.81333351  156.57200623    0.46000001    2.69000006
   14.81666660  134.06900024    0.44000000    2.69000006
   14.81999969  154.86500549    0.44000000    2.69000006
   14.82083321  157.02200317    0.44000000    2.69000006
   14.84166622  157.02200317    0.44000000    2.71000004
   14.84583282  141.91900635    0.44000000    2.71000004
   14.84888840  139.68800354    0.44000000    2.71000004
   14.85222244  141.74299622    0.44000000    2.69000006
   14.85416698  145.83799744    0.44000000    2.69000006
   14.85583401  145.77799988    0.44000000    2.69000006
   14.85888958  150.19500732    0.44000000    2.73000002
   14.86222267  139.05700684    0.44000000    2.71000004
   14.86555576  150.63099670    0.44000000    2.71000004
   14.86861134  141.57600403    0.44000000    2.71000004
   14.87194443  161.86399841    0.44000000    2.69000006
   14.87527752  142.17599487    0.44000000    2.71000004
   14.87833309  154.43600464    0.41999999    2.71000004
   14.88444424  154.43600464    0.44000000    2.69000006
   14.88861084  151.38499451    0.44000000    2.71000004
   14.89166641  151.28100586    0.41999999    2.71000004
   14.89499950  161.84700012    0.44000000    2.69000006
   14.89805508  158.41400146    0.41999999    2.71000004
   14.90138817  147.39300537    0.41999999    2.71000004
   14.90472221  156.84399414    0.41999999    2.71000004
   14.90777779  152.14500427    0.41999999    2.71000004
   14.91111088  146.73599243    0.41999999    2.71000004
   14.91444397  152.97200012    0.44000000    2.71000004
   14.91750050  152.27299500    0.44000000    2.71000004
   14.92083359  155.87399292    0.41999999    2.71000004
   14.92138958  173.15699768    0.41999999    2.71000004
   14.92722225  173.15699768    0.41999999    2.71000004
   14.93138885  139.83599854    0.44000000    2.71000004
   14.93444443  158.78300476    0.41999999    2.71000004
   14.93777752  154.46200562    0.44000000    2.69000006
   14.94111156  153.00999451    0.41999999    2.71000004
   14.94416714  153.97300720    0.41999999    2.71000004
   14.94750023  164.39199829    0.41999999    2.71000004
   14.95055580  152.22799683    0.44000000    2.71000004
   14.95388889  153.22799683    0.41999999    2.71000004
   14.95444393  157.04200745    0.41999999    2.71000004
   14.95777798  169.25399780    0.41999999    2.71000004
   14.96083355  151.89599609    0.44000000    2.71000004
   14.96416664  151.29699707    0.44000000    2.71000004
   14.96999931  151.29699707    0.44000000    2.69000006
   14.97416592  159.19799805    0.46000001    2.73000002
   14.97749996  156.50799561    0.46000001    2.71000004
   14.98055553  141.50300598    0.47999999    2.71000004
   14.98388958  162.16700745    0.46000001    2.71000004
   14.98694515  156.77099609    0.47999999    2.71000004
   14.98777771  151.38400269    0.47999999    2.71000004
   14.99083328  157.81100464    0.47999999    2.71000004
   14.99388885  156.84300232    0.47999999    2.71000004
   14.99722290  154.61700439    0.46000001    2.71000004
   15.00055599  163.97399902    0.46000001    2.71000004
   15.00361156  151.04699707    0.46000001    2.71000004
   15.00694466  143.30999756    0.46000001    2.71000004
   15.01277733  143.30999756    0.46000001    2.71000004
   15.01694393  148.14199829    0.44000000    2.71000004
   15.02027798  170.54100037    0.44000000    2.71000004
   15.02111053  150.53100586    0.44000000    2.71000004
   15.02388859  160.76400757    0.46000001    2.71000004
   15.02694416  160.18699646    0.46000001    2.71000004
   15.03027725  154.85000610    0.44000000    2.71000004
   15.03361130  155.62300110    0.44000000    2.71000004
   15.03666687  155.33200073    0.41999999    2.71000004
   15.04000092  155.01499939    0.41999999    2.71000004
   15.04305553  147.99400330    0.41999999    2.71000004
   15.04638958  158.64900208    0.41999999    2.71000004
   15.04972267  158.07899475    0.41999999    2.71000004
   15.05555534  158.07899475    0.41999999    2.71000004
   15.05972195  143.22900391    0.41999999    2.71000004
   15.06305599  168.36599731    0.41999999    2.71000004
   15.06638908  152.93800354    0.41999999    2.71000004
   15.06944466  157.36199951    0.41999999    2.71000004
   15.07277775  156.87300110    0.41999999    2.71000004
   15.07611084  168.32400513    0.41999999    2.71000004
   15.07916641  147.66600037    0.41999999    2.71000004
   15.08249950  162.47500610    0.41999999    2.73000002
   15.08555508  143.91200256    0.41999999    2.73000002
   15.08777714  155.22900391    0.41999999    2.71000004
   15.08944416  171.71000671    0.41999999    2.71000004
   15.09249973  152.23100281    0.41999999    2.73000002
   15.09861088  152.23100281    0.41999999    2.71000004
   15.10277843  149.37800598    0.41999999    2.73000002
   15.10583401  151.44900513    0.41999999    2.71000004
   15.10916710  151.17399597    0.41999999    2.71000004
   15.11222267  158.35899353    0.41999999    2.71000004
   15.11555576  148.51400757    0.41999999    2.71000004
   15.11888885  162.45700073    0.41999999    2.71000004
   15.12111092  156.93800354    0.41999999    2.71000004
   15.12250042  144.75300598    0.41999999    2.71000004
   15.12555599  152.57499695    0.41999999    2.71000004
   15.12888908  166.11399841    0.41999999    2.73000002
   15.13222218  151.49000549    0.41999999    2.73000002
   15.13527775  153.63099670    0.40000001    2.71000004
   15.14138889  153.63099670    0.40000001    2.73000002
   15.14555550  158.95799255    0.41999999    2.73000002
   15.14888859  152.33500671    0.40000001    2.73000002
   15.15194416  157.80900574    0.41999999    2.73000002
   15.15444374  147.74899292    0.40000001    2.73000002
   15.15583324  155.04800415    0.40000001    2.71000004
   15.15888882  153.48899841    0.40000001    2.71000004
   15.16222191  146.15299988    0.40000001    2.73000002
   15.16555500  152.93499756    0.40000001    2.71000004
   15.16861153  151.64700317    0.41999999    2.73000002
   15.17194462  143.86700439    0.41999999    2.73000002
   15.17527771  157.96000671    0.41999999    2.73000002
   15.17833328  155.75300598    0.41999999    2.73000002
   15.18416691  155.75300598    0.41999999    2.71000004
   15.18833351  157.97999573    0.41999999    2.71000004
   15.19166660  162.91900635    0.41999999    2.71000004
   15.19472218  153.08999634    0.41999999    2.71000004
   15.19805527  146.20100403    0.41999999    2.73000002
   15.20138836  138.53399658    0.41999999    2.73000002
   15.20444393  152.47200012    0.44000000    2.73000002
   15.20777798  150.13200378    0.44000000    2.73000002
   15.21083355  164.01800537    0.41999999    2.73000002
   15.21416664  150.87500000    0.41999999    2.73000002
   15.21749973  156.53599548    0.44000000    2.73000002
   15.22055531  152.75599670    0.44000000    2.73000002
   15.22111034  164.34399414    0.41999999    2.71000004
   15.22694397  164.34399414    0.41999999    2.73000002
   15.23111057  155.53799438    0.41999999    2.73000002
   15.23444462  150.74800110    0.41999999    2.71000004
   15.23777771  150.33700562    0.41999999    2.73000002
   15.24083328  156.58299255    0.41999999    2.73000002
   15.24416733  157.21400452    0.44000000    2.73000002
   15.24722290  170.07400513    0.41999999    2.71000004
   15.25055599  163.08200073    0.41999999    2.73000002
   15.25388908  162.39700317    0.44000000    2.73000002
   15.25444412  148.75399780    0.44000000    2.73000002
   15.25749969  167.29600525    0.41999999    2.73000002
   15.26083374  151.44599915    0.41999999    2.71000004
   15.26388931  155.94299316    0.41999999    2.71000004
   15.26999950  155.94299316    0.41999999    2.71000004
   15.27416611  157.05400085    0.41999999    2.73000002
   15.27722168  156.70500183    0.41999999    2.73000002
   15.28055573  146.55700684    0.41999999    2.73000002
   15.28388977  144.27400208    0.41999999    2.73000002
   15.28694534  155.58399963    0.44000000    2.73000002
   15.28777790  150.81900024    0.46000001    2.73000002
   15.29055595  140.57800293    0.46000001    2.75000000
   15.29388905  160.37199402    0.46000001    2.73000002
   15.29694462  160.72500610    0.47999999    2.73000002
   15.30027771  153.86000061    0.47999999    2.73000002
   15.30333328  146.08599854    0.50000000    2.73000002
   15.30666733  143.80099487    0.50000000    2.73000002
   15.31277752  143.80099487    0.51999998    2.73000002
   15.31694412  140.16999817    0.52999997    2.73000002
   15.31999969  151.22200012    0.52999997    2.73000002
   15.32111073  150.00399780    0.52999997    2.73000002
   15.32388878  163.84700012    0.52999997    2.73000002
   15.32722187  152.44599915    0.52999997    2.73000002
   15.33027744  151.85800171    0.52999997    2.73000002
   15.33361053  142.70799255    0.51999998    2.73000002
   15.33694458  148.00199890    0.47999999    2.73000002
   15.34000015  147.98800659    0.44000000    2.73000002
   15.34333324  146.60299683    0.41999999    2.73000002
   15.34666634  148.58799744    0.41999999    2.73000002
   15.34972191  156.03399658    0.40000001    2.73000002
   15.35555553  156.03399658    0.40000001    2.75000000
   15.35972214  142.76400757    0.38000000    2.73000002
   15.36305618  156.70100403    0.38000000    2.75000000
   15.36611176  147.54499817    0.40000001    2.75000000
   15.36944485  150.24800110    0.38000000    2.73000002
   15.37277794  160.93099976    0.40000001    2.73000002
   15.37583351  149.94999695    0.40000001    2.73000002
   15.37916660  134.73100281    0.38000000    2.75000000
   15.38249969  153.30099487    0.38000000    2.73000002
   15.38555527  160.42300415    0.38000000    2.75000000
   15.38777733  160.46099854    0.38000000    2.75000000
   15.38916683  143.62500000    0.38000000    2.75000000
   15.39249992  152.90800476    0.38000000    2.73000002
   15.39833355  152.90800476    0.38000000    2.75000000
   15.40249920  146.55799866    0.38000000    2.75000000
   15.40583324  150.98399353    0.38000000    2.73000002
   15.40916634  149.55999756    0.38000000    2.73000002
   15.41222191  162.01199341    0.40000001    2.73000002
   15.41555500  157.45100403    0.40000001    2.73000002
   15.41861153  154.41700745    0.40000001    2.73000002
   15.42111111  157.87800598    0.40000001    2.73000002
   15.42222214  152.37399292    0.40000001    2.73000002
   15.42555618  157.52699280    0.40000001    2.73000002
   15.42861176  150.78599548    0.40000001    2.73000002
   15.43194485  141.51400757    0.40000001    2.73000002
   15.43527794  154.32899475    0.41999999    2.75000000
   15.44138908  154.32899475    0.44000000    2.73000002
   15.44527817  163.30499268    0.41999999    2.73000002
   15.44861126  155.18200684    0.41999999    2.73000002
   15.45194435  157.72999573    0.41999999    2.73000002
   15.45444393  148.76400757    0.44000000    2.73000002
   15.45555496  156.94000244    0.44000000    2.75000000
   15.45888901  157.71600342    0.44000000    2.73000002
   15.46194458  147.75700378    0.44000000    2.73000002
   15.46527767  150.17399597    0.44000000    2.73000002
   15.46833324  160.41099548    0.44000000    2.75000000
   15.47166634  164.93400574    0.44000000    2.75000000
   15.47499943  159.00000000    0.44000000    2.75000000
   15.47805500  158.75300598    0.44000000    2.73000002
   15.48416710  158.75300598    0.44000000    2.73000002
   15.48833370  153.21699524    0.44000000    2.75000000
   15.49138927  164.19999695    0.44000000    2.75000000
   15.49472237  173.44799805    0.44000000    2.73000002
   15.49805546  161.50199890    0.44000000    2.73000002
   15.50111103  165.15199280    0.44000000    2.73000002
   15.50444412  165.30999756    0.44000000    2.73000002
   15.50749969  159.53700256    0.44000000    2.73000002
   15.51083374  164.55099487    0.44000000    2.73000002
   15.51416683  155.30400085    0.41999999    2.75000000
   15.51722240  153.77499390    0.44000000    2.75000000
   15.52055550  154.40199280    0.41999999    2.73000002
   15.52111053  151.58900452    0.41999999    2.75000000
   15.52694416  151.58900452    0.41999999    2.75000000
   15.53111076  148.38400269    0.40000001    2.75000000
   15.53444481  156.89599609    0.38000000    2.75000000
   15.53750038  161.56599426    0.40000001    2.75000000
   15.54083347  160.32600403    0.38000000    2.75000000
   15.54388905  148.72099304    0.38000000    2.75000000
   15.54722309  140.72999573    0.38000000    2.75000000
   15.55055618  163.34599304    0.40000001    2.73000002
   15.55361176  163.10400391    0.38000000    2.73000002
   15.55444431  160.44400024    0.38000000    2.73000002
   15.55722237  164.58500671    0.38000000    2.75000000
   15.56055546  158.79699707    0.38000000    2.75000000
   15.56361103  156.27299500    0.38000000    2.75000000
   15.56972218  156.27299500    0.40000001    2.75000000
   15.57388878  149.55799866    0.40000001    2.75000000
   15.57722187  157.77900696    0.41999999    2.73000002
   15.58055592  149.34899902    0.41999999    2.73000002
   15.58361053  157.70899963    0.44000000    2.75000000
   15.58694458  153.14599609    0.44000000    2.75000000
   15.58777714  160.66499329    0.44000000    2.75000000
   15.59055519  165.97099304    0.44000000    2.75000000
   15.59388828  154.91499329    0.44000000    2.73000002
   15.59694386  144.13800049    0.44000000    2.75000000
   15.60027790  153.47999573    0.44000000    2.75000000
   15.60361195  145.36599731    0.44000000    2.75000000
   15.60666752  141.48500061    0.41999999    2.75000000
   15.61277771  141.48500061    0.44000000    2.75000000
   15.61666679  163.32800293    0.44000000    2.75000000
   15.61999989  153.99800110    0.46000001    2.73000002
   15.62138939  162.68299866    0.46000001    2.73000002
   15.62361145  142.63099670    0.46000001    2.73000002
   15.62694454  157.87399292    0.46000001    2.73000002
   15.63000011  156.07000732    0.46000001    2.75000000
   15.63333321  159.44799805    0.46000001    2.75000000
   15.63666630  158.69500732    0.46000001    2.75000000
   15.63972187  152.97799683    0.46000001    2.75000000
   15.64305496  161.69999695    0.46000001    2.75000000
   15.64611053  162.58700562    0.46000001    2.75000000
   15.64944458  161.17300415    0.47999999    2.73000002
   15.65555477  161.17300415    0.41999999    2.75000000
   15.65972137  163.66000366    0.44000000    2.75000000
   15.66277695  159.97200012    0.44000000    2.75000000
   15.66611099  153.25700378    0.51999998    2.75000000
   15.66944504  145.63000488    0.52999997    2.75000000
   15.67250061  158.44500732    0.51999998    2.75000000
   15.67583370  164.59100342    0.51999998    2.75000000
   15.67916679  156.03199768    0.51999998    2.75000000
   15.68222237  149.43499756    0.50000000    2.75000000
   15.68555546  167.40199280    0.50000000    2.75000000
   15.68805599  169.92500305    0.51999998    2.73000002
   15.68916702  151.49099731    0.51999998    2.73000002
   15.69250011  156.09300232    0.51999998    2.75000000
   15.69833374  156.09300232    0.52999997    2.75000000
   15.70249939  156.82899475    0.51999998    2.75000000
   15.70583344  156.11599731    0.50000000    2.75000000
   15.70888901  162.92199707    0.50000000    2.75000000
   15.71222210  146.70399475    0.47999999    2.75000000
   15.71527767  152.04600525    0.47999999    2.75000000
   15.71861076  148.54600525    0.47999999    2.75000000
   15.72138882  156.58599854    0.47999999    2.75000000
   15.72222137  166.70199585    0.44000000    2.75000000
   15.72555542  158.39799500    0.44000000    2.75000000
   15.72861099  156.16299438    0.44000000    2.75000000
   15.73194408  145.27400208    0.44000000    2.75000000
   15.73527813  155.63200378    0.46000001    2.75000000
   15.74111176  155.63200378    0.44000000    2.75000000
   15.74527836  158.02299500    0.41999999    2.75000000
   15.74861145  165.08099365    0.41999999    2.75000000
   15.75166702  147.75399780    0.52999997    2.75000000
   15.75472260  167.53799438    0.52999997    2.75000000
   15.75527763  162.02299500    0.52999997    2.75000000
   15.75861073  146.05400085    0.51999998    2.75000000
   15.76166630  158.13900757    0.52999997    2.75000000
   15.76500034  151.62899780    0.52999997    2.75000000
   15.76833344  143.80000305    0.52999997    2.75000000
   15.77138901  162.02699280    0.70999998    2.75000000
   15.77472210  149.32200623    0.73000002    2.75000000
   15.77805519  153.50500488    0.76999998    2.73000002
   15.78416729  153.50500488    1.34000003    2.75000000
   15.78805637  159.46499634    1.69000006    2.75000000
   15.79138947  152.30200195    1.71000004    2.71000004
   15.79472256  160.31900024    1.71000004    2.73000002
   15.79777813  141.15899658    1.71000004    2.73000002
   15.80111122  178.72999573    1.94000006    2.75000000
   15.80444431  158.01600647    2.89000010    2.71000004
   15.80749989  164.77000427    4.30999994    2.71000004
   15.81083393  173.56100464    4.90999985    2.67000008
   15.81388950  163.11300659    4.90999985    2.64000010
   15.81722260  171.17300415    4.90999985    2.61999989
   15.82055569  172.01199341    4.90999985    2.61999989
   15.82138920  162.42199707    4.90999985    2.61999989
   15.82694435  162.42199707    4.90999985    2.59999990
   15.83111095  177.70899963    4.90999985    2.59999990
   15.83416653  165.83700562    4.90999985    2.61999989
   15.83749962  159.48199463    4.90999985    2.61999989
   15.85500050  173.41400146    4.90999985    2.64000010
   15.85750008  160.99299622    4.90999985    2.67000008
   15.86083412  161.47700500    4.90999985    2.66000009
   15.86388969  167.03500366    4.90999985    2.66000009
   15.86999989  167.03500366    4.90999985    2.67000008
   15.87416649  152.86300659    4.90999985    2.69000006
   15.87722206  163.16499329    4.90999985    2.67000008
   15.88055611  173.34599304    4.90999985    2.67000008
   15.88361073  152.87800598    4.65999985    2.71000004
   15.88694477  163.65299988    4.44999981    2.71000004
   15.88833332  162.71600342    4.38999987    2.71000004
   15.89083290  155.20500183    4.26000023    2.71000004
   15.89388847  159.15600586    4.26000023    2.69000006
   15.89722252  161.41499329    4.05999994    2.71000004
   15.90027714  152.26300049    4.07999992    2.71000004
   15.90361118  161.03300476    4.13999987    2.71000004
   15.90694427  142.78199768    4.13999987    2.71000004
   15.91277695  142.78199768    4.11999989    2.71000004
   15.91694450  157.89799500    4.00000000    2.71000004
   15.92000008  155.34599304    3.93000007    2.71000004
   15.92166710  145.95899963    3.97000003    2.71000004
   15.92388916  152.83299255    4.07999992    2.71000004
   15.92694473  162.25100708    4.32999992    2.71000004
   15.93027782  164.99400330    4.40999985    2.69000006
   15.93361092  152.96800232    4.42999983    2.69000006
   15.93666649  166.91099548    4.48999977    2.69000006
   15.94000053  159.97200012    4.46999979    2.69000006
   15.94333363  159.56900024    4.32999992    2.69000006
   15.94638920  166.52799988    4.26000023    2.71000004
   15.94972229  163.92100525    4.48999977    2.71000004
   15.95555496  163.92100525    4.55999994    2.69000006
   15.95972157  162.73699951    3.45000005    2.71000004
   15.96305561  171.43099976    2.78999996    2.73000002
   15.96611118  156.17300415    2.30999994    2.71000004
   15.96944427  150.63999939    1.86000001    2.73000002
   15.97277737  151.58500671    1.61000001    2.73000002
   15.97583294  147.13000488    1.34000003    2.73000002
   15.97916603  153.26400757    1.33000004    2.75000000
   15.98222160  156.58599854    1.26999998    2.75000000
   15.98555565  166.01199341    1.33000004    2.73000002
   15.98833370  152.66799927    1.36000001    2.73000002
   15.98944473  155.99299622    1.36000001    2.75000000
   15.99250031  150.28999329    1.03999996    2.75000000
   15.99833393  150.28999329    0.81999999    2.75000000
   16.00250053  149.23100281    0.50000000    2.76999998
   16.00583267  156.13900757    0.47999999    2.75000000
   16.00916672  145.28300476    0.47999999    2.75000000
   16.01222229  131.32499695    0.46000001    2.75000000
   16.01555634  151.12899780    0.46000001    2.75000000
   16.01861000  146.96400452    0.44000000    2.76999998
   16.02166557  148.31799316    0.40000001    2.75000000
   16.02249908  157.27900696    0.40000001    2.75000000
   16.02555466  148.36799622    0.40000001    2.75000000
   16.02888870  159.84599304    0.40000001    2.75000000
   16.03222275  139.20300293    0.40000001    2.76999998
   16.03527641  137.70700073    0.40000001    2.75000000
   16.04138756  137.70700073    0.40000001    2.75000000
   16.04555511  155.29499817    0.40000001    2.76999998
   16.04861069  152.32899475    0.41999999    2.76999998
   16.05194283  142.91900635    0.41999999    2.75000000
   16.05499840  150.42599487    0.41999999    2.76999998
   16.05555534  133.85699463    0.44000000    2.75000000
   16.05861092  145.94900513    0.44000000    2.75000000
   16.06194305  158.74600220    0.47999999    2.75000000
   16.06527710  142.82899475    0.47999999    2.75000000
   16.06833458  156.57499695    0.52999997    2.75000000
   16.07166672  153.35200500    0.52999997    2.75000000
   16.07472229  148.58999634    0.52999997    2.75000000
   16.07805634  160.58299255    0.56999999    2.75000000
   16.08416748  160.58299255    1.23000002    2.75000000
   16.08833313  164.53599548    1.05999994    2.73000002
   16.08889008  155.73100281    1.05999994    2.73000002
   16.09194565  150.90499878    0.95999998    2.73000002
   16.09527779  150.07600403    0.95999998    2.73000002
   16.09861183  142.94000244    0.98000002    2.75000000
   16.10166740  145.75500488    0.98000002    2.75000000
   16.10499954  161.81100464    1.05999994    2.73000002
   16.10833359  145.86599731    1.01999998    2.73000002
   16.11138916  144.79200745    1.01999998    2.75000000
   16.11472321  149.43499756    1.03999996    2.75000000
   16.11805534  156.85899353    0.98000002    2.73000002
   16.12111092  147.99800110    0.88000000    2.73000002
   16.12166595  162.29499817    0.83999997    2.75000000
   16.12694550  162.29499817    0.58999997    2.76999998
   16.13111115  156.46400452    0.55000001    2.76999998
   16.13444519  138.98899841    0.44000000    2.76999998
   16.13750076  146.00100708    0.44000000    2.75000000
   16.14083290  158.95700073    0.44000000    2.76999998
   16.14416695  146.63999939    0.44000000    2.75000000
   16.14722252  152.06599426    0.46000001    2.76999998
   16.15055466  156.68299866    0.44000000    2.75000000
   16.15361023  149.67500305    0.46000001    2.75000000
   16.15499878  150.92799377    0.46000001    2.75000000
   16.15749931  155.17199707    0.44000000    2.76999998
   16.16055489  146.20300293    0.44000000    2.76999998
   16.16388893  143.82600403    0.44000000    2.76999998
   16.17000008  143.82600403    0.44000000    2.78999996
   16.17388916  141.31599426    0.44000000    2.76999998
   16.17722130  162.51100159    0.44000000    2.76999998
   16.18055534  161.08900452    0.44000000    2.75000000
   16.18361092  142.98699951    0.44000000    2.75000000
   16.18694305  148.38099670    0.44000000    2.75000000
   16.18833160  148.91799927    0.44000000    2.75000000
   16.19055557  149.75399780    0.44000000    2.75000000
   16.19361115  145.78799438    0.46000001    2.75000000
   16.19694328  153.44599915    0.46000001    2.75000000
   16.20027924  159.50300598    0.47999999    2.76999998
   16.20333481  146.97399902    0.47999999    2.75000000
   16.20666695  154.54800415    0.47999999    2.75000000
   16.21277809  154.54800415    0.46000001    2.76999998
   16.21694565  150.54100037    0.46000001    2.75000000
   16.22000122  145.23300171    0.46000001    2.75000000
   16.22166634  141.10000610    0.46000001    2.75000000
   16.22361183  137.27799988    0.47999999    2.75000000
   16.22666740  147.28700256    0.47999999    2.76999998
   16.23000145  149.79899597    0.47999999    2.75000000
   16.23333359  150.46400452    0.47999999    2.75000000
   16.23638916  154.37600708    0.47999999    2.75000000
   16.23972321  141.72200012    0.47999999    2.76999998
   16.24305534  143.02299500    0.47999999    2.75000000
   16.24611092  157.78500366    0.47999999    2.75000000
   16.24944496  150.16999817    0.47999999    2.76999998
   16.25583267  150.16999817    0.47999999    2.75000000
   16.25972176  144.80700684    0.47999999    2.76999998
   16.26305580  156.81900024    0.47999999    2.75000000
   16.26638794  139.24000549    0.47999999    2.75000000
   16.26944351  145.73399353    0.47999999    2.75000000
   16.27277756  132.23599243    0.41999999    2.76999998
   16.27611160  138.85800171    0.41999999    2.75000000
   16.27916718  146.66600037    0.41999999    2.75000000
   16.28249931  150.45899963    0.40000001    2.75000000
   16.28583336  140.52200317    0.40000001    2.76999998
   16.28833199  136.94200134    0.40000001    2.75000000
   16.28944397  137.12100220    0.40000001    2.75000000
   16.29277802  140.17399597    0.38000000    2.76999998
   16.29833221  140.17399597    0.38000000    2.76999998
   16.30249977  152.38699341    0.38000000    2.75000000
   16.30583191  150.83299255    0.38000000    2.75000000
   16.30888748  140.43800354    0.38000000    2.75000000
   16.31222153  152.34800720    0.38000000    2.75000000
   16.31527710  157.26899719    0.38000000    2.75000000
   16.31861115  150.56199646    0.38000000    2.75000000
   16.32166672  124.98200226    0.36000001    2.76999998
   16.32222366  148.30299377    0.36000001    2.76999998
   16.32555580  151.26400757    0.38000000    2.76999998
   16.32861137  143.97399902    0.36000001    2.76999998
   16.33194542  147.68699646    0.38000000    2.76999998
   16.33527756  144.48800659    0.36000001    2.76999998
   16.34111214  144.48800659    0.38000000    2.75000000
   16.34527779  145.64399719    0.36000001    2.76999998
   16.34861183  152.70500183    0.36000001    2.76999998
   16.35166740  138.63499451    0.36000001    2.76999998
   16.35499954  145.95100403    0.36000001    2.76999998
   16.35555649  130.44099426    0.36000001    2.75000000
   16.35888863  144.37199402    0.36000001    2.76999998
   16.36194420  146.46699524    0.34000000    2.76999998
   16.36527824  131.34100342    0.34000000    2.76999998
   16.36861038  138.20399475    0.34000000    2.76999998
   16.37166595  142.86099243    0.34000000    2.76999998
   16.37500000  153.65100098    0.34000000    2.76999998
   16.37805557  147.71200562    0.34000000    2.76999998
   16.38416672  147.71200562    0.36000001    2.76999998
   16.38833237  144.43400574    0.34000000    2.76999998
   16.38888931  144.86799622    0.34000000    2.76999998
   16.39222145  144.42100525    0.36000001    2.76999998
   16.39527702  154.08799744    0.34000000    2.76999998
   16.39861107  147.07200623    0.34000000    2.76999998
   16.40194321  151.81700134    0.34000000    2.76999998
   16.40499878  145.35099792    0.34000000    2.76999998
   16.40833282  144.90400696    0.34000000    2.76999998
   16.41138840  145.44000244    0.36000001    2.76999998
   16.41472244  144.29100037    0.36000001    2.76999998
   16.41805458  149.22300720    0.36000001    2.76999998
   16.42111015  159.44500732    0.36000001    2.75000000
   16.42166519  143.80999756    0.36000001    2.75000000
   16.42694473  143.80999756    0.36000001    2.75000000
   16.43111038  148.50300598    0.36000001    2.76999998
   16.43416595  145.16200256    0.36000001    2.75000000
   16.43750000  153.98899841    0.36000001    2.76999998
   16.44083214  127.81700134    0.36000001    2.78999996
   16.44388771  141.38400269    0.36000001    2.76999998
   16.44722176  147.52000427    0.36000001    2.76999998
   16.45055580  146.67300415    0.36000001    2.75000000
   16.45361137  143.99000549    0.38000000    2.76999998
   16.45499992  150.38999939    0.38000000    2.76999998
   16.45722389  158.93600464    0.36000001    2.76999998
   16.46055603  165.74200439    0.36000001    2.76999998
   16.46361160  143.55599976    0.36000001    2.76999998
   16.46972275  143.55599976    0.36000001    2.75000000
   16.47389030  147.52699280    0.38000000    2.76999998
   16.47722244  163.46000671    0.38000000    2.76999998
   16.48027802  144.55599976    0.38000000    2.78999996
   16.48361206  152.49699402    0.40000001    2.75000000
   16.48666763  165.08500671    0.40000001    2.76999998
   16.48833275  161.02600098    0.40000001    2.76999998
   16.49055672  149.07699585    0.40000001    2.75000000
   16.49388885  156.71600342    0.40000001    2.76999998
   16.49694443  146.35800171    0.40000001    2.76999998
   16.50027847  162.46600342    0.40000001    2.75000000
   16.50361061  150.08500671    0.41999999    2.75000000
   16.50666618  146.33200073    0.41999999    2.76999998
   16.51250076  146.33200073    0.40000001    2.76999998
   16.51666641  160.19000244    0.40000001    2.76999998
   16.52000046  153.51300049    0.41999999    2.76999998
   16.52166557  159.92799377    0.67000002    2.76999998
   16.52361107  196.60299683    4.90999985    2.69000006
   16.52694511  181.81799316    4.90999985    2.53999996
   16.53000069  173.67599487    4.90999985    2.67000008
   16.53333282  164.11300659    4.90999985    2.61999989
   16.53666687  135.21000671    4.90999985    2.69000006
   16.53972244  156.41200256    4.90999985    2.69000006
   16.54305458  147.02299500    4.90999985    2.73000002
   16.54611015  148.07299805    4.28999996    2.75000000
   16.54944420  146.48800659    1.88000000    2.76999998
   16.55555534  146.48800659    0.36000001    2.76999998
   16.55944443  142.84800720    0.36000001    2.76999998
   16.56277657  136.25599670    0.36000001    2.76999998
   16.56611061  150.16900635    0.38000000    2.76999998
   16.56916809  144.82299805    0.36000001    2.76999998
   16.57250023  145.52699280    0.36000001    2.76999998
   16.57583427  131.53199768    0.36000001    2.76999998
   16.57888985  142.59100342    0.36000001    2.76999998
   16.58222389  148.91600037    0.36000001    2.75000000
   16.58527756  147.71299744    0.38000000    2.76999998
   16.58833313  149.18299866    0.41999999    2.76999998
   16.58889008  145.88499451    0.41999999    2.76999998
   16.59222221  137.58999634    0.41999999    2.76999998
   16.59833336  137.58999634    0.41999999    2.76999998
   16.60250092  132.99000549    0.41999999    2.75000000
   16.60555649  138.07400513    0.41999999    2.76999998
   16.60888863  139.59399414    0.41999999    2.76999998
   16.61222267  138.36500549    0.41999999    2.75000000
   16.61527824  132.21099854    0.41999999    2.75000000
   16.61861038  136.79200745    0.41999999    2.75000000
   16.62166595  142.81599426    0.44000000    2.76999998
   16.62222290  139.33399963    0.44000000    2.76999998
   16.62555504  148.65699768    0.44000000    2.75000000
   16.62861061  137.68699646    0.44000000    2.75000000
   16.63194466  145.16799927    0.44000000    2.75000000
   16.63527679  144.59700012    0.44000000    2.73000002
   16.64111137  144.59700012    0.44000000    2.75000000
   16.64527702  135.62800598    0.44000000    2.75000000
   16.64861107  148.86599731    0.41999999    2.76999998
   16.65166664  151.70899963    0.41999999    2.76999998
   16.65499878  133.56700134    0.41999999    2.76999998
   16.65555573  139.97399902    0.41999999    2.75000000
   16.65861130  142.88699341    0.41999999    2.75000000
   16.66194344  139.87199402    0.40000001    2.76999998
   16.66527748  137.11300659    0.40000001    2.76999998
   16.66833305  143.94000244    0.40000001    2.76999998
   16.67166519  136.96299744    0.40000001    2.76999998
   16.67499924  140.16900635    0.40000001    2.75000000
   16.67805481  134.54899597    0.40000001    2.78999996
   16.68388748  134.54899597    0.38000000    2.76999998
   16.68805504  139.12800598    0.38000000    2.78999996
   16.68888855  144.89900208    0.38000000    2.78999996
   16.69166565  142.92100525    0.36000001    2.76999998
   16.69499969  139.16700745    0.36000001    2.76999998
   16.69833183  141.28399658    0.36000001    2.75000000
   16.70138931  146.82600403    0.36000001    2.76999998
   16.70472336  144.81100464    0.36000001    2.76999998
   16.70805550  154.01199341    0.36000001    2.76999998
   16.71111107  134.82400513    0.38000000    2.76999998
   16.71444511  138.12899780    0.36000001    2.76999998
   16.71777916  145.03599548    0.38000000    2.76999998
   16.72083473  145.62399292    0.36000001    2.76999998
   16.72222328  141.75999451    0.36000001    2.76999998
   16.72694588  141.75999451    0.36000001    2.76999998
   16.73083305  134.18200684    0.38000000    2.76999998
   16.73416710  144.22399902    0.38000000    2.76999998
   16.73750114  142.94900513    0.38000000    2.76999998
   16.74055672  146.87199402    0.38000000    2.76999998
   16.74388885  144.15499878    0.36000001    2.76999998
   16.74722290  128.15800476    0.36000001    2.76999998
   16.75027847  135.11999512    0.36000001    2.76999998
   16.75361061  136.68800354    0.36000001    2.76999998
   16.75555611  133.92199707    0.36000001    2.76999998
   16.75722313  144.44200134    0.36000001    2.76999998
   16.76055527  127.50499725    0.38000000    2.76999998
   16.76388931  137.37899780    0.38000000    2.76999998
   16.76972198  137.37899780    0.38000000    2.76999998
   16.77388954  135.93099976    0.40000001    2.75000000
   16.77694511  134.64999390    0.41999999    2.76999998
   16.78027725  132.02699280    0.41999999    2.76999998
   16.78361130  132.95799255    0.41999999    2.75000000
   16.78666687  139.18499756    0.44000000    2.76999998
   16.78888893  135.43400574    0.44000000    2.76999998
   16.79027748  133.26199341    0.46000001    2.76999998
   16.79361153  139.74200439    0.46000001    2.78999996
   16.79694366  135.90400696    0.46000001    2.76999998
   16.79999924  126.34300232    0.50000000    2.75000000
   16.80333328  134.92900085    0.50000000    2.75000000
   16.80666542  126.99199677    0.52999997    2.76999998
   16.81250000  126.99199677    0.55000001    2.75000000
   16.81666756  135.18200684    0.55000001    2.75000000
   16.82000160  136.95599365    0.55000001    2.76999998
   16.82222366  136.62300110    0.56999999    2.75000000
   16.82361221  135.75199890    0.58999997    2.76999998
   16.82666779  129.78599548    0.58999997    2.75000000
   16.83000183  136.38299561    0.61000001    2.75000000
   16.83305550  143.80299377    0.61000001    2.75000000
   16.83638954  138.28900146    0.61000001    2.76999998
   16.83972359  144.94700623    0.61000001    2.75000000
   16.84277916  151.39399719    0.63000000    2.75000000
   16.84611130  136.02600098    0.64999998    2.75000000
   16.84944534  132.64700317    0.67000002    2.75000000
   16.85527802  132.64700317    0.70999998    2.75000000
   16.87361145  137.70399475    0.81999999    2.75000000
   16.87694550  136.62899780    0.83999997    2.75000000
   16.88027763  134.96400452    0.83999997    2.75000000
   16.88333321  120.80000305    0.81999999    2.75000000
   16.88666725  150.81199646    0.81999999    2.75000000
   16.88999939  141.07000732    0.80000001    2.75000000
   16.89027786  141.03999329    0.80000001    2.75000000
   16.89333344  136.71600342    0.80000001    2.75000000
   16.89833260  136.71600342    0.80000001    2.75000000
   16.90250015  128.45899963    0.79000002    2.75000000
   16.90583229  126.91400146    0.79000002    2.75000000
   16.90916634  141.94900513    0.80000001    2.75000000
   16.91222191  138.39599609    0.80000001    2.75000000
   16.91555595  136.85200500    0.80000001    2.75000000
   16.91860962  142.23899841    0.79000002    2.75000000
   16.92194366  127.74099731    0.76999998    2.75000000
   16.92361069  147.52400208    0.75000000    2.75000000
   16.92555428  129.32699585    0.75000000    2.75000000
   16.92888832  129.71699524    0.73000002    2.75000000
   16.93194389  132.75399780    0.73000002    2.75000000
   16.93527603  133.83000183    0.73000002    2.76999998
   16.94138718  133.83000183    0.75000000    2.75000000
   16.94555473  134.91000366    0.76999998    2.75000000
   16.94861031  134.00300598    0.80000001    2.75000000
   16.95194435  137.45899963    0.80000001    2.73000002
   16.95499992  133.14799500    0.81999999    2.76999998
   16.95722389  128.51600647    0.83999997    2.75000000
   16.95888901  137.11099243    0.83999997    2.75000000
   16.96194458  125.79100037    0.83999997    2.75000000
   16.96527863  135.41799927    0.83999997    2.75000000
   16.96861076  135.82000732    0.86000001    2.75000000
   16.97166634  135.11099243    0.86000001    2.75000000
   16.97500038  135.38200378    0.83999997    2.76999998
   16.97805595  130.18499756    0.86000001    2.75000000
   16.98416710  130.18499756    0.83999997    2.75000000
   16.98833275  135.53199768    0.83999997    2.75000000
   16.99055672  134.91299438    0.83999997    2.75000000
   16.99194527  126.05500031    0.81999999    2.75000000
   16.99500084  136.78700256    0.86000001    2.75000000
   16.99833298  130.96800232    0.88000000    2.75000000
   17.00166702  130.57200623    0.88000000    2.75000000
   17.00472260  125.26499939    0.89999998    2.75000000
   17.00805473  134.34599304    0.88000000    2.76999998
   17.01138878  139.60099792    0.81999999    2.75000000
   17.01444435  151.89199829    0.80000001    2.75000000
   17.01777840  129.32699585    0.80000001    2.75000000
   17.02083397  142.08500671    0.83999997    2.76999998
   17.02694511  142.08500671    0.86000001    2.75000000
   17.03111076  138.36700439    0.88000000    2.75000000
   17.03444481  127.77500153    0.92000002    2.75000000
   17.03750038  132.71099854    0.94000000    2.75000000
   17.04083252  129.46800232    0.95999998    2.75000000
   17.04416656  132.81500244    0.98000002    2.75000000
   17.04722214  137.08299255    0.98000002    2.75000000
   17.05055428  135.02000427    0.94000000    2.76999998
   17.05388832  130.14999390    0.94000000    2.75000000
   17.05694389  134.03700256    0.94000000    2.75000000
   17.05777740  137.45799255    0.94000000    2.75000000
   17.06055450  125.58999634    0.94000000    2.75000000
   17.06388855  128.52299500    0.94000000    2.75000000
   17.06972313  128.52299500    0.94000000    2.75000000
   17.07389069  124.13200378    0.95999998    2.75000000
   17.07722282  126.25299835    0.95999998    2.75000000
   17.08055687  126.65899658    0.95999998    2.75000000
   17.08361244  109.73300171    0.95999998    2.75000000
   17.08694458  129.64500427    0.98000002    2.73000002
   17.09000015  122.10800171    0.98000002    2.73000002
   17.09111214  134.08700562    1.01999998    2.73000002
   17.09361267  121.10099792    1.01999998    2.73000002
   17.09694481  133.59300232    1.01999998    2.75000000
   17.10000038  127.09700012    1.03999996    2.75000000
   17.10333443  137.66099548    1.01999998    2.75000000
   17.10666656  132.93600464    1.01999998    2.75000000
   17.11277771  132.93600464    0.98000002    2.75000000
   17.11694527  133.44400024    0.98000002    2.75000000
   17.12000084  123.23600006    1.00000000    2.75000000
   17.12333298  125.94699860    0.98000002    2.75000000
   17.12472153  129.57400513    1.00000000    2.75000000
   17.12694550  116.25700378    1.00000000    2.75000000
   17.13027763  115.32599640    0.98000002    2.75000000
   17.13361168  135.91400146    1.01999998    2.76999998
   17.13694382  113.26300049    1.01999998    2.75000000
   17.13999939  111.74600220    1.01999998    2.75000000
   17.14333344  121.26699829    1.03999996    2.73000002
   17.14638901  124.05100250    1.03999996    2.73000002
   17.14972115  130.87600708    1.07000005    2.75000000
   17.15555573  130.87600708    1.19000006    2.75000000
   17.15972137  110.53900146    1.28999996    2.75000000
   17.16277695  124.56099701    1.26999998    2.75000000
   17.16611099  127.23999786    1.19000006    2.75000000
   17.16944313  122.76399994    1.19000006    2.75000000
   17.17249870  116.93099976    1.13000000    2.76999998
   17.17583275  137.81100464    1.11000001    2.75000000
   17.17916679  131.47500610    1.05999994    2.75000000
   17.18222237  113.82900238    1.03999996    2.75000000
   17.18555450  116.57099915    1.01999998    2.75000000
   17.18861008  101.93599701    1.01999998    2.75000000
   17.19138718  122.14700317    1.01999998    2.75000000
   17.19249916  125.27999878    1.01999998    2.75000000
   17.19833183  125.27999878    1.05999994    2.75000000
   17.20250130  117.27200317    1.05999994    2.75000000
   17.20583344  115.38700104    1.13000000    2.75000000
   17.20888901  111.54299927    1.16999996    2.75000000
   17.21222305  117.59899902    1.19000006    2.75000000
   17.21555710  110.43499756    1.21000004    2.75000000
   17.21861076  116.74700165    1.23000002    2.75000000
   17.22194481  122.68499756    1.25000000    2.75000000
   17.22472191  102.94599915    1.25000000    2.75000000
   17.22555542  116.51899719    1.25000000    2.75000000
   17.22888947  120.98899841    1.23000002    2.75000000
   17.23194504  110.68499756    1.16999996    2.75000000
   17.23527718  115.31500244    1.11000001    2.75000000
   17.24111176  115.31500244    1.09000003    2.75000000
   17.24527740  115.20400238    1.03999996    2.75000000
   17.24861145  107.55400085    1.01999998    2.73000002
   17.25194359  102.98799896    1.01999998    2.75000000
   17.25499916  117.72299957    1.00000000    2.75000000
   17.25805473  121.27899933    1.00000000    2.75000000
   17.25861168  117.70899963    0.98000002    2.75000000
   17.26194382  122.74199677    0.95999998    2.75000000
   17.26499939  118.63099670    0.94000000    2.73000002
   17.26833344  111.58999634    0.94000000    2.75000000
   17.27138901  115.70700073    0.94000000    2.75000000
   17.27472115  105.12599945    0.94000000    2.75000000
   17.27805519  112.57800293    0.94000000    2.75000000
   17.28416634  112.57800293    0.94000000    2.76999998
   17.28833199  108.94599915    0.94000000    2.75000000
   17.29138756  115.07900238    0.94000000    2.76999998
   17.29194450  107.93299866    0.94000000    2.75000000
   17.29527664  114.14399719    0.94000000    2.75000000
   17.29833221  112.94300079    0.92000002    2.75000000
   17.30166626  117.97299957    0.88000000    2.75000000
   17.30499840   99.45279694    0.88000000    2.75000000
   17.30805397  113.93900299    0.88000000    2.75000000
   17.31138802  110.46800232    0.88000000    2.75000000
   17.31472206  111.49800110    0.88000000    2.75000000
   17.31777954  120.69400024    0.86000001    2.76999998
   17.32111168  101.53099823    0.80000001    2.75000000
   17.32694626  101.53099823    0.75000000    2.76999998
   17.33111191  104.69200134    0.69000000    2.75000000
   17.33416748  116.71099854    0.58999997    2.75000000
   17.33750153  113.80599976    0.58999997    2.75000000
   17.34083366  116.30899811    0.61000001    2.75000000
   17.34388924  107.86799622    0.58999997    2.76999998
   17.34722328  113.19699860    0.58999997    2.75000000
   17.35055542  116.38600159    0.56999999    2.75000000
   17.35361099  126.40200043    0.56999999    2.76999998
   17.35694504  111.77999878    0.55000001    2.75000000
   17.35805511  114.66000366    0.55000001    2.75000000
   17.36055565  123.40799713    0.52999997    2.75000000
   17.36388969  115.57099915    0.52999997    2.75000000
   17.36972237  115.57099915    0.52999997    2.75000000
   17.37388992  122.75000000    0.52999997    2.75000000
   17.37722206  118.48200226    0.52999997    2.75000000
   17.38027763  120.15299988    0.51999998    2.76999998
   17.38361168  111.12699890    0.51999998    2.75000000
   17.38694382  115.04900360    0.50000000    2.75000000
   17.38999939  110.82700348    0.50000000    2.75000000
   17.39138794  125.63800049    0.50000000    2.75000000
   17.39361191  105.83699799    0.50000000    2.75000000
   17.39694405  127.34899902    0.52999997    2.76999998
   17.39999962  125.64199829    0.55000001    2.75000000
   17.40333366  125.40699768    0.55000001    2.75000000
   17.40666580  130.29200745    0.52999997    2.75000000
   17.41250038  130.29200745    0.50000000    2.75000000
   17.41666603  132.63099670    0.50000000    2.75000000
   17.42000008  121.01499939    0.47999999    2.75000000
   17.42333221  114.68099976    0.47999999    2.75000000
   17.42499924  119.35700226    0.50000000    2.75000000
   17.42694473  123.86399841    0.47999999    2.75000000
   17.43000031  117.76499939    0.47999999    2.76999998
   17.43333244  114.20099640    0.47999999    2.76999998
   17.43666649  136.64900208    0.47999999    2.75000000
   17.43972206  128.31599426    0.46000001    2.75000000
   17.44305420  124.48000336    0.46000001    2.75000000
   17.44638824  118.23300171    0.46000001    2.75000000
   17.44944382  113.98600006    0.46000001    2.75000000
   17.45555687  113.98600006    0.46000001    2.76999998
   17.45972252  118.29499817    0.46000001    2.75000000
   17.46277809  121.96399689    0.46000001    2.76999998
   17.46611214  118.03900146    0.46000001    2.76999998
   17.46944427  119.16899872    0.44000000    2.75000000
   17.47249985  120.85399628    0.44000000    2.75000000
   17.47583389  118.25700378    0.46000001    2.75000000
   17.47888947  117.59999847    0.44000000    2.75000000
   17.48222351  124.09200287    0.41999999    2.76999998
   17.48555565  124.27600098    0.41999999    2.75000000
   17.48861122  117.91899872    0.41999999    2.76999998
   17.49166679  126.13899994    0.40000001    2.75000000
   17.49250031  123.93699646    0.40000001    2.76999998
   17.49833298  123.93699646    0.40000001    2.75000000
   17.50250053  125.70600128    0.38000000    2.76999998
   17.50555611  114.72699738    0.38000000    2.75000000
   17.50888824  116.66500092    0.40000001    2.76999998
   17.51222229  115.94300079    0.36000001    2.75000000
   17.51527786  126.55100250    0.36000001    2.76999998
   17.51861000  116.29900360    0.36000001    2.76999998
   17.52194405  117.50000000    0.36000001    2.75000000
   17.52499962  120.96399689    0.36000001    2.75000000
   17.52555466  134.41600037    0.36000001    2.75000000
   17.52861023  129.60400391    0.38000000    2.75000000
   17.53194427  121.84999847    0.36000001    2.75000000
   17.53527641  125.31999969    0.38000000    2.76999998
   17.54111099  125.31999969    0.38000000    2.75000000
   17.54527664  121.52300262    0.36000001    2.75000000
   17.54861069  113.22699738    0.38000000    2.75000000
   17.55166626  113.42299652    0.41999999    2.75000000
   17.55499840  115.32499695    0.46000001    2.75000000
   17.55833244  126.15599823    0.41999999    2.75000000
   17.55861092  124.92199707    0.41999999    2.75000000
   17.56194305  115.71099854    0.41999999    2.76999998
   17.56527710  116.77500153    0.41999999    2.75000000
   17.56833458  127.23999786    0.40000001    2.76999998
   17.57166672  114.11199951    0.40000001    2.75000000
   17.57500076  126.37699890    0.40000001    2.75000000
   17.57805634  115.26599884    0.40000001    2.75000000
   17.58388901  115.26599884    0.40000001    2.75000000
   17.58805656  119.52400208    0.58999997    2.75000000
   17.59138870  118.70600128    0.56999999    2.76999998
   17.59222221  113.34700012    0.56999999    2.76999998
   17.59500122  112.44100189    0.56999999    2.75000000
   17.59833336  133.61500549    0.55000001    2.75000000
   17.60138893  127.52700043    0.52999997    2.75000000
   17.60472298  125.16899872    0.50000000    2.75000000
   17.60805511  129.05499268    0.55000001    2.75000000
   17.61111069  119.13099670    0.55000001    2.75000000
   17.61444473  118.73100281    0.61000001    2.75000000
   17.61777878  118.46399689    0.63000000    2.75000000
   17.62083435  113.64800262    0.61000001    2.75000000
   17.62694550  113.64800262    0.61000001    2.75000000
   17.63111115  124.82099915    0.52999997    2.75000000
   17.63416672  124.02100372    0.50000000    2.75000000
   17.63750076  112.28099823    0.44000000    2.75000000
   17.64055634  115.94100189    0.40000001    2.76999998
   17.64388847  121.71499634    0.40000001    2.75000000
   17.64722252  116.11799622    0.38000000    2.75000000
   17.65027809  115.11100006    0.40000001    2.75000000
   17.65361023  115.36399841    0.40000001    2.75000000
   17.65694427  117.41400146    0.40000001    2.75000000
   17.65888786  109.39700317    0.40000001    2.75000000
   17.66055489  115.39199829    0.38000000    2.75000000
   17.66388893  113.12799835    0.38000000    2.75000000
   17.66972160  113.12799835    0.36000001    2.75000000
   17.67388916  116.45999908    0.38000000    2.75000000
   17.67694473  116.19400024    0.36000001    2.75000000
   17.68027687  118.74700165    0.36000001    2.76999998
   17.68361092  131.05299377    0.38000000    2.75000000
   17.68666649  124.56500244    0.36000001    2.75000000
   17.68999863  127.09700012    0.36000001    2.75000000
   17.69222069  120.33000183    0.34000000    2.76999998
   17.69361115  118.77999878    0.34000000    2.76999998
   17.69694328  119.79299927    0.34000000    2.75000000
   17.70000076  120.36000061    0.34000000    2.75000000
   17.70333481  109.79000092    0.34000000    2.75000000
   17.70666695  120.99299622    0.31999999    2.75000000
   17.71250153  120.99299622    0.34000000    2.75000000
   17.71666718  121.81400299    0.34000000    2.75000000
   17.72000122  112.64199829    0.34000000    2.75000000
   17.72305679  120.98799896    0.34000000    2.75000000
   17.72555542  128.89399719    0.36000001    2.75000000
   17.72666740  119.39399719    0.36000001    2.75000000
   17.73000145  117.27799988    0.34000000    2.75000000
   17.73305511  116.66400146    0.34000000    2.75000000
   17.73638916  124.70600128    0.34000000    2.75000000
   17.73972321  126.98300171    0.31999999    2.75000000
   17.74277878  129.74099731    0.34000000    2.75000000
   17.74611092  126.77999878    0.34000000    2.75000000
   17.74944496  119.12500000    0.31999999    2.75000000
   17.75527763  119.12500000    0.31999999    2.75000000
   17.75944519  124.24199677    0.34000000    2.75000000
   17.76277733  123.41200256    0.34000000    2.75000000
   17.76611137  125.35099792    0.31999999    2.75000000
   17.76916695  117.31999969    0.31999999    2.75000000
   17.77249908  117.25800323    0.31999999    2.75000000
   17.77555466  119.79499817    0.31999999    2.75000000
   17.77888870  124.91000366    0.31999999    2.75000000
   17.78222275  126.71199799    0.31999999    2.75000000
   17.78527641  130.85600281    0.31999999    2.75000000
   17.78861046  121.54000092    0.31999999    2.75000000
   17.79194450  135.07099915    0.31999999    2.75000000
   17.79222107  123.59300232    0.31999999    2.76999998
   17.79833221  123.59300232    0.31999999    2.75000000
   17.80222130  124.78900146    0.34000000    2.75000000
   17.80555534  128.19599915    0.34000000    2.75000000
   17.80888748  121.44599915    0.34000000    2.75000000
   17.81194305  118.01399994    0.34000000    2.75000000
   17.81527710  114.95300293    0.34000000    2.75000000
   17.81861115  115.24800110    0.34000000    2.75000000
   17.82166672  126.32499695    0.34000000    2.75000000
   17.82500076  116.46600342    0.36000001    2.75000000
   17.82555580  117.09100342    0.36000001    2.75000000
   17.82861137  118.93199921    0.34000000    2.75000000
   17.83194542  112.18900299    0.34000000    2.75000000
   17.83500099  118.63200378    0.34000000    2.75000000
   17.84111214  118.63200378    0.36000001    2.73000002
   17.84527779  124.84899902    0.36000001    2.75000000
   17.84833336  117.71099854    0.36000001    2.75000000
   17.85166740  117.62400055    0.36000001    2.75000000
   17.85499954  122.70700073    0.38000000    2.75000000
   17.85805511  129.12899780    0.38000000    2.75000000
   17.85916710  122.62999725    0.38000000    2.75000000
   17.86166763  128.06700134    0.38000000    2.75000000
   17.86499977  126.92700195    0.36000001    2.73000002
   17.86805534  114.57700348    0.34000000    2.73000002
   17.87138939  129.30799866    0.36000001    2.75000000
   17.89416695  129.30799866    0.36000001    2.73000002
   17.89833260  134.99600220    0.34000000    2.73000002
   17.90166664  130.20599365    0.34000000    2.75000000
   17.90472221  131.89500427    0.34000000    2.73000002
   17.90805435  131.53199768    0.36000001    2.73000002
   17.91138840  139.80099487    0.36000001    2.73000002
   17.91444397  131.97599792    0.36000001    2.73000002
   17.91777802  143.10600281    0.36000001    2.75000000
   17.92083359  121.61299896    0.36000001    2.75000000
   17.92416573  118.11100006    0.36000001    2.75000000
   17.92583275  133.05099487    0.36000001    2.75000000
   17.92805481  131.45599365    0.36000001    2.75000000
   17.93111038  116.46800232    0.36000001    2.73000002
   17.93722153  116.46800232    0.38000000    2.73000002
   17.94138718  128.10400391    0.36000001    2.73000002
   17.94444275  128.27799988    0.50000000    2.75000000
   17.94777679  126.43499756    1.28999996    2.75000000
   17.95083427  120.88899994    2.82999992    2.71000004
   17.95416832  133.54100037    4.05999994    2.73000002
   17.95750046  129.23599243    3.91000009    2.73000002
   17.95916748  135.64100647    2.80999994    2.71000004
   17.96111107  132.12100220    2.40000010    2.75000000
   17.96416664  125.37699890    0.86000001    2.75000000
   17.96750069  133.46299744    1.09000003    2.75000000
   17.97055626  142.85099792    2.51999998    2.73000002
   17.97389030  139.23899841    3.26999998    2.71000004
   17.97972298  139.23899841    4.73999977    2.71000004
   17.98388863  140.06199646    4.90999985    2.67000008
   17.98722267  141.60400391    4.90999985    2.69000006
   17.99027824  136.50599670    4.80999994    2.71000004
   17.99250031  135.91499329    4.53000021    2.69000006
   17.99416733  135.50100708    4.53000021    2.69000006
   17.99722290  132.05499268    1.63000000    2.73000002
   18.00055504  136.40499878    1.46000004    2.73000002
   18.00388908  131.26800537    1.34000003    2.73000002
   18.00694466  130.79499817    0.81999999    2.73000002
   18.01027870  136.85000610    0.36000001    2.73000002
   18.01361084  136.43800354    0.34000000    2.73000002
   18.01666641  137.67900085    0.34000000    2.73000002
   18.02277756  137.67900085    0.34000000    2.75000000
   18.02666664  140.76100159    0.34000000    2.73000002
   18.03000069  117.18000031    0.34000000    2.73000002
   18.03333282  143.69200134    0.34000000    2.73000002
   18.03638840  131.13400269    0.34000000    2.73000002
   18.03972244  131.35400391    0.34000000    2.73000002
   18.04305458  138.45399475    0.34000000    2.73000002
   18.04611015  133.06100464    0.36000001    2.73000002
   18.04944420  134.10800171    0.34000000    2.73000002
   18.05249977  140.71699524    0.34000000    2.73000002
   18.05583191  138.96299744    0.34000000    2.73000002
   18.05916595  138.01100159    0.34000000    2.73000002
   18.05972099  134.80200195    0.34000000    2.73000002
   18.06555557  134.80200195    0.36000001    2.75000000
   18.06972313  131.63800049    0.36000001    2.73000002
   18.07277870  134.21400452    0.36000001    2.73000002
   18.07611275  129.99299622    0.36000001    2.73000002
   18.07944489  127.74800110    0.36000001    2.73000002
   18.08250046  136.65600586    0.36000001    2.73000002
   18.08583450  128.11399841    0.36000001    2.75000000
   18.08889008  131.28599548    0.36000001    2.73000002
   18.09222221  128.97799683    0.36000001    2.73000002
   18.09305573  127.12599945    0.36000001    2.73000002
   18.09583473  133.03700256    0.36000001    2.75000000
   18.09916687  121.37300110    0.38000000    2.75000000
   18.10250092  136.26800537    0.36000001    2.73000002
   18.10833359  136.26800537    0.36000001    2.73000002
   18.11250114  126.82199860    0.36000001    2.73000002
   18.11583328  130.59800720    0.36000001    2.73000002
   18.11888885  136.51100159    0.36000001    2.75000000
   18.12222290  133.42599487    0.36000001    2.75000000
   18.12527847  148.56599426    0.38000000    2.73000002
   18.12638855  145.18200684    0.38000000    2.75000000
   18.12888908  144.54299927    1.16999996    2.73000002
   18.13222313  140.09700012    2.17000008    2.71000004
   18.13555527  141.06900024    2.00000000    2.75000000
   18.13861084  135.64500427    1.09000003    2.75000000
   18.14194489  145.65699768    1.46000004    2.73000002
   18.14500046  140.34199524    3.73000002    2.71000004
   18.15111160  140.34199524    4.36999989    2.71000004
   18.15527725  130.24000549    4.78000021    2.71000004
   18.15861130  139.33200073    4.90999985    2.71000004
   18.15972137  158.44200134    4.90999985    2.71000004
   18.16222191  140.41700745    4.90999985    2.69000006
   18.16555595  132.60099792    4.57999992    2.71000004
   18.16888809  127.90799713    4.90999985    2.89000010
   18.17194366  128.49099731    0.19000000    0.52999997
   18.17527771  121.46399689    0.11000000    0.31999999
   18.17833328  127.88700104    0.07000000    0.05000000
   18.18166542  128.40899658    0.07000000    0.05000000
   18.18499947  128.59300232    0.07000000    0.05000000
   18.18805504  134.00100708    0.07000000    0.05000000
   18.19416618  134.00100708    0.07000000    0.05000000
   18.19805527  121.30100250    0.07000000    0.05000000
   18.20138931  134.30499268    0.07000000    0.05000000
   18.20472336  123.37799835    0.07000000    0.05000000
   18.20777893  128.51100159    0.07000000    0.05000000
   18.21111107  133.07899475    0.07000000    0.05000000
   18.21444511  141.57400513    0.07000000    0.05000000
   18.21750069  131.58999634    0.07000000    0.05000000
   18.22083473  136.38200378    0.07000000    0.05000000
   18.22389030  119.43599701    0.07000000    0.05000000
   18.22638893  126.56999969    0.07000000    0.05000000
   18.22750092  130.24400330    0.07000000    0.05000000
   18.23083305  130.34100342    0.07000000    0.05000000
   18.23694420  130.34100342    0.07000000    0.05000000
   18.24111176  139.61999512    0.07000000    0.05000000
   18.24444389  141.60299683    0.07000000    0.05000000
   18.24749947  126.72899628    0.07000000    0.05000000
   18.25083351  134.25399780    0.07000000    0.05000000
   18.25416756  141.03199768    0.07000000    0.05000000
   18.25722313  124.78399658    0.07000000    0.05000000
   18.25972176  157.23500061    0.07000000    0.05000000
   18.26083374  148.26400757    0.07000000    0.05000000
   18.26416588  155.37899780    0.07000000    0.05000000
   18.26749992  130.40199280    0.07000000    0.05000000
   18.27055550  141.61799622    0.07000000    0.05000000
   18.27388954  142.87800598    0.07000000    0.05000000
   18.27972221  142.87800598    0.07000000    0.05000000
   18.28388786  139.02400208    0.07000000    0.05000000
   18.28722191  145.37399292    0.07000000    0.05000000
   18.29027748  133.22200012    0.07000000    0.05000000
   18.29305458  146.24200439    0.07000000    0.05000000
   18.29388809  140.56700134    0.07000000    0.05000000
   18.29722214  143.38900757    0.07000000    0.05000000
   18.30055428  160.07600403    0.07000000    0.05000000
   18.30360985  143.84800720    0.07000000    0.05000000
   18.30694389  146.34100342    0.07000000    0.05000000
   18.30999947  166.46000671    0.07000000    0.05000000
   18.31333351  128.84199524    0.07000000    0.05000000
   18.31666756  132.54499817    0.07000000    0.05000000
   18.32250023  132.54499817    0.07000000    0.05000000
   18.32666779  145.12100220    0.07000000    0.05000000
   18.33000183  148.43099976    0.07000000    0.05000000
   18.33305550  133.02499390    0.07000000    0.05000000
   18.33638954  128.24099731    0.07000000    0.05000000
   18.33972359  128.63499451    0.07000000    0.05000000
   18.34277916  126.29799652    0.07000000    0.05000000
   18.34611130  131.73399353    0.07000000    0.05000000
   18.34944534  140.28500366    0.07000000    0.05000000
   18.35250092  129.63299561    0.07000000    0.05000000
   18.35583305  145.94599915    0.07000000    0.05000000
   18.35888863  145.54600525    0.07000000    0.05000000
   18.35972214  142.27699280    0.07000000    0.05000000
   18.36555672  142.27699280    0.07000000    0.05000000
   18.36944389  136.57600403    0.07000000    0.05000000
   18.37277794  148.32600403    0.07000000    0.05000000
   18.37611198  146.00900269    0.07000000    0.05000000
   18.37916756  130.88699341    0.07000000    0.05000000
   18.38249969  140.07299805    0.07000000    0.05000000
   18.38583374  130.88099670    0.07000000    0.05000000
   18.38888931  134.55799866    0.07000000    0.05000000
   18.39222145  135.82000732    0.07000000    0.05000000
   18.39305496  132.00799561    0.07000000    0.05000000
   18.39555550  144.06300354    0.07000000    0.05000000
   18.39888954  137.62100220    0.07000000    0.05000000
   18.40222168  138.81599426    0.07000000    0.05000000
   18.40833282  138.81599426    0.07000000    0.05000000
   18.41250038  152.47599792    0.07000000    0.05000000
   18.41555595  137.57099915    0.07000000    0.05000000
   18.41888809  151.90100098    0.07000000    0.05000000
   18.42222214  149.53599548    0.07000000    0.05000000
   18.42527771  145.27900696    0.07000000    0.05000000
   18.42638779  162.02699280    0.07000000    0.05000000
   18.42888832  147.44299316    0.07000000    0.05000000
   18.43222237  134.91600037    0.07000000    0.05000000
   18.43555450  151.00500488    0.07000000    0.05000000
   18.43861008  170.32499695    0.07000000    0.05000000
   18.44194412  154.79400635    0.07000000    0.05000000
   18.44527626  159.84599304    0.07000000    0.05000000
   18.45111275  159.84599304    0.07000000    0.05000000
   18.45527840  134.19099426    0.07000000    0.05000000
   18.45861244  143.48699951    0.07000000    0.05000000
   18.45972252  151.58299255    0.07000000    0.05000000
   18.46194458  137.24499512    0.07000000    0.05000000
   18.46527863  149.07000732    0.07000000    0.05000000
   18.46861076  134.27099609    0.07000000    0.05000000
   18.47166634  136.78599548    0.07000000    0.05000000
   18.47500038  132.67799377    0.07000000    0.05000000
   18.47833443  125.80699921    0.07000000    0.05000000
   18.48139000  131.98300171    0.07000000    0.05000000
   18.48472214  133.93699646    0.07000000    0.05000000
   18.48777771  151.70300293    0.07000000    0.05000000
   18.49388885  151.70300293    0.07000000    0.05000000
   18.49805641  142.24200439    0.07000000    0.05000000
   18.50138855  127.91200256    0.07000000    0.05000000
   18.50444412  136.71499634    0.07000000    0.05000000
   18.50777817  131.24699402    0.07000000    0.05000000
   18.51111031  132.56900024    0.07000000    0.05000000
   18.51416588  126.80100250    0.07000000    0.05000000
   18.51749992  126.30200195    0.07000000    0.05000000
   18.52083397  149.08000183    0.07000000    0.05000000
   18.52388954  125.19799805    0.07000000    0.05000000
   18.52638817  142.80700684    0.07000000    0.05000000
   18.52750015  128.30200195    0.07000000    0.05000000
   18.53083229  142.05200195    0.07000000    0.05000000
   18.53694344  142.05200195    0.07000000    0.05000000
   18.54083252  126.48300171    0.07000000    0.05000000
   18.54416656  146.34800720    0.07000000    0.05000000
   18.54749870  136.20100403    0.07000000    0.05000000
   18.55055428  135.94599915    0.07000000    0.05000000
   18.55388832  145.43699646    0.07000000    0.05000000
   18.55722237  142.66400146    0.07000000    0.05000000
   18.55972099  137.68099976    0.07000000    0.05000000
   18.56055450  138.56799316    0.07000000    0.05000000
   18.56388855  153.29600525    0.07000000    0.05000000
   18.56722260  132.69200134    0.07000000    0.05000000
   18.57027817  148.07299805    0.07000000    0.05000000
   18.57361221  130.62100220    0.07000000    0.05000000
   18.57972336  130.62100220    0.07000000    0.05000000
   18.58388901  150.37899780    0.07000000    0.05000000
   18.58694458  137.90800476    0.07000000    0.05000000
   18.59027863  139.14999390    0.07000000    0.05000000
   18.59305573  141.23599243    0.07000000    0.05000000
   18.59388924  138.70199585    0.07000000    0.05000000
   18.59722328  152.09599304    0.07000000    0.05000000
   18.60055542  165.77900696    0.07000000    0.05000000
   18.60361099  130.48100281    0.07000000    0.05000000
   18.60694504  155.11599731    0.07000000    0.05000000
   18.61027908  143.54299927    0.07000000    0.05000000
   18.61333466  156.68800354    0.07000000    0.05000000
   18.61666679  152.69999695    0.07000000    0.05000000
   18.62249947  152.69999695    0.07000000    0.05000000
   18.62666702  159.70700073    0.07000000    0.05000000
   18.63000107  162.20199585    0.07000000    0.05000000
   18.63305473  147.73199463    0.07000000    0.05000000
   18.63638878  165.67999268    0.07000000    0.05000000
   18.63944435  151.75399780    0.07000000    0.05000000
   18.64277840  167.00999451    0.07000000    0.05000000
   18.64611053  186.80000305    0.07000000    0.05000000
   18.64916611  167.17700195    0.07000000    0.05000000
   18.65250015  172.27400208    0.07000000    0.05000000
   18.65583229  153.00799561    0.07000000    0.05000000
   18.65888786  218.97599792    0.07000000    0.05000000
   18.65972137  217.97300720    0.07000000    0.05000000
   18.66527748  217.97300720    0.07000000    0.05000000
   18.66944313  175.51199341    0.07000000    0.05000000
   18.67277718  156.55400085    0.07000000    0.05000000
   18.67583275  167.66099548    0.07000000    0.05000000
   18.67916679  178.05700684    0.07000000    0.05000000
   18.68249893  182.85400391    0.07000000    0.05000000
   18.68555450  163.42900085    0.07000000    0.05000000
   18.68888855  152.84800720    0.07000000    0.05000000
   18.69222069  168.96600342    0.07000000    0.05000000
   18.69305420  182.52900696    0.07000000    0.05000000
   18.69583321  157.32600403    0.07000000    0.05000000
   18.69888878  177.92500305    0.07000000    0.05000000
   18.70222282  159.63600159    0.07000000    0.05000000
   18.70833397  159.63600159    0.07000000    0.05000000
   18.71222305  161.68600464    0.07000000    0.05000000
   18.71555710  123.11000061    0.07000000    0.05000000
   18.71888924  149.60699463    0.07000000    0.05000000
   18.72194481  164.47700500    0.07000000    0.05000000
   18.72527885  146.32800293    0.07000000    0.05000000
   18.72638893  170.96800232    0.07000000    0.05000000
   18.72888947  164.60899353    0.07000000    0.05000000
   18.73194504  139.75500488    0.07000000    0.05000000
   18.73527718  137.52499390    0.07000000    0.05000000
   18.73833275  167.91099548    0.07000000    0.05000000
   18.74166679  126.06700134    0.07000000    0.05000000
   18.74500084  151.63200378    0.07000000    0.05000000
   18.75111198  151.63200378    0.07000000    0.05000000
   18.75527763  160.56399536    0.07000000    0.05000000
   18.75833321  147.66900635    0.07000000    0.05000000
   18.75972176  166.50500488    0.07000000    0.05000000
   18.76222229  150.30099487    0.07000000    0.05000000
   18.76527786  160.38499451    0.07000000    0.05000000
   18.76861000  167.71499634    0.07000000    0.05000000
   18.77194405  159.39500427    0.07000000    0.05000000
   18.77499962  174.60299683    0.07000000    0.05000000
   18.77833366  158.15199280    0.07000000    0.05000000
   18.78138924  139.66600037    0.07000000    0.05000000
   18.78472137  154.90499878    0.07000000    0.05000000
   18.78805542  173.64399719    0.07000000    0.05000000
   18.79388809  173.64399719    0.07000000    0.05000000
   18.79805565  159.88800049    0.07000000    0.05000000
   18.80138779  142.58200073    0.07000000    0.05000000
   18.80444336  165.86099243    0.07000000    0.05000000
   18.80777740  150.81500244    0.07000000    0.05000000
   18.81083298  174.84300232    0.07000000    0.05000000
   18.81416512  157.61999512    0.07000000    0.05000000
   18.81750107  143.64300537    0.07000000    0.05000000
   18.82055664  143.11700439    0.07000000    0.05000000
   18.82389069  147.06399536    0.07000000    0.05000000
   18.82638931  129.11799622    0.07000000    0.05000000
   18.82750130  144.34399414    0.07000000    0.05000000
   18.83055687  131.23800659    0.07000000    0.05000000
   18.83666801  131.23800659    0.07000000    0.05000000
   18.84083366  147.94400024    0.07000000    0.05000000
   18.84416771  170.88900757    0.07000000    0.05000000
   18.84749985  156.59399414    0.07000000    0.05000000
   18.85055542  145.58500671    0.07000000    0.05000000
   18.85388947  155.29699707    0.07000000    0.05000000
   18.85694504  153.66400146    0.07000000    0.05000000
   18.85972214  136.69599915    0.07000000    0.05000000
   18.86083412  169.97700500    0.07000000    0.05000000
   18.86388969  136.01300049    0.07000000    0.05000000
   18.86722183  164.11500549    0.07000000    0.05000000
   18.87027740  151.79499817    0.07000000    0.05000000
   18.87361145  145.39900208    0.07000000    0.05000000
   18.87972260  145.39900208    0.07000000    0.05000000
   18.88388824  137.12699890    0.07000000    0.05000000
   18.88694382  124.92900085    0.07000000    0.05000000
   18.89027786  128.05299377    0.07000000    0.05000000
   18.90777779  131.82899475    0.07000000    0.05000000
   18.91027832  131.88499451    0.07000000    0.05000000
   18.91333389  136.06500244    0.07000000    0.05000000
   18.91666603  156.75700378    0.07000000    0.05000000
   18.92277718  156.75700378    0.07000000    0.05000000
   18.92666626  145.06500244    0.07000000    0.05000000
   18.93000031  150.19999695    0.07000000    0.05000000
   18.93333244  154.37800598    0.07000000    0.05000000
   18.93638802  145.22399902    0.07000000    0.05000000
   18.93972206  149.21499634    0.07000000    0.05000000
   18.94111061  159.27400208    0.07000000    0.05000000
   18.94333267  127.59100342    0.07000000    0.05000000
   18.94666672  139.40199280    0.07000000    0.05000000
   18.95000076  143.77299500    0.07000000    0.05000000
   18.95305634  134.69599915    0.07000000    0.05000000
   18.95639038  139.20199585    0.07000000    0.05000000
   18.95972252  138.61399841    0.07000000    0.05000000
   18.96555710  138.61399841    0.07000000    0.05000000
   18.96972275  150.60400391    0.07000000    0.05000000
   18.97277832  145.21699524    0.07000000    0.05000000
   18.97444534  136.89999390    0.07000000    0.05000000
   18.97638893  142.52299500    0.07000000    0.05000000
   18.97972298  138.99400330    0.07000000    0.05000000
   18.98305511  161.42500305    0.07000000    0.05000000
   18.98611069  155.56199646    0.07000000    0.05000000
   18.98944473  146.84199524    0.07000000    0.05000000
   18.99250031  170.02999878    0.07000000    0.05000000
   18.99583435  142.38000488    0.07000000    0.05000000
   18.99916649  154.24099731    0.07000000    0.05000000
   19.00222206  149.04100037    0.07000000    0.05000000
   19.00833321  149.04100037    0.07000000    0.05000000
   19.01250076  168.22900391    0.07000000    0.05000000
   19.01583290  256.09298706    0.07000000    0.05000000
   19.01888847  165.03799438    0.07000000    0.05000000
   19.02222252  165.13999939    0.07000000    0.05000000
   19.02555466  176.44799805    0.07000000    0.05000000
   19.02861023  174.13600159    0.07000000    0.05000000
   19.03194427  156.58700562    0.07000000    0.05000000
   19.03527641  163.88800049    0.07000000    0.05000000
   19.03833199  146.78199768    0.07000000    0.05000000
