    HOUR (UT)   FLARE FACTOR    SKY TESTER    SUN TESTER
   11.74305534   -1.00000000   -1.00000000   -1.00000000
   12.39527798  365.99099731    0.00000000    0.00000000
   12.39833355  336.32299805    0.00000000    0.00000000
   12.40166664  357.31100464    0.00000000    0.00000000
   12.40499973  351.63800049    0.00000000    0.00000000
   12.40805531  323.88500977    0.00000000    0.00000000
   12.41138840  313.76998901    0.00000000    0.00000000
   12.41555500  313.76998901    0.00000000    0.00000000
   12.41972256  278.80200195    4.90999985    1.89999998
   12.42277813  290.92898560    4.90999985    1.89999998
   12.42611122  293.05398560    4.90999985    1.89999998
   12.42861176  291.23699951    4.90999985    1.89999998
   12.42972279  294.76599121    4.90999985    1.89999998
   12.43305588  278.57400513    4.90999985    1.89999998
   12.43611145  269.58200073    4.90999985    1.89999998
   12.43944454  280.82901001    4.90999985    1.89999998
   12.44277763  276.72500610    4.90999985    1.89999998
   12.44583321  309.55099487    4.90999985    1.89999998
   12.44916630  292.28900146    4.90999985    1.89999998
   12.45249939  295.95498657    4.90999985    1.89999998
   12.45833302  295.95498657    4.90999985    1.89999998
   12.46249962  289.86700439    4.90999985    1.89999998
   12.46583271  290.32000732    4.90999985    1.89999998
   12.46888828  280.18600464    4.90999985    1.89999998
   12.47222137  275.33300781    4.90999985    1.89999998
   12.47527695  283.16400146    4.90999985    1.89999998
   12.47861099  279.95999146    4.90999985    1.89999998
   12.48194408  266.16198730    4.90999985    1.89999998
   12.48500061  259.88800049    4.90999985    1.89999998
   12.48833370  270.22100830    4.90999985    1.89999998
   12.49166679  263.19100952    4.90999985    1.89999998
   12.49472237  272.28298950    4.90999985    1.89999998
   12.49527836  266.14801025    4.90999985    1.89999998
   12.50111103  266.14801025    4.90999985    1.89999998
   12.50527763  268.70901489    4.90999985    1.89999998
   12.50861073  256.16400146    4.90999985    1.89999998
   12.51166630  258.13101196    4.90999985    1.89999998
   12.51500034  260.10598755    4.90999985    1.89999998
   12.51833344  253.89900208    4.90999985    1.89999998
   12.52138901  249.44500732    4.90999985    1.89999998
   12.52472210  243.42599487    4.90999985    1.89999998
   12.52805519  251.92100525    4.90999985    1.89999998
   12.52861118  234.14100647    4.90999985    1.89999998
   12.53166676  243.39599609    4.90999985    1.89999998
   12.53472233  239.31700134    4.90999985    1.89999998
   12.53805637  252.19799805    4.90999985    1.89999998
   12.54416752  252.19799805    4.90999985    1.89999998
   12.54805565  259.50399780    4.90999985    1.89999998
   12.55138874  249.70700073    4.90999985    1.89999998
   12.55500031  254.52900696    4.90999985    1.89999998
   12.55805588  244.42300415    4.90999985    1.89999998
   12.56138897  244.38299561    4.90999985    1.89999998
   12.56194496  249.64199829    4.90999985    1.89999998
   12.56500053  238.11000061    4.90999985    1.89999998
   12.56805515  260.16299438    4.90999985    1.89999998
   12.57138920  230.67999268    4.90999985    1.89999998
   12.57472229  225.92300415    4.90999985    1.89999998
   12.57777786  241.97599792    4.90999985    1.89999998
   12.58111095  251.06799316    4.90999985    1.89999998
   12.58694458  251.06799316    4.90999985    1.89999998
   12.59111118  232.77600098    4.90999985    1.89999998
   12.59416676  234.00900269    4.90999985    1.89999998
   12.59527779  236.64300537    4.90999985    1.89999998
   12.59805489  226.18899536    4.90999985    1.89999998
   12.60111141  230.28799438    4.90999985    1.89999998
   12.60444450  240.55099487    4.90999985    1.89999998
   12.60777855  216.12300110    4.90999985    1.89999998
   12.61083412  236.24299622    4.90999985    1.89999998
   12.61416721  230.98300171    4.90999985    1.89999998
   12.61750031  238.97399902    4.90999985    1.89999998
   12.62055588  227.22099304    4.90999985    1.89999998
   12.62388897  222.79299927    4.90999985    1.89999998
   12.62972260  222.79299927    4.90999985    1.89999998
   12.63388920  218.12399292    4.90999985    1.89999998
   12.63722229  229.73899841    4.90999985    1.89999998
   12.64027786  227.25300598    4.90999985    1.89999998
   12.64361095  213.88400269    4.90999985    1.89999998
   12.64694405  215.10400391    4.90999985    1.89999998
   12.64999962  221.32299805    4.90999985    1.89999998
   12.65333271  234.35099792    4.90999985    1.89999998
   12.65666676  226.61599731    4.90999985    1.89999998
   12.65972137  216.68299866    4.90999985    1.89999998
   12.66194439  224.19500732    4.90999985    1.89999998
   12.66333294  205.60400391    4.90999985    1.89999998
   12.66638851  210.30599976    4.90999985    1.89999998
   12.67250061  210.30599976    4.90999985    1.89999998
   12.67666721  202.56100464    4.90999985    1.89999998
   12.68000031  218.91499329    4.90999985    1.89999998
   12.68305588  209.47099304    4.90999985    1.89999998
   12.68638897  195.66900635    4.90999985    1.89999998
   12.68972206  199.28300476    4.90999985    1.89999998
   12.69277763  210.49400330    4.90999985    1.89999998
   12.69527817  200.44299316    4.90999985    1.89999998
   12.69666672  209.08099365    4.90999985    1.89999998
   12.69972229  226.03700256    4.90999985    1.89999998
   12.70305538  204.46099854    4.90999985    1.89999998
   12.70638847  199.24200439    4.90999985    1.89999998
   12.70944405  200.15699768    4.90999985    1.89999998
   12.71527767  200.15699768    4.90999985    1.89999998
   12.71944427  208.87800598    4.90999985    1.89999998
   12.72277737  201.98399353    4.90999985    1.89999998
   12.72611046  214.76899719    4.90999985    1.89999998
   12.72861099  196.54100037    4.90999985    1.89999998
   12.72972202  199.44000244    4.90999985    1.89999998
   12.73277760  205.30799866    4.90999985    1.89999998
   12.73611164  194.34700012    4.90999985    1.89999998
   12.73944473  204.97999573    4.90999985    1.89999998
   12.74305534  197.12699890    4.90999985    1.89999998
   12.74611092  209.27600098    4.90999985    1.89999998
   12.74944496  209.72200012    4.90999985    1.89999998
   12.75249958  200.12800598    4.90999985    1.89999998
   12.75833321  200.12800598    4.90999985    1.89999998
   12.76249981  192.76199341    4.90999985    1.89999998
   12.76555538  186.48199463    4.90999985    1.89999998
   12.76888847  204.88000488    4.90999985    1.89999998
   12.77222157  191.75199890    4.90999985    1.89999998
   12.77527714  198.06300354    4.90999985    1.89999998
   12.77861118  190.72599792    4.90999985    1.89999998
   12.78166676  197.57899475    4.90999985    1.89999998
   12.78500080  196.40600586    4.90999985    1.89999998
   12.78833389  189.27200317    4.90999985    1.89999998
   12.79138947  194.00000000    4.90999985    1.89999998
   12.79472256  196.32699585    4.90999985    1.89999998
   12.79527855  185.78500366    4.90999985    1.89999998
   12.80111122  185.78500366    4.90999985    1.89999998
   12.80527782  195.13900757    4.90999985    1.89999998
   12.80861092  208.10299683    4.90999985    1.89999998
   12.81166649  200.55099487    4.90999985    1.89999998
   12.81500053  207.74800110    4.90999985    1.89999998
   12.81805515  189.32899475    4.90999985    1.89999998
   12.82138920  193.33900452    4.90999985    1.89999998
   12.82472229  216.11000061    4.90999985    1.89999998
   12.82777786  201.83399963    4.90999985    1.89999998
   12.82861137  188.51800537    4.90999985    1.89999998
   12.83138847  195.24200439    4.90999985    1.89999998
   12.83472157  199.01300049    4.90999985    1.89999998
   12.83777714  190.05799866    4.90999985    1.89999998
   12.84388828  190.05799866    4.90999985    1.89999998
   12.84805489  207.26699829    4.90999985    1.89999998
   12.85138893  217.13699341    4.90999985    1.89999998
   12.85472298  202.58700562    4.90999985    1.89999998
   12.85777855  204.74899292    4.90999985    1.89999998
   12.86111164  208.25900269    4.90999985    1.89999998
   12.86194515  203.76400757    4.90999985    1.89999998
   12.86472225  202.63200378    4.90999985    1.89999998
   12.86805534  203.85000610    4.90999985    1.89999998
   12.87111092  202.00599670    4.90999985    1.89999998
   12.87444496  195.33999634    4.90999985    1.89999998
   12.87750053  191.82000732    4.90999985    1.89999998
   12.88083363  193.79299927    4.90999985    1.89999998
   12.88694477  193.79299927    4.90999985    1.89999998
   12.89083290  191.55799866    4.90999985    1.89999998
   12.89416695  201.98899841    4.90999985    1.89999998
   12.89527798  195.83399963    4.90999985    1.89999998
   12.89777756  202.58299255    4.90999985    1.89999998
   12.90111065  200.20500183    4.90999985    1.89999998
   12.90416622  216.86599731    4.90999985    1.89999998
   12.90749931  198.33200073    4.90999985    1.89999998
   12.91055489  240.71499634    4.90999985    1.89999998
   12.91388893  198.13299561    4.90999985    1.89999998
   12.91722298  205.44299316    4.90999985    1.89999998
   12.92027855  200.45199585    4.90999985    1.89999998
   12.92361164  202.43200684    4.90999985    1.89999998
   12.92972279  202.43200684    4.90999985    1.89999998
   12.93388939  203.75700378    4.90999985    1.89999998
   12.93694496  189.61999512    4.90999985    1.89999998
   12.94027805  190.45899963    4.90999985    1.89999998
   12.94333363  196.69900513    4.90999985    1.89999998
   12.94666672  186.58599854    4.90999985    1.89999998
   12.94999981  191.58099365    4.90999985    1.89999998
   12.95305538  193.74400330    4.90999985    1.89999998
   12.95638847  197.63699341    4.90999985    1.89999998
   12.95972157  205.54100037    4.90999985    1.89999998
   12.96194458  201.15499878    4.90999985    1.89999998
   12.96333313  199.38900757    4.90999985    1.89999998
   12.96638870  200.03999329    4.90999985    1.89999998
   12.97249985  200.03999329    4.90999985    1.89999998
   12.97666645  224.82200623    4.90999985    1.89999998
   12.97999954  219.37399292    4.90999985    1.89999998
   12.98305511  197.12100220    4.90999985    1.89999998
   12.98638916  220.02600098    4.90999985    1.89999998
   12.98944473  205.23199463    4.90999985    1.89999998
   12.99277782  209.94999695    4.90999985    1.89999998
   12.99527836  195.63299561    4.90999985    1.89999998
   12.99638939  208.37399292    4.90999985    1.89999998
   12.99972248  201.69500732    4.90999985    1.89999998
   13.00277805  225.32400513    4.90999985    1.89999998
   13.00611115  203.85600281    4.90999985    1.89999998
   13.00916672  196.63099670    4.90999985    1.89999998
   13.01527786  196.63099670    4.90999985    1.89999998
   13.01944447  213.81700134    4.90999985    1.89999998
   13.02277756  197.74400330    4.90999985    1.89999998
   13.02583313  208.86799622    4.90999985    1.89999998
   13.02861118  192.98699951    4.90999985    1.89999998
   13.02972221  207.80799866    4.90999985    1.89999998
   13.03305531  189.67599487    4.90999985    1.89999998
   13.03611183  192.88900757    4.90999985    1.89999998
   13.03944492  198.55000305    4.90999985    1.89999998
   13.04250050  194.71200562    4.90999985    1.89999998
   13.04583359  200.54499817    4.90999985    1.89999998
   13.04916668  189.99299622    4.90999985    1.89999998
   13.05222225  196.18800354    4.90999985    1.89999998
   13.05833340  196.18800354    4.90999985    1.89999998
   13.06222248  191.26300049    4.90999985    1.89999998
   13.06555557  188.79299927    4.90999985    1.89999998
   13.06888866  185.47700500    4.90999985    1.89999998
   13.07194424  187.61500549    4.90999985    1.89999998
   13.07527733  182.27099609    4.90999985    1.89999998
   13.07861137  183.26899719    4.90999985    1.89999998
   13.08166695  203.78100586    4.90999985    1.89999998
   13.08500004  190.59899902    4.90999985    1.89999998
   13.08805561  206.39399719    4.90999985    1.89999998
   13.09138870  188.11999512    4.90999985    1.89999998
   13.09472179  185.91000366    4.90999985    1.89999998
   13.09527779  181.10200500    4.90999985    1.89999998
   13.10111141  181.10200500    4.90999985    1.89999998
   13.10527802  183.79899597    4.90999985    1.89999998
   13.10833359  200.32600403    4.90999985    1.89999998
   13.11166668  187.24600220    4.90999985    1.89999998
   13.11500072  186.04400635    4.90999985    1.89999998
   13.11805534  210.07299805    4.90999985    1.89999998
   13.12138939  192.62199402    4.90999985    1.89999998
   13.12444496  185.28500366    4.90999985    1.89999998
   13.12777805  191.89900208    4.90999985    1.89999998
   13.12861156  190.32299805    4.90999985    1.89999998
   13.13138866  183.63400269    4.90999985    1.89999998
   13.13472176  183.05099487    4.90999985    1.89999998
   13.13777733  184.82899475    4.90999985    1.89999998
   13.14388847  184.82899475    4.90999985    1.89999998
   13.14805508  187.50000000    4.90999985    1.89999998
   13.15138817  178.93800354    4.90999985    1.89999998
   13.15444374  181.96200562    4.90999985    1.89999998
   13.15777779  179.88099670    4.90999985    1.89999998
   13.16083336  205.81399536    4.90999985    1.89999998
   13.16194439  180.59800720    4.90999985    1.89999998
   13.16444397  174.03599548    4.90999985    1.89999998
   13.16777802  181.55400085    4.90999985    1.89999998
   13.17083359  186.66600037    4.90999985    1.89999998
   13.17416668  187.08599854    4.90999985    1.89999998
   13.17750072  183.24800110    4.90999985    1.89999998
   13.18055630  202.89700317    4.90999985    1.89999998
   13.18666649  202.89700317    4.90999985    1.89999998
   13.19083309  175.35699463    4.90999985    1.89999998
   13.19416714  185.24200439    4.90999985    1.89999998
   13.19527817  180.61999512    4.90999985    1.89999998
   13.19777775  186.05999756    4.90999985    1.89999998
   13.20111084  170.61900330    4.90999985    1.89999998
   13.20416641  184.76100159    4.90999985    1.89999998
   13.20749950  175.79299927    4.90999985    1.89999998
   13.21083355  180.40199280    4.90999985    1.89999998
   13.21388912  180.14900208    4.90999985    1.89999998
   13.21722221  177.33299255    4.90999985    1.89999998
   13.22027779  179.49400330    4.90999985    1.89999998
   13.22361088  170.79200745    4.90999985    1.89999998
   13.22972202  170.79200745    4.90999985    1.89999998
   13.23361111  177.94799805    4.90999985    1.89999998
   13.23694515  175.99000549    4.90999985    1.89999998
   13.24027824  176.15800476    4.90999985    1.89999998
   13.24333382  187.45599365    4.90999985    1.89999998
   13.24666691  181.57499695    4.90999985    1.89999998
   13.25000000  182.35600281    4.90999985    1.89999998
   13.25305557  182.46200562    4.90999985    1.89999998
   13.25638866  187.05000305    4.90999985    1.89999998
   13.25944424  191.73100281    4.90999985    1.89999998
   13.26194477  182.94700623    4.90999985    1.89999998
   13.26305580  181.95100403    4.90999985    1.89999998
   13.26638889  179.73300171    4.90999985    1.89999998
   13.27250004  179.73300171    4.90999985    1.89999998
   13.27666664  178.43299866    4.90999985    1.89999998
   13.27972221  176.08299255    4.90999985    1.89999998
   13.28305531  173.16999817    4.90999985    1.89999998
   13.28638935  175.34100342    4.90999985    1.89999998
   13.28944492  177.87199402    4.90999985    1.89999998
   13.29277802  174.18600464    4.90999985    1.89999998
   13.29527855  182.40800476    4.90999985    1.89999998
   13.29638958  178.57699585    4.90999985    1.89999998
   13.29972267  182.15800476    4.90999985    1.89999998
   13.30277824  175.93299866    4.90999985    1.89999998
   13.30611134  179.82899475    4.90999985    1.89999998
   13.30944443  177.57299805    4.90999985    1.89999998
   13.31527805  177.57299805    4.90999985    1.89999998
   13.31944466  180.64799500    4.90999985    1.89999998
   13.32277775  181.55400085    4.90999985    1.89999998
   13.32583332  169.06399536    4.90999985    1.89999998
   13.32861137  178.84599304    4.90999985    1.89999998
   13.32944393  176.67399597    4.90999985    1.89999998
   13.33277798  176.19500732    4.90999985    1.89999998
   13.33583260  177.87300110    4.90999985    1.89999998
   13.33916664  182.67799377    4.90999985    1.89999998
   13.34249973  181.62699890    4.90999985    1.89999998
   13.34555531  172.60000610    4.90999985    1.89999998
   13.34888840  177.70199585    4.90999985    1.89999998
   13.35194492  176.60899353    4.90999985    1.89999998
   13.35805607  176.60899353    4.90999985    1.89999998
   13.36222267  179.55900574    4.90999985    1.89999998
   13.36555576  185.35899353    4.90999985    1.89999998
   13.36861134  178.89500427    4.90999985    1.89999998
   13.37194443  186.40299988    4.90999985    1.89999998
   13.37527752  172.02000427    4.90999985    1.89999998
   13.37833309  177.18099976    4.90999985    1.89999998
   13.38166714  176.44700623    4.90999985    1.89999998
   13.38500023  186.38600159    4.90999985    1.89999998
   13.38805580  184.03799438    4.90999985    1.89999998
   13.39138889  188.15499878    4.90999985    1.89999998
   13.39444447  188.83200073    4.90999985    1.89999998
   13.39527798  173.02799988    4.90999985    1.89999998
   13.41611099  173.02799988    4.90999985    1.89999998
   13.42027855  180.36500549    4.90999985    1.89999998
   13.42333412  180.32099915    4.90999985    1.89999998
   13.42666721  176.52200317    4.90999985    1.89999998
   13.42861176  175.11900330    4.90999985    1.89999998
   13.43027782  183.65699768    4.90999985    1.89999998
   13.43361092  177.20700073    4.90999985    1.89999998
   13.43694496  171.18099976    4.90999985    1.89999998
   13.44000053  173.89500427    4.90999985    1.89999998
   13.44333363  182.05299377    4.90999985    1.89999998
   13.44638920  176.87800598    4.90999985    1.89999998
   13.44972229  175.80900574    4.90999985    1.89999998
   13.45305538  174.10200500    4.90999985    1.89999998
   13.45888901  174.10200500    4.90999985    1.89999998
   13.46277714  166.36999512    4.90999985    1.89999998
   13.46611118  167.79499817    4.90999985    1.89999998
   13.46944427  172.73199463    4.90999985    1.89999998
   13.47249985  167.31399536    4.90999985    1.89999998
   13.47583294  171.76199341    4.90999985    1.89999998
   13.47916603  172.43099976    4.90999985    1.89999998
   13.48222160  168.19799805    4.90999985    1.89999998
   13.48555565  168.83700562    4.90999985    1.89999998
   13.48861122  173.55400085    4.90999985    1.89999998
   13.49194431  173.14199829    4.90999985    1.89999998
   13.49527836  172.17199707    4.90999985    1.89999998
   13.49583340  162.74800110    4.90999985    1.89999998
   13.50166702  162.74800110    4.90999985    1.89999998
   13.50583363  173.74400330    4.90999985    1.89999998
   13.50888920  169.56700134    4.90999985    1.89999998
   13.51222229  179.31300354    4.90999985    1.89999998
   13.51555538  167.68800354    4.90999985    1.89999998
   13.51861095  169.14799500    4.90999985    1.89999998
   13.52194405  164.63999939    4.90999985    1.89999998
   13.52499962  171.18800354    4.90999985    1.89999998
   13.52833271  169.90499878    4.90999985    1.89999998
   13.52916622  167.75399780    4.90999985    1.89999998
   13.53194427  164.88999939    4.90999985    1.89999998
   13.53527832  163.17700195    4.90999985    1.89999998
   13.53861141  167.60800171    4.90999985    1.89999998
   13.54444504  167.60800171    4.90999985    1.89999998
   13.54861164  166.26199341    4.90999985    1.89999998
   13.55194473  167.77099609    4.90999985    1.89999998
   13.55500031  163.46400452    4.90999985    1.89999998
   13.55833340  167.07699585    4.90999985    1.89999998
   13.56138897  167.73800659    4.90999985    1.89999998
   13.56250000  160.13499451    4.90999985    1.89999998
   13.56500053  166.98599243    4.90999985    1.89999998
   13.56833363  164.77299500    4.90999985    1.89999998
   13.57166672  169.48399353    4.90999985    1.89999998
   13.57472229  168.33900452    4.90999985    1.89999998
   13.57805538  164.58500671    4.90999985    1.89999998
   13.58111095  160.01800537    4.90999985    1.89999998
   13.58722210  160.01800537    4.90999985    1.89999998
   13.59138870  177.76699829    4.90999985    1.89999998
   13.59472179  175.90800476    4.90999985    1.89999998
   13.59583282  163.82499695    4.90999985    1.89999998
   13.59833336  174.64900208    4.90999985    1.89999998
   13.60166740  163.55599976    4.90999985    1.89999998
   13.60500050  166.90400696    4.90999985    1.89999998
   13.60805607  165.08700562    4.90999985    1.89999998
   13.61138916  165.38600159    4.90999985    1.89999998
   13.61444473  170.49699402    4.90999985    1.89999998
   13.61777782  171.82400513    4.90999985    1.89999998
   13.62111092  177.12100220    4.90999985    1.89999998
   13.62416649  182.08900452    4.90999985    1.89999998
   13.63027763  182.08900452    4.90999985    1.89999998
   13.63416672  167.29100037    4.90999985    1.89999998
   13.63749981  163.69400024    4.90999985    1.89999998
   13.64083290  165.53799438    4.90999985    1.89999998
   13.64388847  167.96299744    4.90999985    1.89999998
   13.64722252  169.80999756    4.90999985    1.89999998
   13.65055561  162.11999512    4.90999985    1.89999998
   13.65361118  162.98800659    4.90999985    1.89999998
   13.65694427  176.89300537    4.90999985    1.89999998
   13.65999985  165.25799561    4.90999985    1.89999998
   13.66249943  159.31599426    4.90999985    1.89999998
   13.66361046  160.53100586    4.90999985    1.89999998
   13.66694450  168.81900024    4.90999985    1.89999998
   13.67305565  168.81900024    4.90999985    1.89999998
   13.67722225  160.53599548    4.90999985    1.89999998
   13.68027782  161.14900208    4.90999985    1.89999998
   13.68361092  160.60699463    4.90999985    1.89999998
   13.68694496  164.27999878    4.90999985    1.89999998
   13.69000053  167.60000610    4.90999985    1.89999998
   13.69333363  167.78199768    4.90999985    1.89999998
   13.69583321  172.51899719    4.90999985    1.89999998
   13.69694424  164.88000488    4.90999985    1.89999998
   13.70027733  165.46899414    4.90999985    1.89999998
   13.70361137  166.43600464    4.90999985    1.89999998
   13.70666695  167.56799316    4.90999985    1.89999998
   13.71000004  162.67500305    4.90999985    1.89999998
   13.71583271  162.67500305    4.90999985    1.89999998
   13.71999931  162.47000122    4.90999985    1.89999998
   13.72333336  167.81900024    4.90999985    1.89999998
   13.72638798  173.75199890    4.90999985    1.89999998
   13.72916603  173.61999512    4.90999985    1.89999998
   13.72999954  163.47799683    4.90999985    1.89999998
   13.73333359  159.50199890    4.90999985    1.89999998
   13.73666668  159.11500549    4.90999985    1.89999998
   13.73972225  162.43899536    4.90999985    1.89999998
   13.74305534  155.78500366    4.90999985    1.89999998
   13.74611092  164.13600159    4.90999985    1.89999998
   13.74944496  161.70899963    4.90999985    1.89999998
   13.75277805  159.04899597    4.90999985    1.89999998
   13.75861073  159.04899597    4.90999985    1.89999998
   13.76277733  160.16600037    4.90999985    1.89999998
   13.76611137  157.07600403    4.90999985    1.89999998
   13.76916599  155.84800720    4.90999985    1.89999998
   13.77250004  161.12699890    4.90999985    1.89999998
   13.77583313  156.95599365    4.90999985    1.89999998
   13.77888870  164.10000610    4.90999985    1.89999998
   13.78222179  165.17999268    4.90999985    1.89999998
   13.78555584  157.76400757    4.90999985    1.89999998
   13.78861141  155.62800598    4.90999985    1.89999998
   13.79194450  157.32899475    4.90999985    1.89999998
   13.79500008  154.19200134    4.90999985    1.89999998
   13.79583359  156.17999268    4.90999985    1.89999998
   13.80166721  156.17999268    4.90999985    1.89999998
   13.80555534  160.87199402    4.90999985    1.89999998
   13.80888939  158.36099243    4.90999985    1.89999998
   13.81222248  165.22200012    4.90999985    1.89999998
   13.81527805  165.14900208    4.90999985    1.89999998
   13.81861115  163.51499939    4.90999985    1.89999998
   13.82194424  166.14300537    4.90999985    1.89999998
   13.82499981  159.97500610    4.90999985    1.89999998
   13.82833290  168.22099304    4.90999985    1.89999998
   13.82916641  164.91499329    4.90999985    1.89999998
   13.83166695  165.78500366    4.90999985    1.89999998
   13.83500004  159.12300110    4.90999985    1.89999998
   13.83833313  165.00900269    4.90999985    1.89999998
   13.84444427  165.00900269    4.90999985    1.89999998
   13.84861088  156.07699585    4.90999985    1.89999998
   13.85166740  151.71000671    4.90999985    1.89999998
   13.85500050  151.22099304    4.90999985    1.89999998
   13.85833359  160.32600403    4.90999985    1.89999998
   13.86138916  156.42599487    4.90999985    1.89999998
   13.86250019  153.76699829    4.90999985    1.89999998
   13.86500072  155.35800171    4.90999985    1.89999998
   13.86833382  150.26899719    4.90999985    1.89999998
   13.87166691  152.75599670    4.90999985    1.89999998
   13.87472248  157.89900208    4.90999985    1.89999998
   13.87805557  158.00500488    4.90999985    1.89999998
   13.88138866  151.43200684    4.90999985    1.89999998
   13.88722229  151.43200684    4.90999985    1.89999998
   13.89138889  150.69200134    4.90999985    1.89999998
   13.89472198  155.69400024    4.90999985    1.89999998
   13.89583302  150.61199951    4.90999985    1.89999998
   13.89805508  156.61500549    4.90999985    1.89999998
   13.90138817  149.42199707    4.90999985    1.89999998
   13.90472221  151.42399597    4.90999985    1.89999998
   13.90777779  155.44299316    4.90999985    1.89999998
   13.91111088  151.46000671    4.90999985    1.89999998
   13.91444397  149.64799500    4.90999985    1.89999998
   13.91750050  147.85099792    4.90999985    1.89999998
   13.92083359  148.72500610    4.90999985    1.89999998
   13.92388916  147.14799500    4.90999985    1.89999998
   13.93000031  147.14799500    4.90999985    1.89999998
   13.93416691  151.65100098    4.90999985    1.89999998
   13.93750000  158.45599365    4.90999985    1.89999998
   13.94055557  151.36900330    4.90999985    1.89999998
   13.94388866  165.22000122    4.90999985    1.89999998
   13.94722271  163.36799622    4.90999985    1.89999998
   13.95027733  148.21899414    4.90999985    1.89999998
   13.95361137  153.86900330    4.90999985    1.89999998
   13.95694447  153.10099792    4.90999985    1.89999998
   13.96000004  156.46800232    4.90999985    1.89999998
   13.96249962  155.92799377    4.90999985    1.89999998
   13.96361065  151.16600037    4.90999985    1.89999998
   13.96694374  157.11599731    4.90999985    1.89999998
   13.97305489  157.11599731    4.90999985    1.89999998
   13.97694397  156.87300110    4.90999985    1.89999998
   13.98027706  155.27900696    4.90999985    1.89999998
   13.98361111  147.23100281    4.90999985    1.89999998
   13.98666668  156.35000610    4.90999985    1.89999998
   13.99000072  155.26300049    4.90999985    1.89999998
   13.99333382  155.56399536    4.90999985    1.89999998
   13.99583340  153.08399963    4.90999985    1.89999998
   13.99694443  149.38600159    4.90999985    1.89999998
   14.00000000  146.34899902    4.90999985    1.89999998
   14.00333309  144.61500549    4.90999985    1.89999998
   14.00638866  148.00500488    4.90999985    1.89999998
   14.00972176  151.94299316    4.90999985    1.89999998
   14.01583290  151.94299316    4.90999985    1.89999998
   14.01999950  156.49800110    4.90999985    1.89999998
   14.02305508  147.37699890    4.90999985    1.89999998
   14.02638817  148.33500671    4.90999985    1.89999998
   14.02916622  151.45100403    4.90999985    1.89999998
   14.03027725  151.38699341    4.90999985    1.89999998
   14.03333378  148.61000061    4.90999985    1.89999998
   14.03666687  148.25000000    4.90999985    1.89999998
   14.03972244  157.62399292    4.90999985    1.89999998
   14.04305553  149.78500366    4.90999985    1.89999998
   14.04638958  153.27499390    4.90999985    1.89999998
   14.04944515  149.19200134    4.90999985    1.89999998
   14.05277824  147.01400757    4.90999985    1.89999998
   14.05861092  147.01400757    4.90999985    1.89999998
   14.06277752  161.79800415    4.90999985    1.89999998
   14.06611156  155.15199280    4.90999985    1.89999998
   14.06916618  150.39700317    4.90999985    1.89999998
   14.07250023  152.66000366    4.90999985    1.89999998
   14.07555580  145.37600708    4.90999985    1.89999998
   14.07888889  152.05799866    4.90999985    1.89999998
   14.08222198  153.90499878    4.90999985    1.89999998
   14.08527756  153.32099915    4.90999985    1.89999998
   14.08861065  148.73199463    4.90999985    1.89999998
   14.09194374  149.46699524    4.90999985    1.89999998
   14.09499931  146.39900208    4.90999985    1.89999998
   14.09583282  145.37199402    4.90999985    1.89999998
   14.10138893  145.37199402    4.90999985    1.89999998
   14.10555553  143.44799805    4.90999985    1.89999998
   14.10888958  141.73599243    4.90999985    1.89999998
   14.11194515  151.65800476    4.90999985    1.89999998
   14.11527824  149.50599670    4.90999985    1.89999998
   14.11861134  144.20700073    4.90999985    1.89999998
   14.12194443  145.38299561    4.90999985    1.89999998
   14.12500000  146.62800598    4.90999985    1.89999998
   14.12833309  150.20799255    4.90999985    1.89999998
   14.12916660  152.00000000    4.90999985    1.89999998
   14.13194466  153.47900391    4.90999985    1.89999998
   14.13500023  149.80999756    4.90999985    1.89999998
   14.13833332  153.17500305    4.90999985    1.89999998
   14.14444447  153.17500305    4.90999985    1.89999998
   14.14833355  159.06900024    4.90999985    1.89999998
   14.15166664  144.75100708    4.90999985    1.89999998
   14.15499973  151.53100586    4.90999985    1.89999998
   14.15805531  152.24699402    4.90999985    1.89999998
   14.16138840  151.78300476    4.90999985    1.89999998
   14.16249943  153.83000183    4.90999985    1.89999998
   14.16499996  151.53399658    4.90999985    1.89999998
   14.16805553  149.93299866    4.90999985    1.89999998
   14.17138958  159.07899475    4.90999985    1.89999998
   14.17444515  154.01300049    4.90999985    1.89999998
   14.17777824  146.62399292    4.90999985    1.89999998
   14.18111134  148.89599609    4.90999985    1.89999998
   14.18722248  148.89599609    4.90999985    1.89999998
   14.19138908  147.66900635    4.90999985    1.89999998
   14.19444466  151.50900269    4.90999985    1.89999998
   14.19583321  143.08099365    4.90999985    1.89999998
   14.19833374  145.45100403    4.90999985    1.89999998
   14.20138836  145.12100220    4.90999985    1.89999998
   14.20472240  146.63900757    4.90999985    1.89999998
   14.20777798  142.43499756    4.90999985    1.89999998
   14.21111107  148.09300232    4.90999985    1.89999998
   14.21444416  141.50599670    4.90999985    1.89999998
   14.21749973  144.55099487    4.90999985    1.89999998
   14.22083282  145.99600220    4.90999985    1.89999998
   14.22416592  141.42300415    4.90999985    1.89999998
   14.22999954  141.42300415    4.90999985    1.89999998
   14.23416710  145.80799866    4.90999985    1.89999998
   14.23750019  146.51600647    4.90999985    1.89999998
   14.24055576  152.41499329    4.90999985    1.89999998
   14.24388885  150.81900024    4.90999985    1.89999998
   14.24722290  145.35499573    4.90999985    1.89999998
   14.25027752  158.26100159    4.90999985    1.89999998
   14.25361156  150.74000549    4.90999985    1.89999998
   14.25666714  154.11599731    4.90999985    1.89999998
   14.26000023  147.33700562    4.90999985    1.89999998
   14.26249981  155.29299927    4.90999985    1.89999998
   14.26388931  151.05099487    4.90999985    1.89999998
   14.26694393  155.30599976    4.90999985    1.89999998
   14.27277756  155.30599976    4.90999985    1.89999998
   14.27694416  148.46400452    4.90999985    1.89999998
   14.28027725  149.08500671    4.90999985    1.89999998
   14.28333378  145.13800049    4.90999985    1.89999998
   14.28666687  146.72599792    4.90999985    1.89999998
   14.29000092  154.68899536    4.90999985    1.89999998
   14.29305553  154.27499390    4.90999985    1.89999998
   14.29583359  148.64100647    4.90999985    1.89999998
   14.29694462  148.40699768    4.90999985    1.89999998
   14.30000019  147.75300598    4.90999985    1.89999998
   14.30333328  147.38900757    4.90999985    1.89999998
   14.30666733  146.68099976    4.90999985    1.89999998
   14.30972195  143.57000732    4.90999985    1.89999998
   14.31583309  143.57000732    4.90999985    1.89999998
   14.31972218  148.35800171    4.90999985    1.89999998
   14.32305527  147.72500610    4.90999985    1.89999998
   14.32638836  139.89799500    4.90999985    1.89999998
   14.32916641  148.33299255    4.90999985    1.89999998
   14.32999992  155.01600647    4.90999985    1.89999998
   14.33305550  149.72900391    4.90999985    1.89999998
   14.33638859  147.34700012    4.90999985    1.89999998
   14.33972168  143.26699829    4.90999985    1.89999998
   14.34277725  148.47000122    4.90999985    1.89999998
   14.34611034  157.74899292    4.90999985    1.89999998
   14.34916592  153.35899353    4.90999985    1.89999998
   14.35249996  153.34599304    4.90999985    1.89999998
   14.35861111  153.34599304    4.90999985    1.89999998
   14.36277771  146.74699402    4.90999985    1.89999998
   14.36583328  144.36799622    4.90999985    1.89999998
   14.36916637  154.32099915    4.90999985    1.89999998
   14.37250042  147.98300171    4.90999985    1.89999998
   14.37555599  144.24000549    4.90999985    1.89999998
   14.37888908  147.40600586    4.90999985    1.89999998
   14.38194466  147.15499878    4.90999985    1.89999998
   14.38527775  150.12500000    4.90999985    1.89999998
   14.38861084  142.99600220    4.90999985    1.89999998
   14.39166641  148.91600037    4.90999985    1.89999998
   14.39499950  145.41600037    4.90999985    1.89999998
   14.39583302  147.30200195    4.90999985    1.89999998
   14.40138817  147.30200195    4.90999985    1.89999998
   14.40555477  151.63800049    4.90999985    1.89999998
   14.40888882  144.20700073    4.90999985    1.89999998
   14.41194439  151.61900330    4.90999985    1.89999998
   14.42944431  135.70700073    4.90999985    1.89999998
   14.43194485  141.32400513    4.90999985    1.89999998
   14.43527794  143.57400513    4.90999985    1.89999998
   14.43833351  138.67999268    4.90999985    1.89999998
   14.44444466  138.67999268    4.90999985    1.89999998
   14.44861126  147.53500366    4.90999985    1.89999998
   14.45194435  145.44799805    4.90999985    1.89999998
   14.45499992  140.35200500    4.90999985    1.89999998
   14.45833302  141.22999573    4.90999985    1.89999998
   14.46138859  141.20199585    4.90999985    1.89999998
   14.46277714  148.93800354    4.90999985    1.89999998
   14.46527767  141.12199402    4.90999985    1.89999998
   14.46861076  141.38600159    4.90999985    1.89999998
   14.47166634  141.81399536    4.90999985    1.89999998
   14.47499943  134.63900757    4.90999985    1.89999998
   14.47805500  141.14100647    4.90999985    1.89999998
   14.48138809  134.21299744    4.90999985    1.89999998
   14.48722267  134.21299744    4.90999985    1.89999998
   14.49138927  132.69900513    4.90999985    1.89999998
   14.49472237  139.27900696    4.90999985    1.89999998
   14.49611092  136.66499329    4.90999985    1.89999998
   14.49833393  138.81399536    4.90999985    1.89999998
   14.50138855  136.07899475    4.90999985    1.89999998
   14.50472260  134.43299866    4.90999985    1.89999998
   14.50805569  134.45799255    4.90999985    1.89999998
   14.51111126  135.14500427    4.90999985    1.89999998
   14.51444435  142.26300049    4.90999985    1.89999998
   14.51749992  131.90899658    4.90999985    1.89999998
   14.52083302  131.29299927    4.90999985    1.89999998
   14.52416611  133.98899841    4.90999985    1.89999998
   14.52999973  133.98899841    4.90999985    1.89999998
   14.53416729  141.26600647    4.90999985    1.89999998
   14.53750038  136.63200378    4.90999985    1.89999998
   14.54083347  138.63600159    4.90999985    1.89999998
   14.54388905  135.26899719    4.90999985    1.89999998
   14.54722309  130.82800293    4.90999985    1.89999998
   14.55027771  121.10199738    4.90999985    1.89999998
   14.55361176  129.04299927    4.90999985    1.89999998
   14.55694485  122.33399963    4.90999985    1.89999998
   14.56000042  126.47499847    4.90999985    1.89999998
   14.56277752  134.81700134    4.90999985    1.89999998
   14.56388950  136.33299255    4.90999985    1.89999998
   14.56694412  131.54200745    4.90999985    1.89999998
   14.57305527  131.54200745    4.90999985    1.89999998
   14.57722187  130.24899292    4.90999985    1.89999998
   14.58027744  137.65699768    4.90999985    1.89999998
   14.58361053  134.94900513    4.90999985    1.89999998
   14.58666611  133.12199402    4.90999985    1.89999998
   14.59000015  133.13999939    4.90999985    1.89999998
   14.59333324  135.72200012    4.90999985    1.89999998
   14.59611034  134.11500549    4.90999985    1.89999998
   14.59694386  133.77499390    4.90999985    1.89999998
   14.60000038  132.96000671    4.90999985    1.89999998
   14.60333347  134.16600037    4.90999985    1.89999998
   14.60666752  133.20500183    4.90999985    1.89999998
   14.60972214  136.13600159    4.90999985    1.89999998
   14.61583328  136.13600159    4.90999985    1.89999998
   14.61999989  135.09700012    4.90999985    1.89999998
   14.62305546  137.06500244    4.90999985    1.89999998
   14.62638855  134.81300354    4.90999985    1.89999998
   14.62944412  143.32099915    4.90999985    1.89999998
   14.63000011  142.52799988    4.90999985    1.89999998
   14.63333321  136.40499878    4.90999985    1.89999998
   14.63638878  134.95899963    4.90999985    1.89999998
   14.63972187  137.15199280    4.90999985    1.89999998
   14.64305496  124.34999847    4.90999985    1.89999998
   14.64611053  129.25199890    4.90999985    1.89999998
   14.64944458  127.70400238    4.90999985    1.89999998
   14.65249920  132.10899353    4.90999985    1.89999998
   14.65861034  132.10899353    4.90999985    1.89999998
   14.66277695  139.60499573    4.90999985    1.89999998
   14.66611099  134.32699585    4.90999985    1.89999998
   14.66916656  130.89999390    4.90999985    1.89999998
   14.67250061  139.07000732    4.90999985    1.89999998
   14.67583370  133.76800537    4.90999985    1.89999998
   14.67888927  137.44500732    4.90999985    1.89999998
   14.68222237  133.87800598    4.90999985    1.89999998
   14.68527794  131.78300476    4.90999985    1.89999998
   14.68861103  128.16099548    4.90999985    1.89999998
   14.69194412  132.12199402    4.90999985    1.89999998
   14.69499969  131.93899536    4.90999985    1.89999998
   14.69611073  141.12100220    4.90999985    1.89999998
   14.70138836  141.12100220    4.90999985    1.89999998
   14.70555496  136.47200012    4.90999985    1.89999998
   14.70888901  144.31799316    4.90999985    1.89999998
   14.71222210  137.15600586    4.90999985    1.89999998
   14.71527767  135.21400452    4.90999985    1.89999998
   14.71861076  130.11500549    4.90999985    1.89999998
   14.72166634  135.66499329    4.90999985    1.89999998
   14.72499943  137.42700195    4.90999985    1.89999998
   14.72833252  134.40800476    4.90999985    1.89999998
   14.72944355  129.30700684    4.90999985    1.89999998
   14.73194408  137.84500122    4.90999985    1.89999998
   14.73527813  120.38700104    4.90999985    1.89999998
   14.73833370  131.70100403    4.90999985    1.89999998
   14.74444485  131.70100403    4.90999985    1.89999998
   14.74861145  130.28199768    4.90999985    1.89999998
   14.75166702  125.15599823    4.90999985    1.89999998
   14.75500011  131.91400146    4.90999985    1.89999998
   14.75805569  142.08500671    4.90999985    1.89999998
   14.76138878  139.15299988    4.90999985    1.89999998
   14.76277733  142.94999695    4.90999985    1.89999998
   14.76500034  129.24899292    4.90999985    1.89999998
   14.76833344  130.62500000    4.90999985    1.89999998
   14.77138901  137.83000183    4.90999985    1.89999998
   14.77472210  138.07499695    4.90999985    1.89999998
   14.77777767  131.08000183    4.90999985    1.89999998
   14.78111076  135.02600098    4.90999985    1.89999998
   14.78722286  135.02600098    4.90999985    1.89999998
   14.79138947  132.20300293    4.90999985    1.89999998
   14.79444504  140.41900635    4.90999985    1.89999998
   14.79611111  140.25000000    4.90999985    1.89999998
   14.79833412  135.15699768    4.90999985    1.89999998
   14.80166721  140.97900391    4.90999985    1.89999998
   14.80472279  138.38000488    4.90999985    1.89999998
   14.80805588  138.56100464    4.90999985    1.89999998
   14.81111145  133.55799866    4.90999985    1.89999998
   14.81444454  140.67599487    4.90999985    1.89999998
   14.81777763  139.89300537    4.90999985    1.89999998
   14.82083321  134.41200256    4.90999985    1.89999998
   14.82416630  135.33000183    4.90999985    1.89999998
   14.82999992  135.33000183    4.90999985    1.89999998
   14.83416653  137.86799622    4.90999985    1.89999998
   14.83749962  134.80599976    4.90999985    1.89999998
   14.84055519  129.17199707    4.90999985    1.89999998
   14.84388828  136.72099304    4.90999985    1.89999998
   14.84722233  113.23400116    4.90999985    1.89999998
   14.85027790  134.88200378    4.90999985    1.89999998
   14.85361195  139.20300293    4.90999985    1.89999998
   14.85666752  136.94000244    4.90999985    1.89999998
   14.86000061  131.02999878    4.90999985    1.89999998
   14.86277771  134.77999878    4.90999985    1.89999998
   14.86361122  130.73500061    4.90999985    1.89999998
   14.86694431  130.91999817    4.90999985    1.89999998
   14.87277794  130.91999817    4.90999985    1.89999998
   14.87694454  132.59399414    4.90999985    1.89999998
   14.88027763  129.92799377    4.90999985    1.89999998
   14.88361073  137.23199463    4.90999985    1.89999998
   14.88666630  139.87399292    4.90999985    1.89999998
   14.89000034  138.52999878    4.90999985    1.89999998
   14.89305496  133.66499329    4.90999985    1.89999998
   14.89611053  138.28300476    4.90999985    1.89999998
   14.89694405  136.24800110    4.90999985    1.89999998
   14.90027714  135.99899292    4.90999985    1.89999998
   14.90333271  136.39199829    4.90999985    1.89999998
   14.90666676  130.51199341    4.90999985    1.89999998
   14.90972137  130.38900757    4.90999985    1.89999998
   14.91583252  130.38900757    4.90999985    1.89999998
   14.92000008  130.93299866    4.90999985    1.89999998
   15.01805496   -1.00000000   -1.00000000   -1.00000000
   15.19805527   -1.00000000   -1.00000000   -1.00000000
   15.35861111   -1.00000000   -1.00000000   -1.00000000
   15.52277756   -1.00000000   -1.00000000   -1.00000000
   15.64194393  129.65199280    4.90999985    1.89999998
   15.64527798  137.33700562    4.90999985    1.89999998
   15.64861107  135.98699951    4.90999985    1.89999998
   15.65166664  134.06700134    4.90999985    1.89999998
   15.65499973  129.09700012    4.90999985    1.89999998
   15.65805531  136.44700623    4.90999985    1.89999998
   15.66222191  136.44700623    4.90999985    1.89999998
   15.66638851  136.03799438    4.90999985    1.89999998
   15.66972256  135.84700012    4.90999985    1.89999998
   15.67277813  135.45399475    4.90999985    1.89999998
   15.67527771  131.30900574    4.90999985    1.89999998
   15.67666721  133.95399475    4.90999985    1.89999998
   15.67972279  136.34599304    4.90999985    1.89999998
   15.68305588  131.21200562    4.90999985    1.89999998
   15.68638897  133.24400330    4.90999985    1.89999998
   15.68944454  134.95899963    4.90999985    1.89999998
   15.69277763  125.43000031    4.90999985    1.89999998
   15.69583321  132.76800537    4.90999985    1.89999998
   15.69916630  139.45100403    4.90999985    1.89999998
   15.70527744  139.45100403    4.90999985    1.89999998
   15.70916653  132.93699646    4.90999985    1.89999998
   15.71249962  134.51699829    4.90999985    1.89999998
   15.71583271  127.46600342    4.90999985    1.89999998
   15.71888828  132.43099976    4.90999985    1.89999998
   15.72222137  131.52699280    4.90999985    1.89999998
   15.72555542  131.37800598    4.90999985    1.89999998
   15.72861099  131.74800110    4.90999985    1.89999998
   15.73194408  127.75299835    4.90999985    1.89999998
   15.73500061  126.66100311    4.90999985    1.89999998
   15.73833370  132.20599365    4.90999985    1.89999998
   15.74166679  124.36100006    4.90999985    1.89999998
   15.74222279  124.21700287    4.90999985    1.89999998
   15.74805546  124.21700287    4.90999985    1.89999998
   15.75222206  124.12000275    4.90999985    1.89999998
   15.75527763  132.42199707    4.90999985    1.89999998
   15.75861073  133.86099243    4.90999985    1.89999998
   15.76194477  132.47599792    4.90999985    1.89999998
   15.76500034  127.09999847    4.90999985    1.89999998
   15.76833344  135.36500549    4.90999985    1.89999998
   15.77138901  132.29100037    4.90999985    1.89999998
   15.77472210  136.66299438    4.90999985    1.89999998
   15.77555561  132.27699280    4.90999985    1.89999998
   15.77833271  136.75300598    4.90999985    1.89999998
   15.78166676  129.05999756    4.90999985    1.89999998
   15.78500080  139.94200134    4.90999985    1.89999998
   15.79083347  139.94200134    4.90999985    1.89999998
   15.79500008  124.05699921    4.90999985    1.89999998
   15.79833412  134.48500061    4.90999985    1.89999998
   15.80138874  142.14799500    4.90999985    1.89999998
   15.80472279  136.58099365    4.90999985    1.89999998
   15.80777836  141.26100159    4.90999985    1.89999998
   15.80888939  133.97999573    4.90999985    1.89999998
   15.81138897  134.96699524    4.90999985    1.89999998
   15.81472206  135.64500427    4.90999985    1.89999998
   15.81805515  135.99099731    4.90999985    1.89999998
   15.82111073  132.80000305    4.90999985    1.89999998
   15.82444477  133.24200439    4.90999985    1.89999998
   15.82750034  136.19099426    4.90999985    1.89999998
   15.83361053  136.19099426    4.90999985    1.89999998
   15.83777714  143.08900452    4.90999985    1.89999998
   15.84111118  142.38099670    4.90999985    1.89999998
   15.84222221  135.09800720    4.90999985    1.89999998
   15.84472179  133.43600464    4.90999985    1.89999998
   15.84805489  132.66099548    4.90999985    1.89999998
   15.85138893  136.71800232    4.90999985    1.89999998
   15.85444450  135.11900330    4.90999985    1.89999998
   15.85777855  122.45800018    4.90999985    1.89999998
   15.86083412  133.08200073    4.90999985    1.89999998
   15.86416721  140.31500244    4.90999985    1.89999998
   15.86750031  140.63400269    4.90999985    1.89999998
   15.87083340  135.85699463    4.90999985    1.89999998
   15.87666702  135.85699463    4.90999985    1.89999998
   15.88055611  123.76000214    4.90999985    1.89999998
   15.88388920  130.74800110    4.90999985    1.89999998
   15.88722229  133.00199890    4.90999985    1.89999998
   15.89027786  137.44299316    4.90999985    1.89999998
   15.89361095  128.18400574    4.90999985    1.89999998
   15.89694405  129.93400574    4.90999985    1.89999998
   15.89999962  138.53300476    4.90999985    1.89999998
   15.90333271  144.91700745    4.90999985    1.89999998
   15.90638828  134.81900024    4.90999985    1.89999998
   15.90888882  140.56500244    4.90999985    1.89999998
   15.90999985  132.75500488    4.90999985    1.89999998
   15.91333294  137.57099915    4.90999985    1.89999998
   15.91944504  137.57099915    4.90999985    1.89999998
   15.92361164  141.70399475    4.90999985    1.89999998
   15.92666721  131.97599792    4.90999985    1.89999998
   15.93000031  130.73699951    4.90999985    1.89999998
   15.93333340  141.86700439    4.90999985    1.89999998
   15.93638897  136.48699951    4.90999985    1.89999998
   15.93972206  147.92999268    4.90999985    1.89999998
   15.94222260  133.33599854    4.90999985    1.89999998
   15.94333363  141.94999695    4.90999985    1.89999998
   15.94666672  134.76800537    4.90999985    1.89999998
   15.94999981  137.48100281    4.90999985    1.89999998
   15.95305538  130.95100403    4.90999985    1.89999998
   15.95638847  130.46000671    4.90999985    1.89999998
   15.96222210  130.46000671    4.90999985    1.89999998
   15.96638870  136.83900452    4.90999985    1.89999998
   15.96972179  135.38000488    4.90999985    1.89999998
   15.97277737  135.29499817    4.90999985    1.89999998
   15.97555542  133.21299744    4.90999985    1.89999998
   15.97638798  130.21800232    4.90999985    1.89999998
   15.97972202  130.00999451    4.90999985    1.89999998
   15.98305511  134.16400146    4.90999985    1.89999998
   15.98611164  137.14399719    4.90999985    1.89999998
   15.98944473  141.83900452    4.90999985    1.89999998
   15.99277782  135.60899353    4.90999985    1.89999998
   15.99583340  128.19099426    4.90999985    1.89999998
   15.99916649  133.37699890    4.90999985    1.89999998
   16.00499916  133.37699890    4.90999985    1.89999998
   16.00916672  129.06399536    4.90999985    1.89999998
   16.01250076  129.42399597    4.90999985    1.89999998
   16.01555634  133.23100281    4.90999985    1.89999998
   16.01888847  131.87399292    4.90999985    1.89999998
   16.02222252  128.81799316    4.90999985    1.89999998
   16.02527809  134.11500549    4.90999985    1.89999998
   16.02861023  133.32499695    4.90999985    1.89999998
   16.03194427  134.82800293    4.90999985    1.89999998
   16.03499985  138.03900146    4.90999985    1.89999998
   16.03833199  132.30799866    4.90999985    1.89999998
   16.04166603  143.06100464    4.90999985    1.89999998
   16.04222107  127.49600220    4.90999985    1.89999998
   16.04777718  127.49600220    4.90999985    1.89999998
   16.05194283  143.77200317    4.90999985    1.89999998
   16.05527687  128.32000732    4.90999985    1.89999998
   16.05861092  137.72000122    4.90999985    1.89999998
   16.06166649  130.56799316    4.90999985    1.89999998
   16.06499863  146.82099915    4.90999985    1.89999998
   16.06805611  137.74299622    4.90999985    1.89999998
   16.07139015  136.48899841    4.90999985    1.89999998
   16.07472229  132.82899475    4.90999985    1.89999998
   16.07555580  142.07800293    4.90999985    1.89999998
   16.07805634  132.63999939    4.90999985    1.89999998
   16.08139038  137.33999634    4.90999985    1.89999998
   16.08472252  138.33299255    4.90999985    1.89999998
   16.09083366  138.33299255    4.90999985    1.89999998
   16.09500122  134.81700134    4.90999985    1.89999998
   16.09805679  136.67799377    4.90999985    1.89999998
   16.10138893  137.48399353    4.90999985    1.89999998
   16.10472298  140.84300232    4.90999985    1.89999998
   16.10777855  144.18699646    4.90999985    1.89999998
   16.10888863  144.94000244    4.90999985    1.89999998
   16.11138916  139.88200378    4.90999985    1.89999998
   16.11472321  142.18800354    4.90999985    1.89999998
   16.11805534  150.84300232    4.90999985    1.89999998
   16.12111092  139.16200256    4.90999985    1.89999998
   16.12444496  137.20700073    4.90999985    1.89999998
   16.12777710  135.88200378    4.90999985    1.89999998
   16.13361168  135.88200378    4.90999985    1.89999998
   16.13777733  131.40899658    4.90999985    1.89999998
   16.14111137  136.82600403    4.90999985    1.89999998
   16.14222145  139.73199463    4.90999985    1.89999998
   16.14472198  148.47700500    4.90999985    1.89999998
   16.14777756  148.93400574    4.90999985    1.89999998
   16.15111160  134.38900757    4.90999985    1.89999998
   16.15416718  139.62699890    4.90999985    1.89999998
   16.15749931  122.26000214    4.90999985    1.89999998
   16.16083336  140.59199524    4.90999985    1.89999998
   16.16388893  136.83799744    4.90999985    1.89999998
   16.16722107  154.75599670    4.90999985    1.89999998
   16.17027664  147.39799500    4.90999985    1.89999998
   16.17638779  147.39799500    4.90999985    1.89999998
   16.18055534  133.70100403    4.90999985    1.89999998
   16.18388748  134.46299744    4.90999985    1.89999998
   16.18694305  150.13800049    4.90999985    1.89999998
   16.19027710  138.87500000    4.90999985    1.89999998
   16.19361115  146.90400696    4.90999985    1.89999998
   16.19666672  139.55000305    4.90999985    1.89999998
   16.20000076  139.64199829    4.90999985    1.89999998
   16.20333481  128.47599792    4.90999985    1.89999998
   16.20639038  132.75000000    4.90999985    1.89999998
   16.20888901  142.10099792    4.90999985    1.89999998
   16.21027946  139.10800171    4.90999985    1.89999998
   16.21333504  147.66200256    4.90999985    1.89999998
   16.21944427  147.66200256    4.90999985    1.89999998
   16.22361183  128.75300598    4.90999985    1.89999998
   16.22666740  141.67199707    4.90999985    1.89999998
   16.23000145  135.66799927    4.90999985    1.89999998
   16.23333359  145.47900391    4.90999985    1.89999998
   16.23638916  136.50700378    4.90999985    1.89999998
   16.23972321  134.04100037    4.90999985    1.89999998
   16.24222183  140.35699463    4.90999985    1.89999998
   16.24333382  138.63200378    4.90999985    1.89999998
   16.24666786  138.53999329    4.90999985    1.89999998
   16.25000000  132.31799316    4.90999985    1.89999998
   16.25305557  126.68900299    4.90999985    1.89999998
   16.25638962  125.22599792    4.90999985    1.89999998
   16.26222229  125.22599792    4.90999985    1.89999998
   16.26638794  128.26899719    4.90999985    1.89999998
   16.26944351  125.37000275    4.90999985    1.89999998
   16.27277756  130.60800171    4.90999985    1.89999998
   16.27555466  126.82900238    4.90999985    1.89999998
   16.27638817  133.28100586    4.90999985    1.89999998
   16.27972221  134.05099487    4.90999985    1.89999998
   16.28305435  147.22999573    4.90999985    1.89999998
   16.28638840  137.57600403    4.90999985    1.89999998
   16.28944397  132.68400574    4.90999985    1.89999998
   16.29277802  132.01300049    4.90999985    1.89999998
   16.29611015  131.27400208    4.90999985    1.89999998
   16.29916573  133.19099426    4.90999985    1.89999998
   16.30499840  133.19099426    4.90999985    1.89999998
   16.30916595  134.83399963    4.90999985    1.89999998
   16.31222153  137.76600647    4.90999985    1.89999998
   16.31555557  144.45100403    4.90999985    1.89999998
   16.31888962  135.39500427    4.90999985    1.89999998
   16.32194519  124.85399628    4.90999985    1.89999998
   16.32527924  137.97099304    4.90999985    1.89999998
   16.32861137  138.72399902    4.90999985    1.89999998
   16.33194542  140.04200745    4.90999985    1.89999998
   16.33527756  133.57400513    4.90999985    1.89999998
   16.33861160  137.96499634    4.90999985    1.89999998
   16.34166718  142.48399353    4.90999985    1.89999998
   16.34222221  147.14199829    4.90999985    1.89999998
   16.34777832  147.14199829    4.90999985    1.89999998
   16.35194397  131.18299866    4.90999985    1.89999998
   16.35527802  148.82000732    4.90999985    1.89999998
   16.35833359  144.98100281    4.90999985    1.89999998
   16.36166763  142.58299255    4.90999985    1.89999998
   16.36499977  144.27499390    4.90999985    1.89999998
   16.36805534  139.17399597    4.90999985    1.89999998
   16.37138939  134.83799744    4.90999985    1.89999998
   16.37472153  140.79499817    4.90999985    1.89999998
   16.37555504  124.32399750    4.90999985    1.89999998
   16.37833405  135.18299866    4.90999985    1.89999998
   16.38166618  140.53300476    4.90999985    1.89999998
   16.38472176  137.92999268    4.90999985    1.89999998
   16.39083290  137.92999268    4.90999985    1.89999998
   16.39472198  135.56199646    4.90999985    1.89999998
   16.39805603  151.19299316    4.90999985    1.89999998
   16.40138817  136.83700562    4.90999985    1.89999998
   16.40444374  137.40299988    4.90999985    1.89999998
   16.40777779  122.73200226    4.90999985    1.89999998
   16.40888786  135.70700073    4.90999985    1.89999998
   16.41138840  146.43699646    4.90999985    1.89999998
   16.41472244  144.77000427    4.90999985    1.89999998
   16.41777802  141.50900269    4.90999985    1.89999998
   16.42111015  125.40399933    4.90999985    1.89999998
   16.42444420  136.75999451    4.90999985    1.89999998
   16.42749977  142.25199890    4.90999985    1.89999998
   16.43361092  142.25199890    4.90999985    1.89999998
   16.43777657  143.25599670    4.90999985    1.89999998
   16.44083214  147.61599731    4.90999985    1.89999998
   16.44222069  143.35299683    4.90999985    1.89999998
   16.44444275  148.30599976    4.90999985    1.89999998
   16.44777679  137.65899658    4.90999985    1.89999998
   16.45083427  148.65800476    4.90999985    1.89999998
   16.45416832  143.23800659    4.90999985    1.89999998
   16.45722389  142.00700378    4.90999985    1.89999998
   16.46055603  147.31399536    4.90999985    1.89999998
   16.46389008  138.52799988    4.90999985    1.89999998
   16.46694565  130.68299866    4.90999985    1.89999998
   16.47027779  139.04499817    4.90999985    1.89999998
   16.47638893  139.04499817    4.90999985    1.89999998
   16.48055649  140.16400146    4.90999985    1.89999998
   16.48388863  140.62899780    4.90999985    1.89999998
   16.48694420  139.42599487    4.90999985    1.89999998
   16.49027824  134.09399414    4.90999985    1.89999998
   16.49333382  141.87600708    4.90999985    1.89999998
   16.49666786  140.71600342    4.90999985    1.89999998
   16.50000000  144.05999756    4.90999985    1.89999998
   16.50305557  134.91999817    4.90999985    1.89999998
   16.50638962  136.76899719    4.90999985    1.89999998
   16.50888824  135.60499573    4.90999985    1.89999998
   16.51000023  138.20399475    4.90999985    1.89999998
   16.51333427  143.93499756    4.90999985    1.89999998
   16.51916695  143.93499756    4.90999985    1.89999998
   16.52333260  141.30999756    4.90999985    1.89999998
   16.52666664  128.57000732    4.90999985    1.89999998
   16.52972221  141.68299866    4.90999985    1.89999998
   16.53305435  127.99700165    4.90999985    1.89999998
   16.53638840  143.11999512    4.90999985    1.89999998
   16.53944397  139.72999573    4.90999985    1.89999998
   16.54222107  141.56599426    4.90999985    1.89999998
   16.54305458  136.19700623    4.90999985    1.89999998
   16.54611015  144.28399658    4.90999985    1.89999998
   16.54944420  138.94000244    4.90999985    1.89999998
   16.55277634  136.77299500    4.90999985    1.89999998
   16.55583191  141.81300354    4.90999985    1.89999998
   16.56222153  141.81300354    4.90999985    1.89999998
   16.56611061  139.49899292    4.90999985    1.89999998
   16.56944466  143.93299866    4.90999985    1.89999998
   16.57277870  140.22599792    4.90999985    1.89999998
   16.57555580  136.92500305    4.90999985    1.89999998
   16.57638931  141.23399353    4.90999985    1.89999998
   16.57944489  128.16900635    4.90999985    1.89999998
   16.58277893  134.12600708    4.90999985    1.89999998
   16.58611107  135.05000305    4.90999985    1.89999998
   16.58916664  141.21499634    4.90999985    1.89999998
   16.59250069  139.15600586    4.90999985    1.89999998
   16.59583473  137.79299927    4.90999985    1.89999998
   16.59889030  134.58000183    4.90999985    1.89999998
   16.60499954  134.58000183    4.90999985    1.89999998
   16.60916710  145.91299438    4.90999985    1.89999998
   16.61222267  130.72700500    4.90999985    1.89999998
   16.61555672  136.06799316    4.90999985    1.89999998
   16.61888885  141.51300049    4.90999985    1.89999998
   16.62222290  145.61799622    4.90999985    1.89999998
   16.62527847  146.59399414    4.90999985    1.89999998
   16.62861061  137.28700256    4.90999985    1.89999998
   16.63166618  134.21899414    4.90999985    1.89999998
   16.63500023  136.76800537    4.90999985    1.89999998
   16.63833237  141.89900208    4.90999985    1.89999998
   16.64138794  133.83700562    4.90999985    1.89999998
   16.64222145  140.98399353    4.90999985    1.89999998
   16.66305542  140.98399353    4.90999985    1.89999998
   16.66694450  133.36900330    4.90999985    1.89999998
   16.67027664  129.00199890    4.90999985    1.89999998
   16.67361069  133.94900513    4.90999985    1.89999998
   16.67555428  132.04200745    4.90999985    1.89999998
   16.67722130  134.66099548    4.90999985    1.89999998
   16.68055534  135.08200073    4.90999985    1.89999998
   16.68361092  134.12899780    4.90999985    1.89999998
   16.68694305  133.69500732    4.90999985    1.89999998
   16.69027710  134.35099792    4.90999985    1.89999998
   16.69333267  135.56399536    4.90999985    1.89999998
   16.69666672  133.94299316    4.90999985    1.89999998
   16.69972038  137.16600037    4.90999985    1.89999998
   16.70583344  137.16600037    4.90999985    1.89999998
   16.70972252  127.33200073    4.90999985    1.89999998
   16.71305656  136.30099487    4.90999985    1.89999998
   16.71638870  133.06399536    4.90999985    1.89999998
   16.71944427  134.42199707    4.90999985    1.89999998
   16.72277832  137.25199890    4.90999985    1.89999998
   16.72583389  137.41999817    4.90999985    1.89999998
   16.72916794  131.60899353    4.90999985    1.89999998
   16.73250008  142.89999390    4.90999985    1.89999998
   16.73555565  133.32099915    4.90999985    1.89999998
   16.73888969  135.67999268    4.90999985    1.89999998
   16.74222183  135.55999756    4.90999985    1.89999998
   16.74277878  132.23500061    4.90999985    1.89999998
   16.74861145  132.23500061    4.90999985    1.89999998
   16.75277710  139.74400330    4.90999985    1.89999998
   16.75583267  129.75999451    4.90999985    1.89999998
   16.75916672  124.33799744    4.90999985    1.89999998
   16.76222229  135.31399536    4.90999985    1.89999998
   16.76555634  131.41700745    4.90999985    1.89999998
   16.76888847  154.00399780    4.90999985    1.89999998
   16.77194405  132.18299866    4.90999985    1.89999998
   16.77527809  137.67300415    4.90999985    1.89999998
   16.77611160  146.25199890    4.90999985    1.89999998
   16.77888870  138.71800232    4.90999985    1.89999998
   16.78222275  146.92900085    4.90999985    1.89999998
   16.78527641  135.51499939    4.90999985    1.89999998
   16.79138756  135.51499939    4.90999985    1.89999998
   16.79555511  131.42999268    4.90999985    1.89999998
   16.79861069  138.63900757    4.90999985    1.89999998
   16.80194283  144.13999939    4.90999985    1.89999998
   16.80527687  144.61099243    4.90999985    1.89999998
   16.80833244  148.66700745    4.90999985    1.89999998
   16.80944443  134.26499939    4.90999985    1.89999998
   16.81194305  130.64100647    4.90999985    1.89999998
   16.81527710  133.58299255    4.90999985    1.89999998
   16.81833458  148.74800110    4.90999985    1.89999998
   16.82166672  137.88999939    4.90999985    1.89999998
   16.82500076  141.49400330    4.90999985    1.89999998
   16.82805634  132.50599670    4.90999985    1.89999998
   16.83416748  132.50599670    4.90999985    1.89999998
   16.83833313  130.46699524    4.90999985    1.89999998
   16.84166718  145.45100403    4.90999985    1.89999998
   16.84277916  142.24299622    4.90999985    1.89999998
   16.84527779  142.02600098    4.90999985    1.89999998
   16.84861183  133.38900757    4.90999985    1.89999998
   16.85194397  137.51800537    4.90999985    1.89999998
   16.85499954  146.06500244    4.90999985    1.89999998
   16.85833359  131.80200195    4.90999985    1.89999998
   16.86138916  135.25799561    4.90999985    1.89999998
   16.86472321  140.09100342    4.90999985    1.89999998
   16.86805534  143.14399719    4.90999985    1.89999998
   16.87111092  132.21800232    4.90999985    1.89999998
   16.87722206  132.21800232    4.90999985    1.89999998
   16.88111115  143.49899292    4.90999985    1.89999998
   16.88444519  149.69099426    4.90999985    1.89999998
   16.88777733  138.86099243    4.90999985    1.89999998
   16.89083290  133.82600403    4.90999985    1.89999998
   16.89416695  149.09100342    4.90999985    1.89999998
   16.89722252  148.64500427    4.90999985    1.89999998
   16.90055466  130.25300598    4.90999985    1.89999998
   16.90388870  145.62399292    4.90999985    1.89999998
   16.90694427  147.45199585    4.90999985    1.89999998
   16.90944481  146.75100708    4.90999985    1.89999998
   16.91055489  140.61700439    4.90999985    1.89999998
   16.91388893  135.42399597    4.90999985    1.89999998
   16.92000008  135.42399597    4.90999985    1.89999998
   16.92416573  141.66700745    4.90999985    1.89999998
   16.92722130  143.53999329    4.90999985    1.89999998
   16.93055534  141.76100159    4.90999985    1.89999998
   16.93361092  146.02000427    4.90999985    1.89999998
   16.93694305  130.09300232    4.90999985    1.89999998
   16.94027710  137.82200623    4.90999985    1.89999998
   16.94277763  144.22200012    4.90999985    1.89999998
   16.94388771  133.08200073    4.90999985    1.89999998
   16.94722176  146.38000488    4.90999985    1.89999998
   16.95055580  144.65899658    4.90999985    1.89999998
   16.95361137  136.58299255    4.90999985    1.89999998
   16.95694542  141.04899597    4.90999985    1.89999998
   16.96277809  141.04899597    4.90999985    1.89999998
   16.96694565  143.41999817    4.90999985    1.89999998
   16.97000122  138.02400208    4.90999985    1.89999998
   16.97333336  143.70399475    4.90999985    1.89999998
   16.97611237  134.33399963    4.90999985    1.89999998
   16.97694588  149.93800354    4.90999985    1.89999998
   16.98027802  139.63200378    4.90999985    1.89999998
   16.98333359  127.88899994    4.90999985    1.89999998
   16.98666763  139.57200623    4.90999985    1.89999998
   16.98999977  136.39500427    4.90999985    1.89999998
   16.99305534  137.84599304    4.90999985    1.89999998
   16.99638939  133.56100464    4.90999985    1.89999998
   16.99972153  140.80799866    4.90999985    1.89999998
   17.00555611  140.80799866    4.90999985    1.89999998
   17.00972176  137.14599609    4.90999985    1.89999998
   17.01305580  148.22399902    4.90999985    1.89999998
   17.01611137  136.67900085    4.90999985    1.89999998
   17.01944351  147.07899475    4.90999985    1.89999998
   17.02277756  133.29299927    4.90999985    1.89999998
   17.02583313  139.51300049    4.90999985    1.89999998
   17.02916718  135.38099670    4.90999985    1.89999998
   17.03222275  137.95100403    4.90999985    1.89999998
   17.03555489  140.35200500    4.90999985    1.89999998
   17.03888893  136.83500671    4.90999985    1.89999998
   17.04194450  146.50700378    4.90999985    1.89999998
   17.04277802  135.19200134    4.90999985    1.89999998
   17.04833221  135.19200134    4.90999985    1.89999998
   17.05249977  141.77999878    4.90999985    1.89999998
   17.05583191  140.90499878    4.90999985    1.89999998
   17.05916595  140.36900330    4.90999985    1.89999998
   17.06222153  135.54699707    4.90999985    1.89999998
   17.06555557  142.80499268    4.90999985    1.89999998
   17.06888962  142.57000732    4.90999985    1.89999998
   17.07194519  144.60099792    4.90999985    1.89999998
   17.07527924  142.58700562    4.90999985    1.89999998
   17.07611275  129.07400513    4.90999985    1.89999998
   17.07888985  137.37899780    4.90999985    1.89999998
   17.08222389  127.15299988    4.90999985    1.89999998
   17.08555603  125.83699799    4.90999985    1.89999998
   17.09138870  125.83699799    4.90999985    1.89999998
   17.09555626  141.06700134    4.90999985    1.89999998
   17.09861183  138.41700745    4.90999985    1.89999998
   17.10194397  141.40299988    4.90999985    1.89999998
   17.10499954  141.38499451    4.90999985    1.89999998
   17.10833359  137.87399292    4.90999985    1.89999998
   17.10944557  143.44099426    4.90999985    1.89999998
   17.11194420  143.26800537    4.90999985    1.89999998
   17.11527824  143.97399902    4.90999985    1.89999998
   17.11861038  139.05200195    4.90999985    1.89999998
   17.12166595  138.60699463    4.90999985    1.89999998
   17.12500000  140.15499878    4.90999985    1.89999998
   17.12805557  143.30499268    4.90999985    1.89999998
   17.13416672  143.30499268    4.90999985    1.89999998
   17.13833237  141.89300537    4.90999985    1.89999998
   17.14138794  140.68400574    4.90999985    1.89999998
   17.14277840  135.97099304    4.90999985    1.89999998
   17.14527702  134.31599426    4.90999985    1.89999998
   17.14833260  140.40100098    4.90999985    1.89999998
   17.15166664  140.66099548    4.90999985    1.89999998
   17.15472221  139.76300049    4.90999985    1.89999998
   17.15805435  135.26100159    4.90999985    1.89999998
   17.16138840  151.30499268    4.90999985    1.89999998
   17.16444397  151.24699402    4.90999985    1.89999998
   17.16777802  137.71699524    4.90999985    1.89999998
   17.17111015  138.69400024    4.90999985    1.89999998
   17.17694473  138.69400024    4.90999985    1.89999998
   17.18111038  155.36500549    4.90999985    1.89999998
   17.18444443  148.46800232    4.90999985    1.89999998
   17.18750000  139.05599976    4.90999985    1.89999998
   17.19083214  147.11300659    4.90999985    1.89999998
   17.19416618  137.66299438    4.90999985    1.89999998
   17.19722176  150.36199951    4.90999985    1.89999998
   17.20055580  145.89500427    4.90999985    1.89999998
   17.20361137  142.44000244    4.90999985    1.89999998
   17.20694542  146.35299683    4.90999985    1.89999998
   17.20944595  150.20799255    4.90999985    1.89999998
   17.21055603  148.92100525    4.90999985    1.89999998
   17.21389008  143.72000122    4.90999985    1.89999998
   17.21972275  143.72000122    4.90999985    1.89999998
   17.22389030  147.67799377    4.90999985    1.89999998
   17.22722244  141.17599487    4.90999985    1.89999998
   17.23055649  147.98800659    4.90999985    1.89999998
   17.23361206  144.02099609    4.90999985    1.89999998
   17.23694420  152.71899414    4.90999985    1.89999998
   17.23999977  138.05799866    4.90999985    1.89999998
   17.24277878  136.69599915    4.90999985    1.89999998
   17.24388885  145.69599915    4.90999985    1.89999998
   17.24694443  142.09700012    4.90999985    1.89999998
   17.25027847  146.53500366    4.90999985    1.89999998
   17.25333405  146.61900330    4.90999985    1.89999998
   17.25666618  141.30700684    4.90999985    1.89999998
   17.26277733  141.30700684    4.90999985    1.89999998
   17.26694489  144.29400635    4.90999985    1.89999998
   17.27000046  144.67500305    4.90999985    1.89999998
   17.27333260  136.00300598    4.90999985    1.89999998
   17.27611160  136.19200134    4.90999985    1.89999998
   17.27694511  143.58500671    4.90999985    1.89999998
   17.28027725  139.85200500    4.90999985    1.89999998
   17.28361130  138.23100281    4.90999985    1.89999998
   17.28666687  137.52900696    4.90999985    1.89999998
   17.28999901  138.44299316    4.90999985    1.89999998
   17.29333305  147.01199341    4.90999985    1.89999998
   17.29638863  146.93899536    4.90999985    1.89999998
   17.29972076  139.69700623    4.90999985    1.89999998
   17.30555534  139.69700623    4.90999985    1.89999998
   17.30972099  145.54400635    4.90999985    1.89999998
   17.31305504  147.75100708    4.90999985    1.89999998
   17.31638718  138.17900085    4.90999985    1.89999998
   17.31944466  149.62899780    4.90999985    1.89999998
   17.32277870  139.47399902    4.90999985    1.89999998
   17.32583427  148.70899963    4.90999985    1.89999998
   17.32916832  142.12800598    4.90999985    1.89999998
   17.33250046  146.25399780    4.90999985    1.89999998
   17.33555603  143.80900574    4.90999985    1.89999998
   17.33889008  152.52799988    4.90999985    1.89999998
   17.34222221  149.21299744    4.90999985    1.89999998
   17.34277916  144.19400024    4.90999985    1.89999998
   17.34833336  144.19400024    4.90999985    1.89999998
   17.35250092  138.02699280    4.90999985    1.89999998
   17.35583305  151.44599915    4.90999985    1.89999998
   17.35888863  157.71299744    4.90999985    1.89999998
   17.36222267  150.64500427    4.90999985    1.89999998
   17.36527824  159.16000366    4.90999985    1.89999998
   17.36861038  149.88499451    4.90999985    1.89999998
   17.37194443  149.36900330    4.90999985    1.89999998
   17.37500000  149.89399719    4.90999985    1.89999998
   17.37611198  154.59899902    4.90999985    1.89999998
   17.37861061  150.97300720    4.90999985    1.89999998
   17.38194466  154.02799988    4.90999985    1.89999998
   17.38527679  160.88600159    4.90999985    1.89999998
   17.39111137  160.88600159    4.90999985    1.89999998
   17.39527702  147.87600708    4.90999985    1.89999998
   17.39861107  148.41499329    4.90999985    1.89999998
   17.40166664  151.69200134    4.90999985    1.89999998
   17.40499878  158.60699463    4.90999985    1.89999998
   17.40833282  148.29200745    4.90999985    1.89999998
   17.40944481  145.67100525    4.90999985    1.89999998
   17.41166687  144.29899597    4.90999985    1.89999998
   17.41499901  151.89399719    4.90999985    1.89999998
   17.41833305  141.97399902    4.90999985    1.89999998
   17.42138863  147.78399658    4.90999985    1.89999998
   17.42472076  138.93699646    4.90999985    1.89999998
   17.42805481  142.69400024    4.90999985    1.89999998
   17.43416595  142.69400024    4.90999985    1.89999998
   17.43805504  146.30400085    4.90999985    1.89999998
   17.44138718  141.31599426    4.90999985    1.89999998
   17.44277763  149.73699951    4.90999985    1.89999998
   17.44499969  154.64300537    4.90999985    1.89999998
   17.44833183  143.53999329    4.90999985    1.89999998
   17.45166779  147.46099854    4.90999985    1.89999998
   17.45472336  148.18200684    4.90999985    1.89999998
   17.45805550  144.47200012    4.90999985    1.89999998
   17.46138954  144.23399353    4.90999985    1.89999998
   17.46444511  143.66999817    4.90999985    1.89999998
   17.46777916  153.85699463    4.90999985    1.89999998
   17.47083473  146.09399414    4.90999985    1.89999998
   17.47694588  146.09399414    4.90999985    1.89999998
   17.48111153  147.96099854    4.90999985    1.89999998
   17.48416710  147.59899902    4.90999985    1.89999998
   17.48750114  155.89799500    4.90999985    1.89999998
   17.49083328  157.64199829    4.90999985    1.89999998
   17.49416733  158.00599670    4.90999985    1.89999998
   17.49722290  158.34700012    4.90999985    1.89999998
   17.50055504  152.79400635    4.90999985    1.89999998
   17.50361061  154.05599976    4.90999985    1.89999998
   17.50694466  144.40899658    4.90999985    1.89999998
   17.50944519  150.62100220    4.90999985    1.89999998
   17.51055527  141.69099426    4.90999985    1.89999998
   17.51388931  139.52099609    4.90999985    1.89999998
   17.51972198  139.52099609    4.90999985    1.89999998
   17.52388954  152.55299377    4.90999985    1.89999998
   17.52722168  148.90899658    4.90999985    1.89999998
   17.53027725  142.88800049    4.90999985    1.89999998
   17.53361130  154.52400208    4.90999985    1.89999998
   17.53666687  151.01300049    4.90999985    1.89999998
   17.53999901  152.75000000    4.90999985    1.89999998
   17.54277802  153.67199707    4.90999985    1.89999998
   17.54388809  152.84599304    4.90999985    1.89999998
   17.54694366  152.89799500    4.90999985    1.89999998
   17.55027771  153.27799988    4.90999985    1.89999998
   17.55333328  157.42599487    4.90999985    1.89999998
   17.55666542  153.27299500    4.90999985    1.89999998
   17.56250000  153.27299500    4.90999985    1.89999998
   17.56666756  156.54699707    4.90999985    1.89999998
   17.57000160  143.51400757    4.90999985    1.89999998
   17.57333374  150.27000427    4.90999985    1.89999998
   17.57611275  154.87699890    4.90999985    1.89999998
   17.57694626  157.52900696    4.90999985    1.89999998
   17.58000183  158.16400146    4.90999985    1.89999998
   17.58333397  155.06599426    4.90999985    1.89999998
   17.58666801  156.70300293    4.90999985    1.89999998
   17.58972359  159.05499268    4.90999985    1.89999998
   17.59305573  155.88900757    4.90999985    1.89999998
   17.59638977  151.32600403    4.90999985    1.89999998
   17.59944534  151.31300354    4.90999985    1.89999998
   17.60555649  151.31300354    4.90999985    1.89999998
   17.60944557  146.74000549    4.90999985    1.89999998
   17.61277771  151.22200012    4.90999985    1.89999998
   17.61611176  147.50300598    4.90999985    1.89999998
   17.61916733  158.01899719    4.90999985    1.89999998
   17.62249947  159.67900085    4.90999985    1.89999998
   17.62583351  149.29400635    4.90999985    1.89999998
   17.62888908  159.46899414    4.90999985    1.89999998
   17.63222313  159.03500366    4.90999985    1.89999998
   17.63527679  147.72900391    4.90999985    1.89999998
   17.63861084  161.88699341    4.90999985    1.89999998
   17.64194489  161.17700195    4.90999985    1.89999998
   17.64277840  161.93400574    4.90999985    1.89999998
   17.64833260  161.93400574    4.90999985    1.89999998
   17.65250015  159.15499878    4.90999985    1.89999998
   17.65555573  158.03300476    4.90999985    1.89999998
   17.65888786  150.72599792    4.90999985    1.89999998
   17.67638779  158.68800354    4.90999985    1.89999998
   17.67888832  146.20599365    4.90999985    1.89999998
   17.68249893  149.22700500    4.90999985    1.89999998
   17.68555450  150.25599670    4.90999985    1.89999998
   17.69138718  150.25599670    4.90999985    1.89999998
   17.69555473  153.49099731    4.90999985    1.89999998
   17.69861031  150.06199646    4.90999985    1.89999998
   17.70194435  151.04299927    4.90999985    1.89999998
   17.70499992  150.12300110    4.90999985    1.89999998
   17.70833397  153.58599854    4.90999985    1.89999998
   17.70972252  154.96400452    4.90999985    1.89999998
   17.71222305  153.67799377    4.90999985    1.89999998
   17.71527863  148.23300171    4.90999985    1.89999998
   17.71861076  158.76400757    4.90999985    1.89999998
   17.72194481  149.59399414    4.90999985    1.89999998
   17.72500038  158.13000488    4.90999985    1.89999998
   17.72833443  153.30499268    4.90999985    1.89999998
   17.73416710  153.30499268    4.90999985    1.89999998
   17.73833275  154.87100220    4.90999985    1.89999998
   17.74138832  162.09800720    4.90999985    1.89999998
   17.74305534  156.21000671    4.90999985    1.89999998
   17.74527740  160.67100525    4.90999985    1.89999998
   17.74833298  162.42399597    4.90999985    1.89999998
   17.75166702  161.09899902    4.90999985    1.89999998
   17.75499916  173.13800049    4.90999985    1.89999998
   17.75833321  154.99000549    4.90999985    1.89999998
   17.76138878  148.94900513    4.90999985    1.89999998
   17.76472282  157.94999695    4.90999985    1.89999998
   17.76777840  155.56199646    4.90999985    1.89999998
   17.77111053  156.92999268    4.90999985    1.89999998
   17.77694511  156.92999268    4.90999985    1.89999998
   17.78111076  160.33799744    4.90999985    1.89999998
   17.78444481  149.03100586    4.90999985    1.89999998
   17.78777695  157.03700256    4.90999985    1.89999998
   17.79083252  158.64399719    4.90999985    1.89999998
   17.79416656  142.89100647    4.90999985    1.89999998
   17.79722214  157.91600037    4.90999985    1.89999998
   17.80055428  161.46200562    4.90999985    1.89999998
   17.80388832  163.54499817    4.90999985    1.89999998
   17.80694389  153.63099670    4.90999985    1.89999998
   17.80972099  155.42599487    4.90999985    1.89999998
   17.81083298  157.04499817    4.90999985    1.89999998
   17.81388855  163.03100586    4.90999985    1.89999998
   17.81972313  163.03100586    4.90999985    1.89999998
   17.82389069  160.79200745    4.90999985    1.89999998
   17.82722282  159.38099670    4.90999985    1.89999998
   17.83055687  172.01699829    4.90999985    1.89999998
   17.83361244  159.07800293    4.90999985    1.89999998
   17.83694458  173.10000610    4.90999985    1.89999998
   17.84000015  163.86799622    4.90999985    1.89999998
   17.84333420  151.34800720    4.90999985    1.89999998
   17.84416771  154.38699341    4.90999985    1.89999998
   17.84749985  159.62500000    4.90999985    1.89999998
   17.85055542  163.22399902    4.90999985    1.89999998
   17.85388947  160.65199280    4.90999985    1.89999998
   17.85694504  163.93600464    4.90999985    1.89999998
   17.86277771  163.93600464    4.90999985    1.89999998
   17.86694527  149.97000122    4.90999985    1.89999998
   17.87000084  166.13999939    4.90999985    1.89999998
   17.87333298  157.48800659    4.90999985    1.89999998
   17.87638855  156.84599304    4.90999985    1.89999998
   17.87694550  152.51600647    4.90999985    1.89999998
   17.88000107  158.83099365    4.90999985    1.89999998
   17.88333321  160.66900635    4.90999985    1.89999998
   17.88666725  157.29600525    4.90999985    1.89999998
   17.88972282  159.51400757    4.90999985    1.89999998
   17.89305496  164.73300171    4.90999985    1.89999998
   17.89611053  149.99899292    4.90999985    1.89999998
   17.89944458  152.04200745    4.90999985    1.89999998
   17.90555573  152.04200745    4.90999985    1.89999998
   17.90972137  148.90400696    4.90999985    1.89999998
   17.91027832  151.81399536    4.90999985    1.89999998
   17.91333389  159.30000305    4.90999985    1.89999998
   17.91666603  159.52200317    4.90999985    1.89999998
   17.92000008  158.82200623    4.90999985    1.89999998
   17.92305565  155.86799622    4.90999985    1.89999998
   17.92638779  166.34899902    4.90999985    1.89999998
   17.92972183  156.17500305    4.90999985    1.89999998
   17.93277740  162.90400696    4.90999985    1.89999998
   17.93610954  156.79200745    4.90999985    1.89999998
   17.93944359  156.42500305    4.90999985    1.89999998
   17.94249916  166.62699890    4.90999985    1.89999998
   17.94305420  160.57899475    4.90999985    1.89999998
   17.94833183  160.57899475    4.90999985    1.89999998
   17.95250130  153.53300476    4.90999985    1.89999998
   17.95583344  159.38900757    4.90999985    1.89999998
   17.95888901  153.62899780    4.90999985    1.89999998
   17.96222305  160.27799988    4.90999985    1.89999998
   17.96555710  151.60099792    4.90999985    1.89999998
   17.96861076  151.56199646    4.90999985    1.89999998
   17.97194481  151.57699585    4.90999985    1.89999998
   17.97500038  154.27799988    4.90999985    1.89999998
   17.97638893  153.77099609    4.90999985    1.89999998
   17.97888947  158.07099915    4.90999985    1.89999998
   17.98194504  151.28199768    4.90999985    1.89999998
   17.98527718  159.08299255    4.90999985    1.89999998
   17.99111176  159.08299255    4.90999985    1.89999998
   17.99527740  155.34500122    4.90999985    1.89999998
   17.99861145  147.90800476    4.90999985    1.89999998
   18.00194359  155.58399963    4.90999985    1.89999998
   18.00499916  151.77200317    4.90999985    1.89999998
   18.00833321  150.58299255    4.90999985    1.89999998
   18.00972176  153.01800537    4.90999985    1.89999998
   18.01194382  152.70399475    4.90999985    1.89999998
   18.01527786  155.35600281    4.90999985    1.89999998
   18.01833344  148.66099548    4.90999985    1.89999998
   18.02166557  149.95799255    4.90999985    1.89999998
   18.02472115  147.82400513    4.90999985    1.89999998
   18.02805519  151.50500488    4.90999985    1.89999998
   18.03416634  151.50500488    4.90999985    1.89999998
   18.03833199  143.43499756    4.90999985    1.89999998
   18.04138756  146.76600647    4.90999985    1.89999998
   18.04305458  153.80400085    4.90999985    1.89999998
   18.04500008  154.56300354    4.90999985    1.89999998
   18.04805565  152.30799866    4.90999985    1.89999998
   18.05138779  150.90199280    4.90999985    1.89999998
   18.05472183  150.98699951    4.90999985    1.89999998
   18.05777740  150.53799438    4.90999985    1.89999998
   18.06110954  150.18299866    4.90999985    1.89999998
   18.06444359  145.26199341    4.90999985    1.89999998
   18.06750107  149.56599426    4.90999985    1.89999998
   18.07083511  142.62100220    4.90999985    1.89999998
   18.07694626  142.62100220    4.90999985    1.89999998
   18.08111191  147.53900146    4.90999985    1.89999998
   18.08444595  146.17599487    4.90999985    1.89999998
   18.08750153  151.67700195    4.90999985    1.89999998
   18.09083366  142.93600464    4.90999985    1.89999998
   18.09388924  141.80799866    4.90999985    1.89999998
   18.09722328  148.87100220    4.90999985    1.89999998
   18.10055542  146.36099243    4.90999985    1.89999998
   18.10361099  144.44900513    4.90999985    1.89999998
   18.10694504  142.65299988    4.90999985    1.89999998
   18.10972214  141.45399475    4.90999985    1.89999998
   18.11055565  141.15400696    4.90999985    1.89999998
   18.11361122  142.93099976    4.90999985    1.89999998
   18.11972237  142.93099976    4.90999985    1.89999998
   18.12388992  138.00999451    4.90999985    1.89999998
   18.12722206  148.58200073    4.90999985    1.89999998
   18.13027763  145.12800598    4.90999985    1.89999998
   18.13361168  144.52799988    4.90999985    1.89999998
   18.13694382  144.68699646    4.90999985    1.89999998
   18.13999939  144.62399292    4.90999985    1.89999998
   18.14305496  141.30200195    4.90999985    1.89999998
   18.14361191  148.17599487    4.90999985    1.89999998
   18.14666748  146.12199402    4.90999985    1.89999998
   18.14999962  144.53700256    4.90999985    1.89999998
   18.15333366  145.02799988    4.90999985    1.89999998
   18.15638924  144.71200562    4.90999985    1.89999998
   18.16277695  144.71200562    4.90999985    1.89999998
   18.16666603  144.87399292    4.90999985    1.89999998
   18.17000008  144.45899963    4.90999985    1.89999998
   18.17333221  141.50700378    4.90999985    1.89999998
   18.17638779  146.46000671    4.90999985    1.89999998
   18.17694473  143.20700073    4.90999985    1.89999998
   18.18000031  143.37300110    4.90999985    1.89999998
   18.18333244  140.42300415    4.90999985    1.89999998
   18.18666649  139.57699585    4.90999985    1.89999998
   18.18972206  144.02200317    4.90999985    1.89999998
   18.19305420  137.96299744    4.90999985    1.89999998
   18.19638824  140.20300293    4.90999985    1.89999998
   18.19944382  142.05900574    4.90999985    1.89999998
   18.20555687  142.05900574    4.90999985    1.89999998
   18.20972252  142.95599365    4.90999985    1.89999998
   18.21027946  146.43600464    4.90999985    1.89999998
   18.21333504  144.75100708    4.90999985    1.89999998
   18.21666718  147.69000244    4.90999985    1.89999998
   18.22000122  145.11199951    4.90999985    1.89999998
   18.22305679  143.96200562    4.90999985    1.89999998
   18.22638893  146.61799622    4.90999985    1.89999998
   18.22944450  147.37500000    4.90999985    1.89999998
   18.23277855  139.82000732    4.90999985    1.89999998
   18.23611069  140.62199402    4.90999985    1.89999998
   18.23916626  144.88600159    4.90999985    1.89999998
   18.24250031  138.32400513    4.90999985    1.89999998
   18.24361229  130.77999878    4.90999985    1.89999998
   18.24833298  130.77999878    4.90999985    1.89999998
   18.25250053  147.11900330    4.90999985    1.89999998
   18.25583267  143.78399658    4.90999985    1.89999998
   18.25888824  136.92700195    4.90999985    1.89999998
   18.26222229  138.88200378    4.90999985    1.89999998
   18.26555634  144.29400635    4.90999985    1.89999998
   18.26861000  135.19400024    4.90999985    1.89999998
   18.27194405  139.38800049    4.90999985    1.89999998
   18.27527809  140.17799377    4.90999985    1.89999998
   18.27694511  137.92900085    4.90999985    1.89999998
   18.27861023  141.03900146    4.90999985    1.89999998
   18.28194427  140.98800659    4.90999985    1.89999998
   18.28527641  138.40100098    4.90999985    1.89999998
   18.29111099  138.40100098    4.90999985    1.89999998
   18.29527664  139.33999634    4.90999985    1.89999998
   18.29861069  143.60499573    4.90999985    1.89999998
   18.30166626  141.41600037    4.90999985    1.89999998
   18.30499840  139.30799866    4.90999985    1.89999998
   18.30833244  139.96699524    4.90999985    1.89999998
   18.31027794  138.72799683    4.90999985    1.89999998
   18.31166649  140.33999634    4.90999985    1.89999998
   18.31499863  137.96800232    4.90999985    1.89999998
   18.31833458  136.37100220    4.90999985    1.89999998
   18.32139015  141.25100708    4.90999985    1.89999998
   18.32472229  139.44000244    4.90999985    1.89999998
   18.32777786  136.77600098    4.90999985    1.89999998
   18.33388901  136.77600098    4.90999985    1.89999998
   18.33805656  132.48100281    4.90999985    1.89999998
   18.34138870  142.72500610    4.90999985    1.89999998
   18.34361267  138.41900635    4.90999985    1.89999998
   18.34527779  140.08299255    4.90999985    1.89999998
   18.34833336  138.13000488    4.90999985    1.89999998
   18.35166740  138.21899414    4.90999985    1.89999998
   18.35472298  138.79800415    4.90999985    1.89999998
   18.35805511  143.12699890    4.90999985    1.89999998
   18.36138916  133.00300598    4.90999985    1.89999998
   18.36444473  134.48300171    4.90999985    1.89999998
   18.36777878  145.14799500    4.90999985    1.89999998
   18.37111092  144.51300049    4.90999985    1.89999998
   18.37694550  144.51300049    4.90999985    1.89999998
   18.38111115  137.31500244    4.90999985    1.89999998
   18.38416672  149.68699646    4.90999985    1.89999998
   18.38750076  138.90800476    4.90999985    1.89999998
   18.39055634  139.93800354    4.90999985    1.89999998
   18.39388847  136.36099243    4.90999985    1.89999998
   18.39722252  137.36700439    4.90999985    1.89999998
   18.40027809  142.28500366    4.90999985    1.89999998
   18.40361023  144.40600586    4.90999985    1.89999998
   18.40694427  135.49299622    4.90999985    1.89999998
   18.40999985  142.65400696    4.90999985    1.89999998
   18.41194344  136.66600037    4.90999985    1.89999998
   18.41388893  130.49699402    4.90999985    1.89999998
   18.41972160  130.49699402    4.90999985    1.89999998
   18.42388916  139.92199707    4.90999985    1.89999998
   18.42694473  138.06700134    4.90999985    1.89999998
   18.43027687  134.13999939    4.90999985    1.89999998
   18.43361092  141.35200500    4.90999985    1.89999998
   18.43666649  140.44799805    4.90999985    1.89999998
   18.43999863  137.56599426    4.90999985    1.89999998
   18.44333267  141.37500000    4.90999985    1.89999998
   18.44527626  138.48699951    4.90999985    1.89999998
   18.44694328  136.48300171    4.90999985    1.89999998
   18.45000076  134.58599854    4.90999985    1.89999998
   18.45333481  138.79800415    4.90999985    1.89999998
   18.45639038  132.84199524    4.90999985    1.89999998
   18.46250153  132.84199524    4.90999985    1.89999998
   18.46666718  133.99099731    4.90999985    1.89999998
   18.47000122  130.51499939    4.90999985    1.89999998
   18.47305679  138.33200073    4.90999985    1.89999998
   18.47638893  140.44299316    4.90999985    1.89999998
   18.47888947  136.36999512    4.90999985    1.89999998
   18.48000145  133.71499634    4.90999985    1.89999998
   18.48333359  140.50799561    4.90999985    1.89999998
   18.48666763  133.70899963    4.90999985    1.89999998
   18.48972321  140.94299316    4.90999985    1.89999998
   18.49305534  138.22700500    4.90999985    1.89999998
   18.49638939  132.44200134    4.90999985    1.89999998
   18.49944496  137.27499390    4.90999985    1.89999998
   18.50527763  137.27499390    4.90999985    1.89999998
   18.50944519  134.08799744    4.90999985    1.89999998
   18.51222229  134.26199341    4.90999985    1.89999998
   18.51305580  131.49600220    4.90999985    1.89999998
   18.51638794  133.52400208    4.90999985    1.89999998
   18.51972198  136.11300659    4.90999985    1.89999998
   18.52277756  139.91499329    4.90999985    1.89999998
   18.52611160  136.50199890    4.90999985    1.89999998
   18.52916718  136.57000732    4.90999985    1.89999998
   18.53249931  134.37199402    4.90999985    1.89999998
   18.53583336  129.42199707    4.90999985    1.89999998
   18.53888893  139.06599426    4.90999985    1.89999998
   18.54222107  137.07099915    4.90999985    1.89999998
   18.54833221  137.07099915    4.90999985    1.89999998
   18.55249977  133.30299377    4.90999985    1.89999998
   18.55555534  129.64100647    4.90999985    1.89999998
   18.55888748  134.58799744    4.90999985    1.89999998
   18.56194305  140.39900208    4.90999985    1.89999998
   18.56527710  130.56199646    4.90999985    1.89999998
   18.56861115  133.17799377    4.90999985    1.89999998
   18.57166672  137.28199768    4.90999985    1.89999998
   18.57500076  127.94699860    4.90999985    1.89999998
   18.57833481  130.64300537    4.90999985    1.89999998
   18.57916832  134.23699951    4.90999985    1.89999998
   18.58194542  141.81399536    4.90999985    1.89999998
   18.58500099  133.70300293    4.90999985    1.89999998
   18.59111214  133.70300293    4.90999985    1.89999998
   18.59527779  133.89999390    4.90999985    1.89999998
   18.59861183  135.93499756    4.90999985    1.89999998
   18.60166740  133.56399536    4.90999985    1.89999998
   18.60499954  131.89100647    4.90999985    1.89999998
   18.60805511  138.02299500    4.90999985    1.89999998
   18.61138916  136.39399719    4.90999985    1.89999998
   18.61250114  131.21400452    4.90999985    1.89999998
   18.61527824  130.29800415    4.90999985    1.89999998
   18.61833382  133.19999695    4.90999985    1.89999998
   18.62166595  132.68499756    4.90999985    1.89999998
   18.62500000  143.76400757    4.90999985    1.89999998
   18.62805557  136.19099426    4.90999985    1.89999998
   18.63388824  136.19099426    4.90999985    1.89999998
   18.63805580  141.75500488    4.90999985    1.89999998
   18.64138794  133.56599426    4.90999985    1.89999998
   18.64444351  139.24000549    4.90999985    1.89999998
   18.64611053  130.96400452    4.90999985    1.89999998
   18.64805603  139.33500671    4.90999985    1.89999998
   18.65138817  135.44799805    4.90999985    1.89999998
   18.65472221  135.56900024    4.90999985    1.89999998
   18.65777779  134.91600037    4.90999985    1.89999998
   18.66110992  131.17100525    4.90999985    1.89999998
   18.66416550  131.82499695    4.90999985    1.89999998
   18.66749954  137.96299744    4.90999985    1.89999998
   18.67083359  136.26199341    4.90999985    1.89999998
   18.67694473  136.26199341    4.90999985    1.89999998
   18.69527626  134.53999329    4.90999985    1.89999998
   18.69833183  134.83500671    4.90999985    1.89999998
   18.70166779  130.81399536    4.90999985    1.89999998
   18.70499992  131.16999817    4.90999985    1.89999998
   18.70805550  125.93000031    4.90999985    1.89999998
   18.71138954  137.19099426    4.90999985    1.89999998
   18.71472359  130.94799805    4.90999985    1.89999998
   18.71972275  130.94799805    4.90999985    1.89999998
   18.72389030  134.21899414    4.90999985    1.89999998
   18.72694588  136.49499512    4.90999985    1.89999998
   18.72833443  132.23699951    4.90999985    1.89999998
   18.73055649  136.32499695    4.90999985    1.89999998
   18.73388863  138.07000732    4.90999985    1.89999998
   18.73722267  133.87600708    4.90999985    1.89999998
   18.74027824  134.06500244    4.90999985    1.89999998
   18.74361229  135.87699890    4.90999985    1.89999998
   18.74694443  138.52999878    4.90999985    1.89999998
   18.75000000  134.92799377    4.90999985    1.89999998
   18.75333405  136.70199585    4.90999985    1.89999998
   18.75638962  130.87600708    4.90999985    1.89999998
   18.76250076  130.87600708    4.90999985    1.89999998
   18.76666641  134.86000061    4.90999985    1.89999998
   18.76972198  140.64100647    4.90999985    1.89999998
   18.77305603  137.30599976    4.90999985    1.89999998
   18.77638817  134.75300598    4.90999985    1.89999998
   18.77944374  143.77000427    4.90999985    1.89999998
   18.78277779  139.32200623    4.90999985    1.89999998
   18.78610992  138.30200195    4.90999985    1.89999998
   18.78944397  139.95799255    4.90999985    1.89999998
   18.79249954  137.95700073    4.90999985    1.89999998
   18.79500008  130.89500427    4.90999985    1.89999998
   18.79611015  146.12500000    4.90999985    1.89999998
   18.79944420  143.09500122    4.90999985    1.89999998
   18.80527687  143.09500122    4.90999985    1.89999998
   18.80944443  132.35000610    4.90999985    1.89999998
   18.81277657  133.11199951    4.90999985    1.89999998
   18.81583214  140.23100281    4.90999985    1.89999998
   18.81916809  142.68400574    4.90999985    1.89999998
   18.82250023  129.19900513    4.90999985    1.89999998
   18.82555580  140.30900574    4.90999985    1.89999998
   18.82833481  137.18299866    4.90999985    1.89999998
   18.82916832  137.38200378    4.90999985    1.89999998
   18.83250046  136.20300293    4.90999985    1.89999998
   18.83583450  136.39199829    4.90999985    1.89999998
   18.83889008  130.75700378    4.90999985    1.89999998
   18.84222221  139.78599548    4.90999985    1.89999998
   18.84805679  139.78599548    4.90999985    1.89999998
   18.85222244  139.55799866    4.90999985    1.89999998
   18.85555649  143.41499329    4.90999985    1.89999998
   18.85888863  140.77499390    4.90999985    1.89999998
   18.86166763  140.69500732    4.90999985    1.89999998
   18.86250114  136.96800232    4.90999985    1.89999998
   18.86555672  136.79699707    4.90999985    1.89999998
   18.86888885  155.47900391    4.90999985    1.89999998
   18.87194443  138.93200684    4.90999985    1.89999998
   18.87527847  149.55799866    4.90999985    1.89999998
   18.87861061  142.85000610    4.90999985    1.89999998
   18.88166618  144.23199463    4.90999985    1.89999998
   18.88500023  145.40400696    4.90999985    1.89999998
   18.89111137  145.40400696    4.90999985    1.89999998
   18.89527702  137.20599365    4.90999985    1.89999998
   18.89833260  139.66000366    4.90999985    1.89999998
   18.90166664  140.99899292    4.90999985    1.89999998
   18.90472221  137.17199707    4.90999985    1.89999998
   18.90805435  139.89599609    4.90999985    1.89999998
   18.91138840  135.99299622    4.90999985    1.89999998
   18.91444397  133.47399902    4.90999985    1.89999998
   18.91777802  136.23199463    4.90999985    1.89999998
   18.92111015  141.68299866    4.90999985    1.89999998
   18.92416573  142.13900757    4.90999985    1.89999998
   18.92749977  140.34899902    4.90999985    1.89999998
   18.92833328  137.33399963    4.90999985    1.89999998
   18.93388748  137.33399963    4.90999985    1.89999998
   18.93805504  142.12300110    4.90999985    1.89999998
   18.94138718  144.26800537    4.90999985    1.89999998
   18.94444275  137.36999512    4.90999985    1.89999998
   18.94777679  144.21499634    4.90999985    1.89999998
   18.95083427  140.71600342    4.90999985    1.89999998
   18.95416832  133.40199280    4.90999985    1.89999998
   18.95750046  143.10499573    4.90999985    1.89999998
   18.96055603  139.19599915    4.90999985    1.89999998
   18.96166801  140.11399841    4.90999985    1.89999998
   18.96444511  140.47700500    4.90999985    1.89999998
   18.96750069  136.42399597    4.90999985    1.89999998
   18.97083473  135.12199402    4.90999985    1.89999998
   18.97666740  135.12199402    4.90999985    1.89999998
   18.98083305  134.35200500    4.90999985    1.89999998
   18.98416710  134.78399658    4.90999985    1.89999998
   18.98722267  142.22300720    4.90999985    1.89999998
   18.99055672  139.35499573    4.90999985    1.89999998
   18.99388885  142.75900269    4.90999985    1.89999998
   18.99500084  143.33700562    4.90999985    1.89999998
   18.99749947  138.84800720    4.90999985    1.89999998
   19.00055504  139.55200195    4.90999985    1.89999998
   19.00388908  134.13499451    4.90999985    1.89999998
   19.00694466  140.13600159    4.90999985    1.89999998
   19.01027870  139.96200562    4.90999985    1.89999998
   19.01361084  140.38800049    4.90999985    1.89999998
   19.01944351  140.38800049    4.90999985    1.89999998
   19.02361107  138.17100525    4.90999985    1.89999998
   19.02694511  130.44500732    4.90999985    1.89999998
   19.02833366  131.55999756    4.90999985    1.89999998
   19.03055573  137.41499329    4.90999985    1.89999998
   19.03361130  133.71499634    4.90999985    1.89999998
   19.03694344  134.35699463    4.90999985    1.89999998
   19.03999901  136.51300049    4.90999985    1.89999998
   19.04333305  139.07699585    4.90999985    1.89999998
   19.04666710  132.88699341    4.90999985    1.89999998
   19.04972076  138.29499817    4.90999985    1.89999998
   19.05305481  140.71699524    4.90999985    1.89999998
   19.05638885  137.65499878    4.90999985    1.89999998
   19.06250000  137.65499878    4.90999985    1.89999998
   19.06666756  142.30900574    4.90999985    1.89999998
   19.06972313  141.11900330    4.90999985    1.89999998
   19.07305717  137.73699951    4.90999985    1.89999998
   19.07638931  145.66799927    4.90999985    1.89999998
   19.07944489  137.05900574    4.90999985    1.89999998
   19.08277893  148.80999756    4.90999985    1.89999998
   19.08583450  140.24499512    4.90999985    1.89999998
   19.08916664  143.98399353    4.90999985    1.89999998
   19.09250069  145.12199402    4.90999985    1.89999998
   19.09500122  145.84800720    4.90999985    1.89999998
   19.09611130  143.33900452    4.90999985    1.89999998
   19.09916687  147.74699402    4.90999985    1.89999998
   19.10527802  147.74699402    4.90999985    1.89999998
   19.10944557  145.18299866    4.90999985    1.89999998
   19.11277771  150.50700378    4.90999985    1.89999998
   19.11583328  142.16900635    4.90999985    1.89999998
   19.11916733  133.34500122    4.90999985    1.89999998
   19.12222290  136.72900391    4.90999985    1.89999998
   19.12555504  139.50999451    4.90999985    1.89999998
   19.12833405  138.88499451    4.90999985    1.89999998
   19.12944412  141.62199402    4.90999985    1.89999998
   19.13249969  139.58700562    4.90999985    1.89999998
   19.13583374  140.02099609    4.90999985    1.89999998
   19.13888931  143.88299561    4.90999985    1.89999998
   19.14222145  149.74099731    4.90999985    1.89999998
   19.14805603  149.74099731    4.90999985    1.89999998
   19.15222168  141.79400635    4.90999985    1.89999998
   19.15555573  146.63699341    4.90999985    1.89999998
   19.15861130  147.58500671    4.90999985    1.89999998
   19.16166687  144.97200012    4.90999985    1.89999998
   19.16250038  142.61700439    4.90999985    1.89999998
   19.16555595  145.17300415    4.90999985    1.89999998
   19.16888809  137.70100403    4.90999985    1.89999998
   19.17194366  146.10800171    4.90999985    1.89999998
   19.17527771  139.19299316    4.90999985    1.89999998
   19.17860985  139.67999268    4.90999985    1.89999998
   19.18166542  136.61399841    4.90999985    1.89999998
   19.18499947  148.36999512    4.90999985    1.89999998
   19.19111061  148.36999512    4.90999985    1.89999998
   19.19499969  138.85800171    4.90999985    1.89999998
   19.19833183  143.60800171    4.90999985    1.89999998
   19.20166779  136.53999329    4.90999985    1.89999998
   19.20472336  142.13400269    4.90999985    1.89999998
   19.20805550  145.30900574    4.90999985    1.89999998
   19.21138954  138.08999634    4.90999985    1.89999998
   19.21444511  142.05900574    4.90999985    1.89999998
   19.21777916  137.67399597    4.90999985    1.89999998
   19.22111130  143.83999634    4.90999985    1.89999998
   19.22416687  143.38600159    4.90999985    1.89999998
   19.22750092  141.37800598    4.90999985    1.89999998
   19.22833443  147.10099792    4.90999985    1.89999998
   19.23388863  147.10099792    4.90999985    1.89999998
   19.23805618  146.76899719    4.90999985    1.89999998
   19.24111176  142.52400208    4.90999985    1.89999998
   19.24444389  147.03399658    4.90999985    1.89999998
   19.24749947  143.44999695    4.90999985    1.89999998
   19.25083351  142.10699463    4.90999985    1.89999998
   19.25416756  139.61399841    4.90999985    1.89999998
   19.25722313  140.17900085    4.90999985    1.89999998
   19.26055527  137.38400269    4.90999985    1.89999998
   19.26166725  140.20199585    4.90999985    1.89999998
   19.26416588  137.44000244    4.90999985    1.89999998
   19.26722145  143.91200256    4.90999985    1.89999998
   19.27055550  147.45300293    4.90999985    1.89999998
   19.27666664  147.45300293    4.90999985    1.89999998
   19.28083229  141.44200134    4.90999985    1.89999998
   19.28388786  142.84199524    4.90999985    1.89999998
   19.28722191  140.03100586    4.90999985    1.89999998
   19.29055595  135.77999878    4.90999985    1.89999998
   19.29361153  142.29800415    4.90999985    1.89999998
   19.29500008  134.16200256    4.90999985    1.89999998
   19.29749870  147.22700500    4.90999985    1.89999998
   19.30055428  143.45799255    4.90999985    1.89999998
   19.30388832  145.80900574    4.90999985    1.89999998
   19.30722237  139.67100525    4.90999985    1.89999998
   19.31027794  145.12300110    4.90999985    1.89999998
   19.31361008  143.61000061    4.90999985    1.89999998
   19.31944466  143.61000061    4.90999985    1.89999998
   19.32361221  141.67399597    4.90999985    1.89999998
   19.32694626  150.02799988    4.90999985    1.89999998
   19.32833481  142.84500122    4.90999985    1.89999998
   19.33055687  145.04899597    4.90999985    1.89999998
   19.33361244  137.79800415    4.90999985    1.89999998
   19.33694458  144.81599426    4.90999985    1.89999998
   19.34027863  148.71899414    4.90999985    1.89999998
   19.34333420  140.29800415    4.90999985    1.89999998
   19.34666824  136.25900269    4.90999985    1.89999998
   19.34972191  140.01499939    4.90999985    1.89999998
   19.35305595  141.04600525    4.90999985    1.89999998
   19.35639000  147.63600159    4.90999985    1.89999998
   19.36222267  147.63600159    4.90999985    1.89999998
   19.36638832  139.20599365    4.90999985    1.89999998
   19.36972237  144.28300476    4.90999985    1.89999998
   19.37305641  147.12300110    4.90999985    1.89999998
   19.37611198  138.40600586    4.90999985    1.89999998
   19.37944412  143.22099304    4.90999985    1.89999998
   19.38249969  142.45100403    4.90999985    1.89999998
   19.38583374  135.08999634    4.90999985    1.89999998
   19.38916588  144.11500549    4.90999985    1.89999998
   19.39222145  139.71699524    4.90999985    1.89999998
   19.39500046  140.20599365    4.90999985    1.89999998
   19.39611053  145.22700500    4.90999985    1.89999998
   19.39916611  142.84800720    4.90999985    1.89999998
   19.40527725  142.84800720    4.90999985    1.89999998
   19.40944481  136.01400757    4.90999985    1.89999998
   19.41250038  152.45399475    4.90999985    1.89999998
   19.41583252  141.94099426    4.90999985    1.89999998
   19.41916656  145.63699341    4.90999985    1.89999998
   19.42249870  143.22099304    4.90999985    1.89999998
   19.42555428  144.38200378    4.90999985    1.89999998
   19.42833328  139.38600159    4.90999985    1.89999998
   19.42944336  145.68699646    4.90999985    1.89999998
   19.43277740  140.63900757    4.90999985    1.89999998
   19.43583298  144.32400513    4.90999985    1.89999998
   19.43916512  142.14300537    4.90999985    1.89999998
   19.44249916  146.84199524    4.90999985    1.89999998
   19.44805527  146.84199524    4.90999985    1.89999998
   19.45222282  148.84899902    4.90999985    1.89999998
   19.45527840  140.43800354    4.90999985    1.89999998
   19.45861244  150.81399536    4.90999985    1.89999998
   19.46166801  142.99099731    4.90999985    1.89999998
   19.46222305  139.98599243    4.90999985    1.89999998
   19.46527863  141.79800415    4.90999985    1.89999998
   19.46861076  140.22900391    4.90999985    1.89999998
   19.47194481  148.18800354    4.90999985    1.89999998
   19.47500038  145.51499939    4.90999985    1.89999998
   19.47833443  147.42300415    4.90999985    1.89999998
   19.48139000  150.63400269    4.90999985    1.89999998
   19.48472214  145.68600464    4.90999985    1.89999998
   19.49083328  145.68600464    4.90999985    1.89999998
   19.49500084  140.43699646    4.90999985    1.89999998
   19.49833298  142.19400024    4.90999985    1.89999998
   19.50138855  139.87899780    4.90999985    1.89999998
   19.50472260  142.26600647    4.90999985    1.89999998
   19.50805473  139.39900208    4.90999985    1.89999998
   19.51111031  147.30200195    4.90999985    1.89999998
   19.51444435  143.13200378    4.90999985    1.89999998
   19.51777840  147.66499329    4.90999985    1.89999998
   19.52083397  142.87500000    4.90999985    1.89999998
   19.52416611  141.27799988    4.90999985    1.89999998
   19.52722168  135.29600525    4.90999985    1.89999998
   19.52833366  146.24099731    4.90999985    1.89999998
   19.53361130  146.24099731    4.90999985    1.89999998
   19.53777695  151.48599243    4.90999985    1.89999998
   19.54111099  140.32800293    4.90999985    1.89999998
   19.54444313  145.04299927    4.90999985    1.89999998
   19.54749870  141.26400757    4.90999985    1.89999998
   19.55083275  148.99099731    4.90999985    1.89999998
   19.55416679  142.39199829    4.90999985    1.89999998
   19.55722237  141.65600586    4.90999985    1.89999998
   19.56055450  142.77900696    4.90999985    1.89999998
   19.56166649  145.72900391    4.90999985    1.89999998
   19.56416512  138.40800476    4.90999985    1.89999998
   19.56750107  142.63699341    4.90999985    1.89999998
   19.57055664  146.49400330    4.90999985    1.89999998
   19.57666779  146.49400330    4.90999985    1.89999998
   19.58083344  143.91700745    4.90999985    1.89999998
   19.58388901  148.81700134    4.90999985    1.89999998
   19.58722305  145.41700745    4.90999985    1.89999998
   19.59027863  149.34599304    4.90999985    1.89999998
   19.59361267  153.72099304    4.90999985    1.89999998
   19.59500122  144.84899902    4.90999985    1.89999998
   19.59722328  144.61700439    4.90999985    1.89999998
   19.60027885  136.26600647    4.90999985    1.89999998
   19.60361099  148.31100464    4.90999985    1.89999998
   19.60694504  154.90899658    4.90999985    1.89999998
   19.61000061  145.13099670    4.90999985    1.89999998
   19.61333466  154.95199585    4.90999985    1.89999998
   19.61944389  154.95199585    4.90999985    1.89999998
   19.62361145  153.72700500    4.90999985    1.89999998
   19.62666702  158.54800415    4.90999985    1.89999998
   19.62833405  147.40899658    4.90999985    1.89999998
   19.63055611  148.60699463    4.90999985    1.89999998
   19.63388824  146.66000366    4.90999985    1.89999998
   19.63694382  145.10600281    4.90999985    1.89999998
   19.64027786  146.14599609    4.90999985    1.89999998
   19.64333344  141.51199341    4.90999985    1.89999998
   19.64666748  146.74800110    4.90999985    1.89999998
   19.64999962  151.08099365    4.90999985    1.89999998
   19.65305519  141.63600159    4.90999985    1.89999998
   19.65638924  140.22099304    4.90999985    1.89999998
   19.66222191  140.22099304    4.90999985    1.89999998
   19.66638756  115.56900024    4.90999985    1.89999998
   19.66972160  109.81900024    4.90999985    1.89999998
   19.67277718  118.51000214    4.90999985    1.89999998
   19.67611122  132.32099915    4.90999985    1.89999998
   19.67916679  181.21200562    4.90999985    1.89999998
   19.68249893  165.35600281    4.90999985    1.89999998
   19.68583298   -1.00000000    4.90999985    1.89999998
   19.68888855   -1.00000000    4.90999985    1.89999998
   19.69222069   -1.00000000    4.90999985    1.89999998
   19.71194458   -1.00000000    4.90999985    1.89999998
   19.72000122   -1.00000000    4.90999985    1.89999998
   19.72333336   -1.00000000    4.90999985    1.89999998
   19.72666740   -1.00000000    4.90999985    1.89999998
   19.73027802   -1.00000000    4.90999985    1.89999998
   19.73333359   -1.00000000    4.90999985    1.89999998
   19.73666763   -1.00000000    4.90999985    1.89999998
   19.73999977   -1.00000000    4.90999985    1.89999998
   19.74305534   -1.00000000    4.90999985    1.89999998
   19.74638939   -1.00000000    4.90999985    1.89999998
   19.74944496   -1.00000000    4.90999985    1.89999998
   19.75277710   -1.00000000    4.90999985    1.89999998
   19.76305580   -1.00000000    4.90999985    1.89999998
   19.76611137   -1.00000000    4.90999985    1.89999998
   19.76944351   -1.00000000    4.90999985    1.89999998
   19.77249908   -1.00000000    4.90999985    1.89999998
   19.77583313   -1.00000000    4.90999985    1.89999998
   19.77916718   -1.00000000    4.90999985    1.89999998
   19.78222275   -1.00000000    4.90999985    1.89999998
   19.78555489   -1.00000000    4.90999985    1.89999998
   19.78888893   -1.00000000    4.90999985    1.89999998
   19.79194450   -1.00000000    4.90999985    1.89999998
   19.79555511   -1.00000000    4.90999985    1.89999998
   19.80583191   -1.00000000    4.90999985    1.89999998
   19.80888748   -1.00000000    4.90999985    1.89999998
   19.81222153   -1.00000000    4.90999985    1.89999998
   19.81555557   -1.00000000    4.90999985    1.89999998
   19.81861115   -1.00000000    4.90999985    1.89999998
   19.82194519   -1.00000000    4.90999985    1.89999998
   19.82527924   -1.00000000    4.90999985    1.89999998
   19.82888985   -1.00000000    4.90999985    1.89999998
   19.83194542   -1.00000000    4.90999985    1.89999998
   19.83527756   -1.00000000    4.90999985    1.89999998
   19.83861160   -1.00000000    4.90999985    1.89999998
   19.84861183   -1.00000000    4.90999985    1.89999998
   19.85194397   -1.00000000    4.90999985    1.89999998
   19.85499954   -1.00000000    4.90999985    1.89999998
   19.85833359   -1.00000000    4.90999985    1.89999998
   19.86166763   -1.00000000    4.90999985    1.89999998
   19.86527824   -1.00000000    4.90999985    1.89999998
   19.86833382   -1.00000000    4.90999985    1.89999998
   19.87166595   -1.00000000    4.90999985    1.89999998
   19.87500000   -1.00000000    4.90999985    1.89999998
   19.87805557   -1.00000000    4.90999985    1.89999998
   19.88138962   -1.00000000    4.90999985    1.89999998
   19.89138794   -1.00000000    4.90999985    1.89999998
   19.89472198   -1.00000000    4.90999985    1.89999998
   19.89833260   -1.00000000    4.90999985    1.89999998
   19.90138817   -1.00000000    4.90999985    1.89999998
   19.90472221   -1.00000000    4.90999985    1.89999998
   19.90805435   -1.00000000    4.90999985    1.89999998
   19.91110992   -1.00000000    4.90999985    1.89999998
   19.91444397   -1.00000000    4.90999985    1.89999998
   19.91777802   -1.00000000    4.90999985    1.89999998
   19.92083359   -1.00000000    4.90999985    1.89999998
   19.92416573   -1.00000000    4.90999985    1.89999998
   19.93444443   -1.00000000    4.90999985    1.89999998
   19.93750000   -1.00000000    4.90999985    1.89999998
   19.94083214   -1.00000000    4.90999985    1.89999998
   19.94388771   -1.00000000    4.90999985    1.89999998
   19.94722176   -1.00000000    4.90999985    1.89999998
   19.95055580   -1.00000000    4.90999985    1.89999998
   19.95361137   -1.00000000    4.90999985    1.89999998
   19.95694542   -1.00000000    4.90999985    1.89999998
   19.96027946   -1.00000000    4.90999985    1.89999998
   19.96389008   -1.00000000    4.90999985    1.89999998
   19.96694565   -1.00000000    4.90999985    1.89999998
   19.97722244   -1.00000000    4.90999985    1.89999998
   19.98027802   -1.00000000    4.90999985    1.89999998
   19.98361206   -1.00000000    4.90999985    1.89999998
   19.98694420   -1.00000000    4.90999985    1.89999998
   19.98999977   -1.00000000    4.90999985    1.89999998
   19.99333382   -1.00000000    4.90999985    1.89999998
   19.99694443   -1.00000000    4.90999985    1.89999998
   20.00000000   -1.00000000    4.90999985    1.89999998
   20.00333405   -1.00000000    4.90999985    1.89999998
   20.00666618   -1.00000000    4.90999985    1.89999998
   20.00972176   -1.00000000    4.90999985    1.89999998
   20.02000046   -1.00000000    4.90999985    1.89999998
   20.02333260   -1.00000000    4.90999985    1.89999998
   20.02638817   -1.00000000    4.90999985    1.89999998
   20.03000069   -1.00000000    4.90999985    1.89999998
   20.03305435   -1.00000000    4.90999985    1.89999998
   20.03638840   -1.00000000    4.90999985    1.89999998
   20.03972244   -1.00000000    4.90999985    1.89999998
   20.04277802   -1.00000000    4.90999985    1.89999998
   20.04611015   -1.00000000    4.90999985    1.89999998
   20.04944420   -1.00000000    4.90999985    1.89999998
   20.05249977   -1.00000000    4.90999985    1.89999998
   20.06277657   -1.00000000    4.90999985    1.89999998
   20.06611061   -1.00000000    4.90999985    1.89999998
   20.06944466   -1.00000000    4.90999985    1.89999998
   20.07250023   -1.00000000    4.90999985    1.89999998
   20.07583427   -1.00000000    4.90999985    1.89999998
   20.07888985   -1.00000000    4.90999985    1.89999998
   20.08222389   -1.00000000    4.90999985    1.89999998
   20.08555603   -1.00000000    4.90999985    1.89999998
   20.08861160   -1.00000000    4.90999985    1.89999998
   20.09194565   -1.00000000    4.90999985    1.89999998
   20.09527779   -1.00000000    4.90999985    1.89999998
   20.10583305   -1.00000000    4.90999985    1.89999998
   20.10888863   -1.00000000    4.90999985    1.89999998
   20.11222267   -1.00000000    4.90999985    1.89999998
   20.11527824   -1.00000000    4.90999985    1.89999998
   20.11861038   -1.00000000    4.90999985    1.89999998
   20.12194443   -1.00000000    4.90999985    1.89999998
   20.12500000   -1.00000000    4.90999985    1.89999998
   20.12833405   -1.00000000    4.90999985    1.89999998
   20.13194466   -1.00000000    4.90999985    1.89999998
   20.13500023   -1.00000000    4.90999985    1.89999998
   20.13833237   -1.00000000    4.90999985    1.89999998
   20.14861107   -1.00000000    4.90999985    1.89999998
   20.15166664   -1.00000000    4.90999985    1.89999998
   20.15499878   -1.00000000    4.90999985    1.89999998
   20.15833282   -1.00000000    4.90999985    1.89999998
   20.16138840   -1.00000000    4.90999985    1.89999998
   20.16499901   -1.00000000    4.90999985    1.89999998
   20.16805458   -1.00000000    4.90999985    1.89999998
   20.17138863   -1.00000000    4.90999985    1.89999998
   20.17472076   -1.00000000    4.90999985    1.89999998
   20.17777634   -1.00000000    4.90999985    1.89999998
   20.18111038   -1.00000000    4.90999985    1.89999998
   20.19138718   -1.00000000    4.90999985    1.89999998
   20.19472122   -1.00000000    4.90999985    1.89999998
   20.19833183   -1.00000000    4.90999985    1.89999998
   20.20138931   -1.00000000    4.90999985    1.89999998
   20.20472336   -1.00000000    4.90999985    1.89999998
   20.20805550   -1.00000000    4.90999985    1.89999998
   20.21111107   -1.00000000    4.90999985    1.89999998
   20.21444511   -1.00000000    4.90999985    1.89999998
   20.21777916   -1.00000000    4.90999985    1.89999998
   20.22083473   -1.00000000    4.90999985    1.89999998
   20.22416687   -1.00000000    4.90999985    1.89999998
   20.23416710   -1.00000000    4.90999985    1.89999998
   20.23750114   -1.00000000    4.90999985    1.89999998
   20.24083328   -1.00000000    4.90999985    1.89999998
   20.24388885   -1.00000000    4.90999985    1.89999998
   20.24722290   -1.00000000    4.90999985    1.89999998
   20.25027847   -1.00000000    4.90999985    1.89999998
