    HOUR (UT)   FLARE FACTOR    SKY TESTER    SUN TESTER
   12.30805588   -1.00000000   -1.00000000   -1.00000000
   12.34805489  237.53199768    4.90999985    2.13000011
   12.35138893  234.51400757    4.90999985    2.15000010
   12.35472298  232.48100281    4.90999985    2.13000011
   12.35777855  244.69400024    4.90999985    2.13000011
   12.36111164  250.02900696    4.90999985    2.13000011
   12.36416721  238.38600159    4.90999985    2.15000010
   12.36833382  238.38600159    4.90999985    2.15000010
   12.37250042  235.13000488    4.90999985    2.15000010
   12.37583351  238.57299805    4.90999985    2.15000010
   12.37916660  225.10400391    4.90999985    2.15000010
   12.38138866  226.91099548    4.90999985    2.17000008
   12.38277817  234.26699829    4.90999985    2.15000010
   12.38583279  244.25100708    4.90999985    2.15000010
   12.38916683  238.47500610    4.90999985    2.17000008
   12.39249992  230.63200378    4.90999985    2.17000008
   12.39555550  214.33399963    4.90999985    2.17000008
   12.39888859  233.85099792    4.90999985    2.15000010
   12.40222168  248.15800476    4.90999985    2.17000008
   12.40527725  247.33000183    4.90999985    2.17000008
   12.41138840  247.33000183    4.90999985    2.17000008
   12.41527748  222.80000305    4.90999985    2.17000008
   12.41861153  216.41000366    4.90999985    2.17000008
   12.42194462  230.50500488    4.90999985    2.17000008
   12.42500019  239.54400635    4.90999985    2.17000008
   12.42833328  239.61900330    4.90999985    2.17000008
   12.43166733  234.91299438    4.90999985    2.17000008
   12.43500042  219.83000183    4.90999985    2.19000006
   12.43805599  210.68699646    4.90999985    2.21000004
   12.44138908  228.13499451    4.90999985    2.19000006
   12.44444466  212.73399353    4.90999985    2.19000006
   12.44777775  230.29200745    4.90999985    2.19000006
   12.44833374  210.91499329    4.90999985    2.19000006
   12.45416641  210.91499329    4.90999985    2.19000006
   12.45861053  237.26499939    4.90999985    2.19000006
   12.46166611  223.21899414    4.90999985    2.19000006
   12.46500015  209.67399597    4.90999985    2.19000006
   12.46833324  252.68499756    4.90999985    2.21000004
   12.47138882  222.47799683    4.90999985    2.21000004
   12.47472191  221.55000305    4.90999985    2.21000004
   12.47805500  216.76100159    4.90999985    2.21000004
   12.48111057  222.24499512    4.90999985    2.21000004
   12.48166656  212.15600586    4.90999985    2.21000004
   12.48472214  211.29600525    4.90999985    2.21000004
   12.48777771  233.26899719    4.90999985    2.21000004
   12.49111176  228.77099609    4.90999985    2.21000004
   12.49694443  228.77099609    4.90999985    2.21000004
   12.50111103  217.17500305    4.90999985    2.23000002
   12.50444412  191.46200562    4.90999985    2.23000002
   12.50749969  223.01899719    4.90999985    2.23000002
   12.51083374  220.90600586    4.90999985    2.23000002
   12.51388931  218.08799744    4.90999985    2.23000002
   12.51500034  204.97799683    4.90999985    2.23000002
   12.51777744  219.31399536    4.90999985    2.23000002
   12.52083302  212.28100586    4.90999985    2.23000002
   12.52416611  216.11999512    4.90999985    2.23000002
   12.52750015  213.21099854    4.90999985    2.23000002
   12.53055573  208.66299438    4.90999985    2.23000002
   12.53388977  222.32200623    4.90999985    2.23000002
   12.53972244  222.32200623    4.90999985    2.25000000
   12.54388905  206.98599243    4.90999985    2.23000002
   12.54722309  215.68600464    4.90999985    2.25000000
   12.54833412  200.19099426    4.90999985    2.23000002
   12.55083370  208.44900513    4.90999985    2.23000002
   12.55388927  201.61399841    4.90999985    2.25000000
   12.55722237  206.81399536    4.90999985    2.23000002
   12.56055546  198.53599548    4.90999985    2.23000002
   12.56361103  206.77200317    4.90999985    2.25000000
   12.56694412  194.62399292    4.90999985    2.25000000
   12.57027817  210.06399536    4.90999985    2.25000000
   12.57333374  224.22900391    4.90999985    2.25000000
   12.57666683  212.75399780    4.90999985    2.25000000
   12.58277798  212.75399780    4.90999985    2.25000000
   12.58666611  207.98899841    4.90999985    2.25000000
   12.59000015  208.51499939    4.90999985    2.25000000
   12.59333324  201.05999756    4.90999985    2.25000000
   12.59666634  201.25000000    4.90999985    2.25000000
   12.59972191  200.73699951    4.90999985    2.25000000
   12.60305595  222.92199707    4.90999985    2.25000000
   12.60611153  214.32499695    4.90999985    2.25000000
   12.60944462  194.81399536    4.90999985    2.26999998
   12.61277771  183.70100403    4.90999985    2.26999998
   12.61500072  199.53500366    4.90999985    2.26999998
   12.61638927  188.58599854    4.90999985    2.26999998
   12.61944485  200.28999329    4.90999985    2.28999996
   12.62555599  200.28999329    4.90999985    2.26999998
   12.62972260  199.36500549    4.90999985    2.26999998
   12.63277817  235.53999329    4.90999985    2.26999998
   12.63611126  210.92799377    4.90999985    2.26999998
   12.63944435  215.98399353    4.90999985    2.26999998
   12.64249992  217.02600098    4.90999985    2.26999998
   12.64583302  212.05099487    4.90999985    2.28999996
   12.64833355  204.25799561    4.90999985    2.28999996
   12.64944458  206.61399841    4.90999985    2.28999996
   12.65249920  199.52400208    4.90999985    2.28999996
   12.65583324  219.75500488    4.90999985    2.28999996
   12.65916634  214.67300415    4.90999985    2.28999996
   12.66222191  210.51499939    4.90999985    2.28999996
   12.66833401  210.51499939    4.90999985    2.28999996
   12.67250061  208.48399353    4.90999985    2.28999996
   12.67583370  203.44299316    4.90999985    2.30999994
   12.67888927  187.42999268    4.90999985    2.30999994
   12.68166733  182.38099670    4.90999985    2.30999994
   12.68249989  187.50000000    4.90999985    2.30999994
   12.68555546  182.44299316    4.90999985    2.30999994
   12.68888855  215.65499878    4.90999985    2.28999996
   12.69222260  224.75900269    4.90999985    2.30999994
   12.69527817  210.67199707    4.90999985    2.30999994
   12.69861126  217.39999390    4.90999985    2.30999994
   12.70194435  222.17599487    4.90999985    2.30999994
   12.70499992  241.85800171    4.90999985    2.30999994
   12.71111107  241.85800171    4.90999985    2.30999994
   12.71527767  238.76699829    4.90999985    2.30999994
   12.71861076  227.32899475    4.90999985    2.32999992
   12.72194386  218.25000000    4.90999985    2.30999994
   12.72499943  225.19599915    4.90999985    2.32999992
   12.72833252  214.63099670    4.90999985    2.32999992
   12.73138809  225.68099976    4.90999985    2.30999994
   12.73472214  237.35499573    4.90999985    2.28999996
   12.73805618  221.39500427    4.90999985    2.30999994
   12.74111176  222.34399414    4.90999985    2.30999994
   12.74444485  213.05599976    4.90999985    2.32999992
   12.74777794  205.55200195    4.90999985    2.32999992
   12.74833393  207.46299744    4.90999985    2.30999994
   12.75416660  207.46299744    4.90999985    2.32999992
   12.75805569  252.29800415    4.90999985    2.30999994
   12.76138878  252.72300720    4.90999985    2.32999992
   12.76472187  259.35699463    4.90999985    2.30999994
   12.76777744  315.40100098    4.90999985    2.32999992
   12.77111053  344.50799561    4.90999985    2.32999992
   12.77444458  341.51599121    4.90999985    2.32999992
   12.77750015  350.39599609    4.90999985    2.32999992
   12.77972221  375.85501099    4.90999985    2.32999992
   12.78083324  384.86300659    4.90999985    2.32999992
   12.78222179  373.14300537    4.90999985    2.32999992
   12.78361130  349.64999390    4.90999985    2.32999992
   12.78500080  435.16598511    4.90999985    2.34999990
   12.78638935  401.64498901    4.90999985    2.34999990
   12.78777790  424.01901245    4.90999985    2.34999990
   12.78916740  430.71600342    4.90999985    2.32999992
   12.79055595  456.15600586    4.90999985    2.32999992
   12.79194450  406.92599487    4.90999985    2.32999992
   12.79333401  424.61300659    4.90999985    2.32999992
   12.79472256  468.60501099    4.90999985    2.32999992
   12.79611111  433.42300415    4.90999985    2.32999992
   12.79750061  604.61297607    4.90999985    2.32999992
   12.79888916  468.12298584    4.90999985    2.32999992
   12.80027771  498.49301147    4.90999985    2.34999990
   12.80166721  566.64099121    4.90999985    2.32999992
   12.80305576  525.73999023    4.90999985    2.34999990
   12.80444431  410.07501221    4.90999985    2.34999990
   12.80583382  418.50100708    4.90999985    2.32999992
   12.80722237  496.62600708    4.90999985    2.32999992
   12.80861092  466.95800781    4.90999985    2.34999990
   12.81000042  559.02697754    4.90999985    2.32999992
   12.81138897  476.83300781    4.90999985    2.34999990
   12.81277752  538.21502686    4.90999985    2.34999990
   12.81416702  534.45001221    4.90999985    2.32999992
   12.81555557  463.13800049    4.90999985    2.34999990
   12.81694412  562.23602295    4.90999985    2.34999990
   12.81833363  444.46398926    4.90999985    2.34999990
   12.81972218  552.22302246    4.90999985    2.34999990
   12.82111073  500.66699219    4.90999985    2.32999992
   12.82250023  523.26501465    4.90999985    2.32999992
   12.82388878  560.54998779    4.90999985    2.32999992
   12.82527733  482.03500366    4.90999985    2.34999990
   12.82666683  463.31201172    4.90999985    2.34999990
   12.82805538  563.51898193    4.90999985    2.34999990
   12.82944393  510.32800293    4.90999985    2.32999992
   12.83083344  461.80499268    4.90999985    2.34999990
   12.83222198  482.47000122    4.90999985    2.34999990
   12.83361053  527.03900146    4.90999985    2.34999990
   12.83500004  459.69900513    4.90999985    2.34999990
   12.83638859  467.75201416    4.90999985    2.34999990
   12.83777714  546.73797607    4.90999985    2.34999990
   12.83916664  507.31600952    4.90999985    2.32999992
   12.84055519  538.16497803    4.90999985    2.34999990
   12.84194374  492.63101196    4.90999985    2.34999990
   12.84333324  537.13397217    4.90999985    2.34999990
   12.84472179  468.39099121    4.90999985    2.34999990
   12.84611034  475.36700439    4.90999985    2.34999990
   12.84749985  536.54400635    4.90999985    2.34999990
   12.84888840  514.29302979    4.90999985    2.34999990
   12.85027790  414.02899170    4.90999985    2.34999990
   12.85166740  471.56698608    4.90999985    2.34999990
   12.85305595  421.31900024    4.90999985    2.34999990
   12.85444450  506.39001465    4.90999985    2.34999990
   12.85583401  431.66500854    4.90999985    2.36999989
   12.85722256  486.07199097    4.90999985    2.34999990
   12.85861111  472.77899170    4.90999985    2.34999990
   12.86000061  494.28601074    4.90999985    2.36999989
   12.86138916  464.94100952    4.90999985    2.34999990
   12.86277771  464.95999146    4.90999985    2.34999990
   12.86416721  512.07098389    4.90999985    2.34999990
   12.86555576  439.55599976    4.90999985    2.34999990
   12.86694431  460.76000977    4.90999985    2.36999989
   12.86833382  457.32901001    4.90999985    2.34999990
   12.86972237  468.92599487    4.90999985    2.34999990
   12.87111092  434.89801025    4.90999985    2.36999989
   12.87250042  367.46798706    4.90999985    2.36999989
   12.87388897  454.46398926    4.90999985    2.36999989
   12.87527752  421.10198975    4.90999985    2.34999990
   12.87666702  413.38000488    4.90999985    2.34999990
   12.87805557  503.84600830    4.90999985    2.36999989
   12.87944412  420.56799316    4.90999985    2.36999989
   12.88083363  483.85299683    4.90999985    2.36999989
   12.88222218  457.88699341    4.90999985    2.36999989
   12.88361073  458.73599243    4.90999985    2.36999989
   12.88500023  482.60000610    4.90999985    2.36999989
   12.88638878  476.50900269    4.90999985    2.36999989
   12.88777733  427.88198853    4.90999985    2.36999989
   12.88916683  360.74099731    4.90999985    2.36999989
   12.89055538  466.77301025    4.90999985    2.39000010
   12.89194393  441.79000854    4.90999985    2.39000010
   12.89333344  459.95498657    4.90999985    2.36999989
   12.89472198  446.39599609    4.90999985    2.39000010
   12.89611053  364.98098755    4.90999985    2.36999989
   12.89750004  484.24099731    4.90999985    2.39000010
   12.89888859  386.58898926    4.90999985    2.36999989
   12.90027714  429.29501343    4.90999985    2.36999989
   12.90166664  458.64999390    4.90999985    2.36999989
   12.90305519  486.69900513    4.90999985    2.36999989
   12.90444374  411.69100952    4.90999985    2.36999989
   12.90583324  441.45599365    4.90999985    2.36999989
   12.90722179  362.93701172    4.90999985    2.39000010
   12.90861034  436.34899902    4.90999985    2.39000010
   12.90999985  432.11199951    4.90999985    2.36999989
   12.91138840  423.65899658    4.90999985    2.36999989
   12.91277695  430.23599243    4.90999985    2.39000010
   12.91416645  412.62200928    4.90999985    2.36999989
   12.91555500  391.26300049    4.90999985    2.39000010
   12.91694450  438.50100708    4.90999985    2.39000010
   12.91833401  391.32998657    4.90999985    2.39000010
   12.91972256  380.65499878    4.90999985    2.39000010
   12.92111111  446.50299072    4.90999985    2.36999989
   12.92250061  388.73498535    4.90999985    2.36999989
   12.92388916  399.24899292    4.90999985    2.39000010
   12.92527771  406.52600098    4.90999985    2.39000010
   12.92666721  418.97000122    4.90999985    2.39000010
   12.92805576  463.90200806    4.90999985    2.39000010
   12.92944431  387.76098633    4.90999985    2.39000010
   12.93083382  415.79998779    4.90999985    2.39000010
   12.93222237  327.67199707    4.90999985    2.39000010
   12.93361092  400.52499390    4.90999985    2.39000010
   12.93500042  323.74899292    4.90999985    2.39000010
   12.93638897  366.52099609    4.90999985    2.39000010
   12.93777752  459.41598511    4.90999985    2.39000010
   12.93916702  335.34600830    4.90999985    2.39000010
   12.94055557  405.39300537    4.90999985    2.40000010
   12.94194412  333.36801147    4.90999985    2.39000010
   12.94333363  421.49798584    4.90999985    2.40000010
   12.94472218  323.19400024    4.90999985    2.39000010
   12.94611073  441.54901123    4.90999985    2.40000010
   12.94750023  386.96899414    4.90999985    2.39000010
   12.94888878  340.26199341    4.90999985    2.40000010
   12.95027733  349.95098877    4.90999985    2.39000010
   12.95166683  381.06201172    4.90999985    2.39000010
   12.95305538  341.75799561    4.90999985    2.39000010
   12.95444393  355.46398926    4.90999985    2.39000010
   12.95583344  268.65798950    4.90999985    2.39000010
   12.95611095  344.50799561    4.90999985    2.32999992
   12.95611095  341.51599121    4.90999985    2.32999992
   12.95611095  350.39599609    4.90999985    2.32999992
   12.95638847  213.05599976    4.90999985    2.32999992
   12.95638847  205.55200195    4.90999985    2.32999992
   12.95638847  252.29800415    4.90999985    2.30999994
   12.95666695  252.72300720    4.90999985    2.32999992
   12.95666695  259.35699463    4.90999985    2.30999994
   12.95694447  315.40100098    4.90999985    2.32999992
   12.95749950  385.43099976    4.90999985    2.39000010
   12.95944405  358.39999390    4.90999985    2.39000010
   12.96083355  329.84698486    4.90999985    2.40000010
   12.96222210  387.70999146    4.90999985    2.39000010
   12.96361065  349.79000854    4.90999985    2.39000010
   12.96500015  373.06500244    4.90999985    2.40000010
   12.96638870  344.92999268    4.90999985    2.40000010
   12.96777725  373.29998779    4.90999985    2.39000010
   12.96916580  366.72900391    4.90999985    2.40000010
   12.97055531  342.76400757    4.90999985    2.40000010
   12.97194386  358.41299438    4.90999985    2.39000010
   12.97333336  396.76501465    4.90999985    2.40000010
   12.97472191  366.15798950    4.90999985    2.39000010
   12.97611046  331.16198730    4.90999985    2.39000010
   12.97749996  342.92800903    4.90999985    2.39000010
   12.97888851  405.48901367    4.90999985    2.40000010
   12.98027706  340.89300537    4.90999985    2.39000010
   12.98166656  315.14801025    4.90999985    2.40000010
   12.98305511  367.11999512    4.90999985    2.40000010
   12.98444462  403.11300659    4.90999985    2.40000010
   12.98583317  350.05700684    4.90999985    2.40000010
   12.98722267  337.41799927    4.90999985    2.40000010
   12.98861122  366.52200317    4.90999985    2.40000010
   12.99000072  302.69900513    4.90999985    2.40000010
   12.99138927  361.77700806    4.90999985    2.40000010
   12.99277782  294.96701050    4.90999985    2.40000010
   12.99277782  385.43099976    4.90999985    2.39000010
   12.99333382  395.11599731    4.90999985    2.40000010
   12.99527836  334.44500732    4.90999985    2.40000010
   12.99666691  328.93600464    4.90999985    2.40000010
   12.99805546  364.62399292    4.90999985    2.40000010
   12.99944496  383.69900513    4.90999985    2.40000010
   13.00083351  324.61801147    4.90999985    2.40000010
   13.00222206  361.17001343    4.90999985    2.40000010
   13.00361156  343.42098999    4.90999985    2.40000010
   13.00500011  294.96398926    4.90999985    2.40000010
   13.00527763  395.11599731    4.90999985    2.40000010
   13.00583363  349.21398926    4.90999985    2.40000010
   13.00888920  298.75100708    4.90999985    2.40000010
   13.01222229  353.15301514    4.90999985    2.39000010
   13.01416683  307.60598755    4.90999985    2.40000010
   13.01555538  344.68200684    4.90999985    2.39000010
   13.01694393  329.17401123    4.90999985    2.40000010
   13.01833344  329.63699341    4.90999985    2.40000010
   13.01972198  365.77899170    4.90999985    2.40000010
   13.02111053  336.37799072    4.90999985    2.40000010
   13.02250004  317.50100708    4.90999985    2.40000010
   13.02388859  364.71798706    4.90999985    2.40000010
   13.02527714  326.35198975    4.90999985    2.40000010
   13.02666664  306.24200439    4.90999985    2.40000010
   13.02805519  335.40600586    4.90999985    2.40000010
   13.02944374  288.17700195    4.90999985    2.40000010
   13.02944374  349.21398926    4.90999985    2.40000010
   13.02972221  298.75100708    4.90999985    2.40000010
   13.02972221  353.15301514    4.90999985    2.39000010
   13.03027725  309.74700928    4.90999985    2.40000010
   13.03361130  297.49301147    4.90999985    2.40000010
   13.03666687  317.94900513    4.90999985    2.40000010
   13.04000092  314.14001465    4.90999985    2.42000008
   13.04305553  328.24499512    4.90999985    2.40000010
   13.04638958  302.96398926    4.90999985    2.40000010
   13.05055618  302.96398926    4.90999985    2.40000010
   13.05472279  326.13598633    4.90999985    2.42000008
   13.05777836  264.64599609    4.90999985    2.42000008
   13.06111145  291.96200562    4.90999985    2.42000008
   13.06333351  264.68099976    4.90999985    2.42000008
   13.06472206  235.46699524    4.90999985    2.44000006
   13.06805515  256.13299561    4.90999985    2.42000008
   13.07138920  290.38198853    4.90999985    2.42000008
   13.07444477  276.32901001    4.90999985    2.42000008
   13.07777786  275.81298828    4.90999985    2.42000008
   13.08111095  239.42599487    4.90999985    2.42000008
   13.08416653  272.48699951    4.90999985    2.42000008
   13.08749962  293.28900146    4.90999985    2.42000008
   13.09333324  293.28900146    4.90999985    2.42000008
   13.09749985  261.99899292    4.90999985    2.42000008
   13.10083389  256.77999878    4.90999985    2.42000008
   13.10388947  235.29400635    4.90999985    2.44000006
   13.10722256  246.59300232    4.90999985    2.44000006
   13.11055565  247.52099609    4.90999985    2.42000008
   13.11361122  275.47198486    4.90999985    2.44000006
   13.11694431  237.60699463    4.90999985    2.44000006
   13.12027836  258.70599365    4.90999985    2.42000008
   13.12333393  235.26699829    4.90999985    2.42000008
   13.12666702  264.78298950    4.90999985    2.42000008
   13.13000011  234.88900757    4.90999985    2.42000008
   13.13027763  207.88099670    4.90999985    2.42000008
   13.13611126  207.88099670    4.90999985    2.42000008
   13.14027786  216.17500305    4.90999985    2.44000006
   13.14361095  267.11898804    4.90999985    2.42000008
   13.14694405  231.36999512    4.90999985    2.42000008
   13.14999962  229.16200256    4.90999985    2.46000004
   13.15333271  213.93099976    4.90999985    2.46000004
   13.15638828  221.60000610    4.90999985    2.46000004
   13.15972137  234.86300659    4.90999985    2.46000004
   13.16305542  208.50100708    4.90999985    2.46000004
   13.16361046  235.59399414    4.90999985    2.46000004
   13.16666698  220.85000610    4.90999985    2.46000004
   13.17000008  224.57299805    4.90999985    2.44000006
   13.17333412  221.27900696    4.90999985    2.46000004
   13.17916679  221.27900696    4.90999985    2.46000004
   13.18333340  232.15100098    4.90999985    2.44000006
   13.18638897  209.47000122    4.90999985    2.46000004
   13.18972206  230.11300659    4.90999985    2.46000004
   13.19277763  206.89599609    4.90999985    2.46000004
   13.19611073  192.41600037    4.90999985    2.46000004
   13.19694424  221.05900574    4.90999985    2.46000004
   13.19972229  193.96699524    4.90999985    2.46000004
   13.20305538  208.65800476    4.90999985    2.46000004
   13.20638847  229.65100098    4.90999985    2.46000004
   13.20944405  212.39900208    4.90999985    2.46000004
   13.21277714  215.11300659    4.90999985    2.46000004
   13.21583271  235.62699890    4.90999985    2.46000004
   13.22194386  235.62699890    4.90999985    2.46000004
   13.22611046  211.44900513    4.90999985    2.46000004
   13.22916603  210.38999939    4.90999985    2.46000004
   13.23027706  207.68400574    4.90999985    2.46000004
   13.23277760  210.00599670    4.90999985    2.46000004
   13.23611164  197.48800659    4.90999985    2.46000004
   13.23944473  226.28599548    4.90999985    2.46000004
   13.24250031  198.17100525    4.90999985    2.48000002
   13.24583340  228.69799805    4.90999985    2.46000004
   13.24888897  218.15899658    4.90999985    2.46000004
   13.25222206  197.67599487    4.90999985    2.46000004
   13.25555515  226.12699890    4.90999985    2.46000004
   13.25861073  209.23199463    4.90999985    2.48000002
   13.26472187  209.23199463    4.90999985    2.48000002
   13.26888847  199.42999268    4.90999985    2.48000002
   13.27222157  191.89100647    4.90999985    2.48000002
   13.27527714  186.03700256    4.90999985    2.46000004
   13.27861118  199.78999329    4.90999985    2.48000002
   13.28194427  189.50000000    4.90999985    2.50000000
   13.28500080  183.00199890    4.90999985    2.48000002
   13.28833389  182.99000549    4.90999985    2.48000002
   13.29166698  194.45100403    4.90999985    2.48000002
   13.29472256  184.67300415    4.90999985    2.48000002
   13.29694462  192.77600098    4.90999985    2.48000002
   13.29833412  198.25100708    4.90999985    2.48000002
   13.30166721  182.45899963    4.90999985    2.48000002
   13.30749989  182.45899963    4.90999985    2.50000000
   13.31166649  188.29899597    4.90999985    2.51999998
   13.31500053  188.76300049    4.90999985    2.51999998
   13.31833363  196.77999878    4.90999985    2.53999996
   13.32138920  191.96499634    4.90999985    2.53999996
   13.32472229  240.01699829    4.90999985    2.30999994
   13.32777786  119.44699860    4.90999985    1.88000000
   13.33138847   -1.00000000    4.90999985    1.26999998
   13.33472157   -1.00000000    4.90999985    0.88000000
   13.33777714   -1.00000000    4.90999985    0.75000000
   13.34111118   -1.00000000    4.90999985    1.11000001
   13.34416676  191.26600647    4.90999985    1.44000006
   13.36555576  110.02799988    4.90999985    2.03999996
   13.36611176  112.76899719    4.90999985    2.03999996
   13.36916637  254.72999573    4.90999985    2.15000010
   13.37250042  214.58099365    4.90999985    2.28999996
   13.37583351  225.65499878    4.90999985    2.34999990
   13.37888908  185.01899719    4.90999985    2.36999989
   13.38222218  204.31199646    4.90999985    2.36999989
   13.38555527  202.57000732    4.90999985    2.32999992
   13.38861084  205.77900696    4.90999985    2.28999996
   13.39333344  205.77900696    4.90999985    2.39000010
   13.39750004  185.07699585    4.90999985    2.48000002
   13.39888859  181.36099243    4.90999985    2.50000000
   13.40111065  170.61799622    4.90999985    2.53999996
   13.40444374  160.70100403    4.90999985    2.53999996
   13.40749931  174.82699585    4.90999985    2.53999996
   13.41083336  186.39500427    4.90999985    2.51999998
   13.41416645  174.42999268    4.90999985    2.51999998
   13.41722298  157.36700439    4.90999985    2.51999998
   13.42055607  161.61099243    4.90999985    2.51999998
   13.42388916  176.47099304    4.90999985    2.51999998
   13.42694473  175.76300049    4.90999985    2.51999998
   13.43027782  171.20199585    4.90999985    2.51999998
   13.43222237  144.88900757    4.90999985    2.51999998
   13.43638897  144.88900757    4.90999985    2.51999998
   13.44027805  200.77200317    4.90999985    2.50000000
   13.44361115  230.49299622    4.90999985    2.34999990
   13.44694424  223.26800537    4.90999985    2.21000004
   13.44999981  260.89498901    4.90999985    2.15000010
   13.45333290  185.20300293    4.90999985    2.15000010
   13.45666695  222.54299927    4.90999985    2.17000008
   13.45972157  228.04800415    4.90999985    2.23000002
   13.46305561  220.82499695    4.90999985    2.28999996
   13.46555519  189.02099609    4.90999985    2.32999992
   13.46666622  184.57499695    4.90999985    2.34999990
   13.46999931  185.48399353    4.90999985    2.46000004
   13.47333336  192.74499512    4.90999985    2.50000000
   13.47916603  192.74499512    4.84999990    2.51999998
   13.48333359  172.04600525    4.57999992    2.51999998
   13.48638916  171.58200073    4.55999994    2.51999998
   13.48972225  157.86000061    4.53000021    2.51999998
   13.49305534  151.97200012    4.48999977    2.51999998
   13.49611092  163.73699951    4.44999981    2.51999998
   13.49888897  153.42599487    4.42999983    2.51999998
   13.49972248  166.63999939    4.42999983    2.51999998
   13.50305557  181.04800415    4.40999985    2.51999998
   13.50638866  168.82699585    4.42999983    2.51999998
   13.50944424  166.46499634    4.42999983    2.51999998
   13.51277733  174.14599609    4.42999983    2.51999998
   13.51583290  176.07600403    4.46999979    2.51999998
   13.52194405  176.07600403    4.84999990    2.51999998
   13.52611065  173.19200134    4.90999985    2.51999998
   13.52916622  164.63900757    4.90999985    2.50000000
   13.53222179  164.96200562    4.90999985    2.50000000
   13.53277779  155.52999878    4.90999985    2.50000000
   13.53611183  172.59500122    4.90999985    2.50000000
   13.53916740  167.98800659    4.90999985    2.50000000
   13.54250050  186.79600525    4.90999985    2.42000008
   13.54583359  185.56700134    4.90999985    2.36999989
   13.54888916  173.47999573    4.90999985    2.40000010
   13.55222225  174.93299866    4.90999985    2.53999996
   13.55555534  160.81399536    4.90999985    2.55999994
   13.55861092  178.66000366    4.90999985    2.55999994
   13.56472206  178.66000366    4.90999985    2.53999996
   13.56888866  171.52000427    4.90999985    2.53999996
   13.57222176  174.32400513    4.69999981    2.53999996
   13.57527733  166.65100098    4.48999977    2.53999996
   13.57861137  160.83500671    4.28999996    2.53999996
   13.58194447  168.36799622    4.23999977    2.53999996
   13.58500004  175.01100159    4.19999981    2.53999996
   13.58833313  157.44900513    4.17999983    2.53999996
   13.59166622  171.00000000    4.13999987    2.53999996
   13.59472179  182.78300476    4.15999985    2.53999996
   13.59805489  156.49499512    4.15999985    2.55999994
   13.59972191  160.39399719    4.17999983    2.53999996
   13.60166740  176.84899902    4.19999981    2.53999996
   13.60750008  176.84899902    4.36999989    2.53999996
   13.61166668  177.76499939    4.40999985    2.53999996
   13.61500072  181.44599915    4.28999996    2.51999998
   13.61833382  172.31500244    4.13999987    2.53999996
   13.62138939  184.66700745    4.09999990    2.53999996
   13.62472248  168.19900513    4.07999992    2.53999996
   13.62777805  154.50599670    4.09999990    2.55999994
   13.63111115  161.96099854    4.09999990    2.55999994
   13.63305569  172.23500061    4.09999990    2.55999994
   13.63472176  156.91499329    4.09999990    2.55999994
   13.63805580  179.42399597    4.11999989    2.55999994
   13.64111137  173.37199402    4.13999987    2.53999996
   13.64444447  154.80799866    4.19999981    2.53999996
   13.65055561  154.80799866    4.34999990    2.53999996
   13.65472221  143.11099243    4.48999977    2.55999994
   13.65777779  159.96899414    4.73999977    2.53999996
   13.66111088  155.07000732    4.65999985    2.55999994
   13.66416645  168.66900635    4.55999994    2.55999994
   13.66666698  151.60000610    4.57999992    2.53999996
   13.66805553  157.70100403    4.57999992    2.55999994
   13.67111111  163.61399841    4.73999977    2.55999994
   13.67444515  164.17100525    4.86999989    2.53999996
   13.67777824  159.59700012    4.86999989    2.53999996
   13.68083382  162.33399963    4.76000023    2.53999996
   13.68416691  154.17599487    4.46999979    2.53999996
   13.68750000  157.15299988    4.19999981    2.55999994
   13.69333363  157.15299988    4.09999990    2.55999994
   13.69750023  151.50700378    4.07999992    2.55999994
   13.69999981  171.46499634    4.05999994    2.57999992
   13.70111084  147.91900635    4.09999990    2.53999996
   13.70416641  161.59899902    4.30999994    2.55999994
   13.70749950  143.33299255    4.80999994    2.55999994
   13.71083355  156.06199646    4.90999985    2.57999992
   13.71388912  150.69999695    4.90999985    2.57999992
   13.71722221  171.46000671    4.90999985    2.57999992
   13.72055531  170.53999329    4.90999985    2.57999992
   13.72361088  147.13200378    4.90999985    2.57999992
   13.72694397  220.84500122    4.90999985    2.46000004
   13.72999954  260.56500244    4.90999985    1.94000006
   13.73611164  260.56500244    4.90999985    1.63000000
   13.74027824  150.08099365    4.90999985    2.15000010
   13.74361134  153.20100403    4.90999985    2.48000002
   13.74666691  160.39599609    4.90999985    2.50000000
   13.75027752  147.03599548    4.90999985    2.51999998
   13.75361156  157.58900452    4.90999985    2.55999994
   13.75666714  162.65199280    4.40999985    2.57999992
   13.76000023  149.09199524    3.97000003    2.57999992
   13.76333332  150.81199646    3.84999990    2.57999992
   13.76638889  151.39199829    3.80999994    2.57999992
   13.76694393  164.49800110    3.78999996    2.57999992
   13.76999950  165.88000488    3.75000000    2.59999990
   13.77333355  157.58299255    3.73000002    2.57999992
   13.77888870  157.58299255    3.72000003    2.57999992
   13.78305531  156.88999939    3.70000005    2.57999992
   13.78638935  156.16000366    3.70000005    2.57999992
   13.78972244  154.08700562    3.70000005    2.57999992
   13.79277802  147.28199768    3.68000007    2.55999994
   13.79611111  159.38200378    3.70000005    2.57999992
   13.79916668  143.16299438    3.73000002    2.57999992
   13.80027771  151.15699768    3.73000002    2.57999992
   13.80277824  162.93099976    3.75000000    2.57999992
   13.80611134  154.24299622    3.76999998    2.57999992
   13.80916691  150.30099487    3.78999996    2.57999992
   13.81250000  164.99499512    3.80999994    2.57999992
   13.81583309  154.63999939    3.82999992    2.57999992
   13.82194424  154.63999939    3.86999989    2.57999992
   13.82611084  142.87300110    3.82999992    2.57999992
   13.82916641  142.52999878    3.80999994    2.57999992
   13.83249950  150.44599915    3.78999996    2.57999992
   13.83388901  143.64100647    3.78999996    2.57999992
   13.83611107  153.90899658    3.76999998    2.57999992
   13.83916664  139.30200195    3.73000002    2.57999992
   13.84249973  144.22900391    3.70000005    2.59999990
   13.84583282  157.64700317    3.68000007    2.57999992
   13.84888840  147.42100525    3.64000010    2.57999992
   13.85222244  151.79100037    3.61999989    2.57999992
   13.85555553  146.44700623    3.61999989    2.59999990
   13.85861111  155.98500061    3.59999990    2.57999992
   13.86472225  155.98500061    3.57999992    2.57999992
   13.86888885  158.31300354    3.57999992    2.57999992
   13.87194443  146.64199829    3.59999990    2.55999994
   13.87527752  136.57899475    3.59999990    2.59999990
   13.87861156  154.08700562    3.61999989    2.59999990
   13.88166714  147.64500427    3.64000010    2.57999992
   13.88500023  152.05599976    3.64000010    2.57999992
   13.88833332  144.10899353    3.64000010    2.57999992
   13.89138889  143.17100525    3.66000009    2.57999992
   13.89472198  145.28599548    3.68000007    2.59999990
   13.89777756  154.48899841    3.68000007    2.59999990
   13.90055561  154.45799255    3.66000009    2.57999992
   13.90166664  149.70100403    3.66000009    2.57999992
   13.90749931  149.70100403    3.66000009    2.59999990
   13.91166592  144.65400696    3.64000010    2.57999992
   13.91499996  148.21099854    3.64000010    2.57999992
   13.91805553  145.98399353    3.66000009    2.57999992
   13.92138958  148.93899536    3.66000009    2.57999992
   13.92472267  165.92700195    3.66000009    2.57999992
   13.92777824  147.58700562    3.66000009    2.59999990
   13.93111134  146.37800598    3.68000007    2.59999990
   13.93388939  154.51800537    3.68000007    2.59999990
   13.93472195  154.11900330    3.68000007    2.59999990
   13.93805599  146.09399414    3.68000007    2.59999990
   13.94111156  143.05700684    3.68000007    2.59999990
   13.94444466  154.94000244    3.66000009    2.59999990
   13.95027733  154.94000244    3.61999989    2.59999990
   13.95444393  139.87399292    3.57999992    2.57999992
   13.95777798  143.14900208    3.55999994    2.61999989
   13.96111107  137.21200562    3.53999996    2.59999990
   13.96416664  150.08200073    3.53999996    2.59999990
   13.96722221  147.82600403    3.51999998    2.59999990
   13.96777725  137.33799744    3.51999998    2.59999990
   13.97111034  149.52799988    3.51999998    2.59999990
   13.97416592  141.66999817    3.51999998    2.59999990
   13.97749996  143.76699829    3.51999998    2.59999990
   13.98055553  140.06300354    3.53999996    2.59999990
   13.98388958  155.14999390    3.53999996    2.59999990
   13.98722267  153.20700073    3.53999996    2.59999990
   13.99333382  153.20700073    3.57999992    2.59999990
   13.99750042  151.94200134    3.64000010    2.59999990
   14.00055599  140.83700562    4.09999990    2.59999990
   14.00111103  159.63800049    4.09999990    2.59999990
   14.00416660  143.37600708    4.53000021    2.59999990
   14.00749969  149.87899780    4.61999989    2.59999990
   14.01083374  149.41499329    4.90999985    2.61999989
   14.01388931  157.83299255    4.90999985    2.61999989
   14.01722240  148.50000000    4.90999985    2.64000010
   14.02055550  145.68699646    4.90999985    2.64000010
   14.02361107  137.44000244    4.90999985    2.64000010
   14.02694416  140.32000732    4.90999985    2.61999989
   14.03027725  164.42500305    3.99000001    2.57999992
   14.03611183  164.42500305    3.95000005    2.61999989
   14.04027843  148.58799744    3.57999992    2.59999990
   14.04333401  157.43299866    3.50000000    2.61999989
   14.04666710  141.63099670    3.46000004    2.61999989
   14.05000019  146.41299438    3.45000005    2.59999990
   14.05305576  144.71899414    3.41000009    2.61999989
   14.05638885  153.66099548    3.39000010    2.59999990
   14.05972195  142.94299316    3.41000009    2.61999989
   14.06277752  138.02000427    3.46000004    2.61999989
   14.06611156  143.85400391    3.64000010    2.61999989
   14.06722260  138.39900208    3.80999994    2.61999989
   14.06972218  151.74200439    4.90999985    2.61999989
   14.07305527  145.30499268    4.90999985    2.55999994
   14.07888889  145.30499268    4.90999985    2.48000002
   14.08305550  157.03599548    4.90999985    2.57999992
   14.08638859  152.14599609    4.90999985    2.55999994
   14.08944416  136.13400269    4.90999985    2.61999989
   14.09277725  142.38800049    4.90999985    2.61999989
   14.09583282  150.68600464    4.30999994    2.57999992
   14.09916592  150.27499390    3.50000000    2.61999989
   14.10055637  144.08799744    3.43000007    2.61999989
   14.10277843  136.39900208    3.34999990    2.61999989
   14.10611153  152.33099365    3.30999994    2.61999989
   14.10916710  134.33599854    3.28999996    2.64000010
   14.11250019  143.38999939    3.28999996    2.64000010
   14.11555576  138.84800720    4.90999985    2.67000008
   14.12166691  138.84800720    4.90999985    2.25000000
   14.12583351   -1.00000000    4.90999985    0.31999999
   14.12916660   -1.00000000    4.90999985    0.28000000
   14.13222218   -1.00000000    4.90999985    0.30000001
   14.13583279   -1.00000000    4.90999985    0.25000000
   14.13916683   -1.00000000    4.90999985    0.25000000
   14.14249992   -1.00000000    4.90999985    0.25999999
   14.14555550   -1.00000000    4.90999985    0.23000000
   14.14888859   -1.00000000    4.90999985    0.25000000
   14.15249920   -1.00000000    4.90999985    0.31999999
   14.15555477   -1.00000000    4.90999985    0.40000001
   14.15888882   -1.00000000    4.90999985    0.52999997
   14.16861153   -1.00000000    4.90999985    1.28999996
   14.17194462  128.08200073    4.90999985    1.69000006
   14.17500019  139.88099670    4.90999985    2.61999989
   14.17833328  233.21800232    4.90999985    2.84999990
   14.18166733   -1.00000000    4.90999985    1.83000004
   14.18472195   -1.00000000    4.90999985    1.01999998
   14.18805599   -1.00000000    4.90999985    0.76999998
   14.19111156   -1.00000000    4.90999985    0.44000000
   14.19444466   -1.00000000    4.90999985    0.40000001
   14.19777775   -1.00000000    4.90999985    0.31999999
   14.20111084   -1.00000000    4.90999985    0.30000001
   14.20749950   -1.00000000    4.90999985    0.56999999
   14.21166611  193.65400696    4.90999985    2.09999990
   14.21472168  150.35299683    4.90999985    2.73000002
   14.21805477  147.30599976    4.90999985    2.76999998
   14.22138882  206.33900452    4.90999985    2.61999989
   14.22444439   -1.00000000    4.90999985    2.13000011
   14.22777748  240.61599731    4.90999985    1.33000004
   14.23083305   -1.00000000    4.90999985    1.98000002
   14.23444462   -1.00000000    4.90999985    0.98000002
   14.23777771   -1.00000000    4.90999985    0.80000001
   14.24111176   87.69609833    4.90999985    1.19000006
   14.24416733   -1.00000000    4.90999985    1.53999996
   14.25444412   -1.00000000    4.90999985    1.07000005
   14.25749969   -1.00000000    4.90999985    1.03999996
   14.26083374   -1.00000000    4.90999985    0.73000002
   14.26388931   -1.00000000    4.90999985    0.70999998
   14.26722240   -1.00000000    4.90999985    0.28000000
   14.27083302   -1.00000000    4.90999985    0.19000000
   14.27416611   -1.00000000    4.90999985    0.13000000
   14.27750015   -1.00000000    4.90999985    0.07000000
   14.28055573   -1.00000000    4.90999985    0.07000000
   14.28388977   -1.00000000    4.90999985    0.09000000
   14.28694534   -1.00000000    4.90999985    0.11000000
   14.29722309   -1.00000000    4.90999985    0.25000000
   14.30027771   -1.00000000    4.90999985    0.11000000
   14.30388927   -1.00000000    4.90999985    0.05000000
   14.30722237   -1.00000000    4.90999985    0.03000000
   14.31055546   -1.00000000    4.67999983    0.03000000
   14.31361103   -1.00000000    3.26999998    0.01000000
   14.31694412   -1.00000000    3.07999992    0.01000000
   14.31999969   -1.00000000    3.16000009    0.01000000
   14.32333374   -1.00000000    3.21000004    0.01000000
   14.32666683   -1.00000000    3.34999990    0.01000000
   14.32972240   -1.00000000    3.43000007    0.01000000
   14.34000015   -1.00000000    4.90999985    0.01000000
   14.34333324   -1.00000000    4.90999985    0.03000000
   14.34638882   -1.00000000    4.90999985    0.03000000
   14.34972191   -1.00000000    4.90999985    0.05000000
   14.35305595   -1.00000000    4.90999985    0.05000000
   14.35611153   -1.00000000    4.90999985    0.05000000
   14.35944462   -1.00000000    4.90999985    0.05000000
   14.36250019   -1.00000000    4.90999985    0.05000000
   14.36583328   -1.00000000    4.90999985    0.05000000
   14.39083290   -1.00000000    3.05999994    0.03000000
   14.39416695   -1.00000000    4.61999989    0.05000000
   14.39750004   -1.00000000    4.90999985    0.05000000
   14.40055561   -1.00000000    4.90999985    0.07000000
   14.40388870   -1.00000000    4.90999985    0.09000000
   14.40722179   -1.00000000    4.90999985    0.11000000
   14.41027737   -1.00000000    4.90999985    0.15000001
   14.41361046   -1.00000000    4.90999985    0.19000000
   14.41694450   -1.00000000    4.90999985    0.25000000
   14.42027855   -1.00000000    4.90999985    0.31999999
   14.42361164   -1.00000000    4.90999985    0.34000000
   14.42972279   -1.00000000    4.90999985    1.58000004
   14.43388939   -1.00000000    4.90999985    1.66999996
   14.43722248   -1.00000000    4.90999985    0.94000000
   14.44027805   -1.00000000    4.90999985    0.81999999
   14.44361115   -1.00000000    4.90999985    0.92000002
   14.44694424   -1.00000000    4.90999985    1.01999998
   14.44944477  245.92300415    4.90999985    1.11000001
   14.45055580  194.98399353    4.90999985    1.53999996
   14.45361137  217.36000061    4.90999985    2.21000004
   14.45694447   -1.00000000    4.90999985    1.71000004
   14.46027756  185.90699768    4.90999985    1.46000004
   14.46333313  212.58399963    4.90999985    1.73000002
   14.46666622  150.23199463    4.90999985    2.42000008
   14.47277737  150.23199463    4.90999985    2.71000004
   14.47666645  150.67900085    4.90999985    2.71000004
   14.47999954  149.15699768    4.90999985    2.71000004
   14.48277760  144.01899719    4.90999985    2.73000002
   14.48361111  147.22000122    4.90999985    2.75000000
   14.48666668  138.66999817    4.90999985    2.76999998
   14.49000072  275.42098999    4.90999985    2.76999998
   14.49333382  286.52899170    4.90999985    1.85000002
   14.49638939  245.24400330    4.90999985    1.94000006
   14.49972248  190.38600159    4.90999985    2.42000008
   14.50277805  151.74800110    4.90999985    2.09999990
   14.50611115  299.21301270    4.90999985    1.71000004
   14.50944424  153.06900024    4.90999985    2.25000000
   14.51555538  153.06900024    4.90999985    2.80999994
   14.51972198  152.36599731    4.90999985    2.82999992
   14.52277756  273.43399048    4.90999985    2.61999989
   14.52611065  198.66600037    4.90999985    2.42000008
   14.52916622   -1.00000000    4.90999985    2.11999989
   14.53249931   -1.00000000    4.90999985    1.50000000
   14.53583336   -1.00000000    4.90999985    1.34000003
   14.53888893   60.21590042    4.90999985    1.63000000
   14.54222298   -1.00000000    4.90999985    1.61000001
   14.54555607   -1.00000000    4.90999985    0.75000000
   14.54861164   -1.00000000    4.90999985    0.95999998
   14.55222225   -1.00000000    4.90999985    1.13000000
   14.55833340   -1.00000000    4.90999985    1.73000002
   14.56250000   -1.00000000   -1.00000000   -1.00000000
   14.56555557   55.95849991    4.90999985    1.80999994
   14.56888866  179.52699280    4.90999985    1.71000004
   14.57222176  113.27400208    4.90999985    1.94000006
   14.57527733   31.21100044    4.90999985    1.88000000
   14.57861137   60.02249908    4.90999985    1.16999996
   14.58194447  333.25000000    4.90999985    1.91999996
   14.58527756   -1.00000000    4.90999985    1.25000000
   14.58861065   -1.00000000    4.90999985    1.36000001
   14.59166622   -1.00000000    4.90999985    0.73000002
   14.59499931   -1.00000000    4.90999985    0.25999999
   14.60527802   -1.00000000    4.90999985    0.15000001
   14.60833359   -1.00000000    4.90999985    0.13000000
   14.61166668   -1.00000000    4.90999985    0.17000000
   14.61500072   -1.00000000    4.90999985    0.19000000
   14.61861134   -1.00000000    4.90999985    0.23000000
   14.62166691   -1.00000000    4.90999985    0.28000000
   14.62500000   -1.00000000    4.90999985    0.40000001
   14.62805557   -1.00000000    4.90999985    0.51999998
   14.63138866   -1.00000000    4.90999985    0.70999998
   14.63472176   -1.00000000    4.90999985    0.81999999
   14.63777733   -1.00000000    4.90999985    1.16999996
   14.64805508   93.85289764    4.90999985    1.55999994
   14.65055561  188.25599670    4.90999985    1.78999996
   14.65166664   28.78790092    4.90999985    1.96000004
   14.65499973   -1.00000000    4.90999985    1.28999996
   14.65805531   -1.00000000    4.90999985    0.83999997
   14.66138840   -1.00000000    4.90999985    0.44000000
   14.66444397   -1.00000000    4.90999985    0.31999999
   14.66777802   -1.00000000    4.90999985    0.41999999
   14.67111111   -1.00000000    4.90999985    0.67000002
   14.67416668   -1.00000000    4.90999985    1.51999998
   14.67750072   -1.00000000    4.90999985    1.50000000
   14.68083382   -1.00000000    4.90999985    0.79000002
   14.69083309   -1.00000000    4.90999985    1.07000005
   14.69416714   -1.00000000    4.90999985    1.11000001
   14.69750023   -1.00000000    4.90999985    0.36000001
   14.70055580   -1.00000000    4.90999985    0.30000001
   14.70388889   -1.00000000    4.90999985    0.23000000
   14.70694447   -1.00000000    4.90999985    0.20999999
   14.71027756   -1.00000000    4.90999985    0.20999999
   14.71361065   -1.00000000    4.90999985    0.20999999
   14.71666622   -1.00000000    4.90999985    0.25000000
   14.72027779   -1.00000000    4.90999985    0.28000000
   14.72361088   -1.00000000    4.90999985    0.28000000
   14.73388958   -1.00000000    4.90999985    0.44000000
   14.73694515   -1.00000000    4.90999985    0.55000001
   14.74027824   -1.00000000    4.90999985    0.63000000
   14.74333382   -1.00000000    4.90999985    0.86000001
   14.74666691   -1.00000000    4.90999985    0.88000000
   14.75000000   -1.00000000    4.90999985    0.79000002
   14.75333309   -1.00000000    4.90999985    0.92000002
   14.75666714   -1.00000000    4.90999985    0.89999998
   14.76000023   -1.00000000    4.90999985    0.98000002
   14.76305580   -1.00000000    4.90999985    0.98000002
   14.76638889   -1.00000000    4.90999985    1.00000000
   14.77250004   -1.00000000    4.90999985    1.96000004
   14.77666664  152.19700623    4.90999985    2.69000006
   14.77999973  152.61199951    4.90999985    2.67000008
   14.78305531  135.66499329    4.90999985    2.75000000
   14.78472233  139.75799561    4.90999985    2.78999996
   14.78666687  160.88800049    4.90999985    2.78999996
   14.79027843  262.10101318    4.90999985    2.69000006
   14.79361153   -1.00000000    4.90999985    2.40000010
   14.79666710   -1.00000000    4.90999985    1.07000005
   14.80000019   -1.00000000    4.90999985    0.83999997
   14.80333328   -1.00000000    4.90999985    0.69000000
   14.80638885   -1.00000000    4.90999985    0.86000001
   14.80972195   -1.00000000    4.90999985    0.86000001
   14.81527805   -1.00000000    4.90999985    1.16999996
   14.81944466  102.29399872    4.90999985    1.73000002
   14.82277775   66.11879730    4.90999985    1.86000001
   14.82611084  242.11799622    4.90999985    1.76999998
   14.82916641  162.24099731    4.90999985    2.28999996
   14.83249950  171.27400208    4.90999985    2.66000009
   14.83583260  226.34100342    4.90999985    2.32999992
   14.83888817  273.22799683    4.90999985    2.42000008
   14.84222221  273.02099609    4.90999985    2.15000010
   14.84527779  292.16299438    4.90999985    2.07999992
   14.84861088   -1.00000000    4.90999985    2.07999992
   14.85222244   -1.00000000    4.90999985    0.83999997
   14.86222267   -1.00000000    4.90999985    0.92000002
   14.86555576   -1.00000000    4.90999985    1.13000000
   14.86888885   -1.00000000    4.90999985    1.26999998
   14.87194443   -1.00000000    4.90999985    1.36000001
   14.87527752   -1.00000000   -1.00000000   -1.00000000
   14.87833309  211.41299438    4.90999985    1.83000004
   14.88166714  162.49000549    4.90999985    2.15000010
   14.88472176  150.04699707    4.90999985    2.51999998
   14.88527775  132.27999878    4.90999985    2.61999989
   14.88861084  132.82400513    4.90999985    2.75000000
   14.89194393  143.07600403    4.90999985    2.75000000
   14.89499950  145.90899658    4.90999985    2.71000004
   14.90111065  145.90899658    2.82999992    2.69000006
   14.90527725  136.96699524    2.82999992    2.69000006
   14.90833282  139.46099854    2.84999990    2.69000006
   14.91166592  142.78100586    2.82999992    2.67000008
   14.91499996  128.28199768    2.82999992    2.67000008
   14.91805553  137.24400330    2.82999992    2.69000006
   14.91833401  138.00399780    2.82999992    2.69000006
   14.92166710  146.95399475    2.84999990    2.67000008
   14.92500019  139.44999695    2.80999994    2.69000006
   14.92805576  138.14999390    2.80999994    2.67000008
   14.93138885  135.82200623    2.80999994    2.69000006
   14.93444443  141.70199585    2.78999996    2.69000006
   14.93777752  129.06300354    2.76999998    2.69000006
   14.94388866  129.06300354    2.76999998    2.69000006
   14.94805527  129.92900085    2.93000007    2.69000006
   14.95138836  132.76699829    4.88999987    2.69000006
   14.95194435  139.73599243    4.88999987    2.69000006
   14.95499992  140.22300720    4.90999985    2.66000009
   14.95833302  128.69700623    4.90999985    2.64000010
   14.96138859  159.78500366    4.90999985    2.64000010
   14.96472168  139.26100159    4.69999981    2.57999992
   14.96805477  135.80900574    4.90999985    2.67000008
   14.97111034  142.85899353    3.45000005    2.69000006
   14.97444439  152.58399963    3.18000007    2.67000008
   14.97749996  134.84599304    3.50000000    2.67000008
   14.98083305  184.16499329    3.97000003    2.55999994
   14.98694515  184.16499329    4.90999985    2.50000000
   14.99083328  138.54200745    4.90999985    2.69000006
   14.99416733  142.34500122    4.76000023    2.69000006
   14.99750042  137.41799927    2.96000004    2.69000006
   15.00055599  131.74299622    2.94000006    2.69000006
   15.00388908  130.72999573    2.93000007    2.67000008
   15.00694466  134.32200623    2.75000000    2.69000006
   15.01027775  129.46099854    2.71000004    2.69000006
   15.01361084  135.75399780    2.69000006    2.69000006
   15.01666641  140.76300049    2.69000006    2.69000006
   15.01805496  132.05799866    2.67000008    2.69000006
   15.02055550  138.31700134    2.67000008    2.69000006
   15.02361107  145.23800659    2.67000008    2.71000004
   15.02972221  145.23800659    2.67000008    2.71000004
   15.03388977  142.20100403    2.67000008    2.71000004
   15.03694534  134.10600281    2.66000009    2.69000006
   15.04027843  130.60899353    2.66000009    2.69000006
   15.04333401  144.38600159    2.66000009    2.69000006
   15.04666710  144.21699524    2.66000009    2.71000004
   15.05000019  137.39900208    2.66000009    2.69000006
   15.05138874  144.89399719    2.66000009    2.71000004
   15.05361176  137.40699768    2.98000002    2.71000004
   15.05666733  124.71399689    4.38999987    2.71000004
   15.06000042  134.34899902    4.90999985    2.71000004
   15.06305599  154.52099609    4.90999985    2.71000004
   15.06638908  133.99800110    4.90999985    2.64000010
   15.07250023  133.99800110    4.01999998    2.66000009
   15.07666683  139.03199768    2.82999992    2.67000008
   15.07972240  129.11099243    2.71000004    2.69000006
   15.08305550  139.47799683    2.71000004    2.69000006
   15.08500004  126.73799896    2.69000006    2.69000006
   15.08666611  144.49499512    2.66000009    2.69000006
   15.09000015  143.38699341    2.64000010    2.69000006
   15.09333324  132.46800232    2.61999989    2.69000006
   15.09638882  126.66899872    2.59999990    2.71000004
   15.09972191  128.28399658    2.59999990    2.71000004
   15.10277843  133.68400574    2.59999990    2.71000004
   15.10611153  132.78900146    3.36999989    2.71000004
   15.10944462  135.05000305    4.32999992    2.71000004
   15.11527824  135.05000305    4.90999985    2.67000008
   15.11944485  145.90899658    4.19999981    2.66000009
   15.12277794  131.00399780    3.16000009    2.67000008
   15.12583351  136.71400452    2.67000008    2.69000006
   15.12916660  133.63000488    2.66000009    2.71000004
   15.13249969  136.21299744    2.64000010    2.71000004
   15.13555527  130.53300476    2.59999990    2.69000006
   15.13888836  133.43400574    2.59999990    2.71000004
   15.14222240  121.23899841    2.59999990    2.69000006
   15.14527798  135.32499695    2.59999990    2.71000004
   15.14861107  143.53599548    2.59999990    2.69000006
   15.15166664  143.22300720    2.59999990    2.71000004
   15.15222168  134.65400696    2.59999990    2.71000004
   15.15805531  134.65400696    2.59999990    2.71000004
   15.16222191  135.41000366    2.64000010    2.73000002
   15.16555500  142.17300415    4.90999985    2.76999998
   15.16888905  160.42500305    4.90999985    2.80999994
   15.17194462   57.42359924    4.90999985    2.15000010
   15.17527771   -1.00000000    4.90999985    1.48000002
   15.17833328  137.58299255    4.90999985    1.51999998
   15.18166733   74.44969940    4.90999985    1.61000001
   15.18500042  224.87100220    4.90999985    2.07999992
   15.18527794  289.85800171    4.90999985    2.07999992
   15.18861103  139.66600037    4.90999985    2.50000000
   15.19194412  148.98199463    4.90999985    2.84999990
   15.19499969  134.78300476    4.90999985    2.82999992
   15.20111084  134.78300476    4.90999985    2.75000000
   15.20527744  139.02900696    2.84999990    2.73000002
   15.20833302  151.50599670    4.90999985    2.73000002
   15.21166611  156.16900635    4.90999985    2.64000010
   15.21472168  144.53900146    4.90999985    2.40000010
   15.21805477  138.51400757    4.90999985    2.69000006
   15.21861076  146.87600708    4.90999985    2.69000006
   15.22194386  143.73899841    4.90999985    2.76999998
   15.22499943  135.97000122    4.90999985    2.76999998
   15.22833252  146.55299377    4.90999985    2.78999996
   15.23166656  155.10400391    4.90999985    2.78999996
   15.23472214  295.01300049    4.90999985    2.55999994
   15.23805618  203.38400269    4.90999985    2.01999998
   15.24388885  203.38400269    4.90999985    2.59999990
   15.24805546  129.73899841    3.59999990    2.71000004
   15.25111103  148.86000061    2.59999990    2.71000004
   15.25194454  137.77200317    2.55999994    2.71000004
   15.25500011  147.46200562    2.64000010    2.69000006
   15.25805569  140.57200623    3.03999996    2.71000004
   15.26138878  128.18699646    3.11999989    2.73000002
   15.26472187  149.33599854    3.89000010    2.66000009
   15.26777744  154.22399902    4.90999985    2.67000008
   15.27111053  163.24699402    4.90999985    2.71000004
   15.27416611  195.47599792    4.90999985    2.64000010
   15.27750015  101.75099945    4.90999985    2.55999994
   15.28083324  199.78900146    4.90999985    1.66999996
   15.28666687  199.78900146    4.90999985    2.69000006
   15.29083347  162.17100525    3.53999996    2.69000006
   15.29416752  155.74000549    2.76999998    2.66000009
   15.29722309  159.49400330    2.67000008    2.69000006
   15.30055618  143.34100342    2.66000009    2.69000006
   15.30388927  160.25799561    2.66000009    2.71000004
   15.30694485  164.62800598    2.64000010    2.71000004
   15.31027794  157.66999817    2.64000010    2.71000004
   15.31333351  164.21400452    2.64000010    2.71000004
   15.31666660  145.61199951    2.61999989    2.71000004
   15.31861115  155.60000610    2.61999989    2.73000002
   15.32027817  148.78999329    2.64000010    2.71000004
   15.32333374  149.59399414    2.71000004    2.73000002
   15.32972240  149.59399414    4.90999985    2.73000002
   15.33361053  156.58099365    4.90999985    2.73000002
   15.33694458  157.28900146    4.90999985    2.73000002
   15.34027767  149.88000488    4.90999985    2.71000004
   15.34333324  144.16099548    4.71999979    2.71000004
   15.34666634  152.94999695    3.64000010    2.71000004
   15.35000038  159.06900024    2.76999998    2.71000004
   15.35194492  148.63600159    2.64000010    2.69000006
   15.35361195  151.31500244    2.61999989    2.71000004
   15.35666752  142.29899597    2.61999989    2.71000004
   15.36000061  137.92500305    2.61999989    2.69000006
   15.36333370  152.25000000    2.59999990    2.69000006
   15.36638927  153.70799255    2.59999990    2.71000004
   15.37250042  153.70799255    2.57999992    2.71000004
   15.37666702  159.41299438    2.59999990    2.71000004
   15.37972260  135.82800293    2.57999992    2.71000004
   15.38305569  145.13200378    2.57999992    2.71000004
   15.40027714  144.37300110    2.55999994    2.69000006
   15.40305519  160.35800171    2.55999994    2.69000006
   15.40611076  154.68299866    2.55999994    2.69000006
   15.40944386  152.53399658    2.55999994    2.71000004
   15.41555500  152.53399658    2.55999994    2.71000004
   15.41972256  160.84899902    2.53999996    2.71000004
   15.42277813  140.52699280    2.53999996    2.69000006
   15.42611122  168.18899536    2.51999998    2.71000004
   15.42916679  165.36599731    2.51999998    2.71000004
   15.43249989  172.80900574    2.53999996    2.71000004
   15.43361092  168.17399597    2.51999998    2.71000004
   15.43611145  169.28100586    2.51999998    2.71000004
   15.43944454  161.76199341    2.51999998    2.69000006
   15.44277763  161.26400757    2.51999998    2.71000004
   15.44583321  169.21600342    2.51999998    2.71000004
   15.44916630  165.56300354    2.51999998    2.71000004
   15.45249939  176.42399597    2.51999998    2.71000004
   15.45833302  176.42399597    2.51999998    2.71000004
   15.46249962  166.03100586    2.51999998    2.71000004
   15.46555519  164.79299927    2.51999998    2.69000006
   15.46694374  165.01100159    2.51999998    2.73000002
   15.46916580  141.07800293    2.51999998    2.71000004
   15.47249985  168.97399902    2.51999998    2.71000004
   15.47583294  185.84199524    2.53999996    2.73000002
   15.47888851  152.40199280    2.53999996    2.71000004
   15.48222160  143.40400696    2.53999996    2.71000004
   15.48527813  158.69900513    2.53999996    2.71000004
   15.48861122  159.69599915    2.53999996    2.71000004
   15.49194431  176.54200745    2.53999996    2.69000006
   15.49499989  149.14399719    2.53999996    2.71000004
   15.50111103  149.14399719    2.53999996    2.69000006
   15.50527763  173.71200562    2.53999996    2.71000004
   15.50861073  167.69000244    2.55999994    2.71000004
   15.51166630  190.34199524    2.55999994    2.71000004
   15.51500034  168.04899597    2.55999994    2.71000004
   15.51833344  168.36900330    2.57999992    2.71000004
   15.52138901  167.05400085    2.57999992    2.71000004
   15.52472210  166.72799683    2.55999994    2.71000004
   15.52777767  163.00399780    2.53999996    2.71000004
   15.53111076  172.37199402    2.51999998    2.69000006
   15.53361130  158.39599609    2.51999998    2.71000004
   15.53472233  157.25500488    2.51999998    2.71000004
   15.53805637  161.80999756    2.50000000    2.71000004
   15.54388905  161.80999756    2.48000002    2.71000004
   15.54805565  148.00300598    2.46000004    2.71000004
   15.55138874  160.86599731    2.46000004    2.71000004
   15.55472279  145.06199646    2.44000006    2.71000004
   15.55777836  151.67900085    2.44000006    2.71000004
   15.56111145  161.63699341    2.46000004    2.71000004
   15.56416702  170.05099487    2.46000004    2.71000004
   15.56694412  137.13200378    2.44000006    2.71000004
   15.56777763  141.70599365    2.44000006    2.71000004
   15.57111073  150.73599243    2.46000004    2.71000004
   15.57444477  139.67599487    2.44000006    2.73000002
   15.57750034  137.69099426    2.44000006    2.71000004
   15.58083344  138.38699341    2.46000004    2.71000004
   15.58694458  138.38699341    2.46000004    2.71000004
   15.59111118  145.47799683    2.48000002    2.71000004
   15.59416676  162.85099792    2.48000002    2.71000004
   15.69222260   -1.00000000   -1.00000000   -1.00000000
   15.80777836   -1.00000000   -1.00000000   -1.00000000
   15.91472149   -1.00000000   -1.00000000   -1.00000000
   16.10194397   -1.00000000   -1.00000000   -1.00000000
   16.16972160   93.29360199    2.42000008    2.73000002
   16.17305565  134.29100037    2.44000006    2.73000002
   16.17638779  133.94000244    2.51999998    2.71000004
   16.17944336  139.64399719    2.55999994    2.71000004
   16.18277740  138.99800110    2.57999992    2.71000004
   16.18583298  154.08599854    2.50000000    2.71000004
   16.18999863  154.08599854    2.86999989    2.71000004
   16.19416618  147.91400146    4.53000021    2.66000009
   16.19749832  144.56199646    4.90999985    2.73000002
   16.20055580  140.57099915    4.90999985    2.66000009
   16.20305634  150.89700317    4.90999985    2.69000006
   16.20444489  145.23599243    4.90999985    2.71000004
   16.20750046  139.52999878    4.90999985    2.73000002
   16.21083450  126.44200134    3.93000007    2.71000004
   16.21416664  130.19400024    3.00000000    2.71000004
   16.21722221  128.36300659    2.61999989    2.73000002
   16.22055626  142.44200134    2.48000002    2.73000002
   16.22361183  134.77999878    2.44000006    2.73000002
   16.22694588  146.17199707    2.42000008    2.73000002
   16.23305511  146.17199707    2.39000010    2.73000002
   16.23694420  128.40800476    2.34999990    2.71000004
   16.24027824  135.08299255    2.32999992    2.71000004
   16.24361229  134.30499268    2.30999994    2.73000002
   16.24666786  138.55799866    2.28999996    2.73000002
   16.25000000  129.91499329    2.26999998    2.73000002
   16.25333405  135.47399902    2.26999998    2.73000002
   16.25638962  142.86799622    2.26999998    2.73000002
   16.25972176  134.44599915    2.25000000    2.73000002
   16.26277733  136.10099792    2.23000002    2.73000002
   16.26611137  131.43400574    2.21000004    2.73000002
   16.26944351  148.50900269    2.21000004    2.73000002
   16.27000046  128.92300415    2.21000004    2.73000002
   16.27583313  128.92300415    2.21000004    2.73000002
   16.28000069  145.68800354    2.19000006    2.75000000
   16.28305435  146.74600220    2.21000004    2.75000000
   16.28638840  148.65499878    2.19000006    2.73000002
   16.28972244  145.04100037    2.19000006    2.75000000
   16.29277802  139.53399658    2.19000006    2.75000000
   16.29611015  150.22599792    2.17000008    2.73000002
   16.29916573  127.64900208    2.17000008    2.73000002
   16.30249977  143.24499512    2.19000006    2.73000002
   16.30333328  127.72899628    2.19000006    2.73000002
   16.30611038  141.32400513    2.21000004    2.73000002
   16.30944443  134.17900085    2.23000002    2.73000002
   16.31277657  135.13400269    2.25000000    2.73000002
   16.31861115  135.13400269    2.26999998    2.75000000
   16.32277870  142.67700195    2.26999998    2.71000004
   16.32611275  133.44700623    2.26999998    2.71000004
   16.32916832  125.84500122    2.28999996    2.73000002
   16.33250046  142.53999329    2.28999996    2.73000002
   16.33555603  151.14799500    2.26999998    2.73000002
   16.33666801  145.88499451    2.26999998    2.73000002
   16.33916664  131.85699463    2.26999998    2.73000002
   16.34250069  134.08099365    2.26999998    2.73000002
   16.34583473  137.31300354    2.25000000    2.73000002
   16.34889030  149.60400391    2.26999998    2.73000002
   16.35222244  130.10899353    2.26999998    2.73000002
   16.35555649  146.41499329    2.26999998    2.73000002
   16.36138916  146.41499329    2.28999996    2.73000002
   16.36555672  138.53700256    2.28999996    2.73000002
   16.36888885  133.54600525    2.28999996    2.73000002
   16.37000084  147.25500488    2.28999996    2.73000002
   16.37249947  133.43899536    2.30999994    2.73000002
   16.37583351  135.35400391    2.30999994    2.73000002
   16.37916756  131.69599915    2.30999994    2.73000002
   16.38222313  130.12399292    2.30999994    2.73000002
   16.38555527  132.37899780    2.28999996    2.73000002
   16.38861084  143.21000671    2.28999996    2.71000004
   16.39194489  150.06199646    2.28999996    2.73000002
   16.39527702  148.17399597    2.30999994    2.73000002
   16.39833260  139.52699280    2.28999996    2.73000002
   16.40444374  139.52699280    2.30999994    2.73000002
   16.40833282  159.31599426    2.30999994    2.73000002
   16.41166687  137.91799927    2.34999990    2.71000004
   16.41499901  145.86900330    2.40000010    2.71000004
   16.41805458  126.76899719    2.48000002    2.73000002
   16.42138863  141.74400330    2.61999989    2.75000000
   16.42472076  129.94999695    2.66000009    2.75000000
   16.42777634  161.27799988    2.71000004    2.73000002
   16.43111038  143.36999512    2.94000006    2.73000002
   16.43416595  137.71200562    3.18000007    2.75000000
   16.43666649  130.79600525    3.34999990    2.75000000
   16.43777657  153.11399841    3.45000005    2.75000000
   16.44111061  152.24400330    3.76999998    2.75000000
   16.44722176  152.24400330    4.55999994    2.76999998
   16.45138931  152.94599915    4.90999985    2.78999996
   16.45444489  134.83900452    4.90999985    2.76999998
   16.45777893  157.86399841    4.90999985    2.78999996
   16.46111107  144.02200317    4.90999985    2.78999996
   16.46416664  142.37899780    4.90999985    2.78999996
   16.46750069  131.83799744    4.90999985    2.78999996
   16.47000122  147.34500122    4.90999985    2.76999998
   16.47111130  139.63099670    4.90999985    2.78999996
   16.47444534  148.88600159    4.90999985    2.76999998
   16.47777748  133.96099854    4.90999985    2.78999996
   16.48083305  149.77400208    4.90999985    2.78999996
   16.48416710  152.78599548    4.90999985    2.78999996
   16.48999977  152.78599548    4.90999985    2.82999992
   16.49416733  155.39599609    4.90999985    2.82999992
   16.49749947  143.56199646    4.90999985    2.80999994
   16.50055504  146.25300598    4.90999985    2.80999994
   16.50333405  135.76800537    4.90999985    2.80999994
   16.50416756  149.30099487    4.90999985    2.80999994
   16.50749969  144.47099304    4.90999985    2.82999992
   16.51083374  150.05099487    4.90999985    2.80999994
   16.51388931  141.51699829    4.90999985    2.82999992
   16.51722145  157.68299866    4.90999985    2.82999992
   16.52027702  150.01600647    4.90999985    2.82999992
   16.52361107  161.32600403    4.90999985    2.84999990
   16.52694511  157.93699646    4.90999985    2.84999990
   16.53277779  157.93699646    4.90999985    2.84999990
   16.53694344  136.88099670    4.90999985    2.84999990
   16.54027748  158.87899780    4.90999985    2.84999990
   16.54333305  148.22599792    4.90999985    2.86999989
   16.54666710  141.56300354    4.90999985    2.86999989
   16.54999924  148.21200562    4.90999985    2.86999989
   16.55305481  133.22799683    4.90999985    2.84999990
   16.55638885  149.48500061    4.90999985    2.84999990
   16.55972099  134.08099365    4.90999985    2.86999989
   16.56277657  145.66200256    4.90999985    2.84999990
   16.56611061  147.40499878    4.90999985    2.86999989
   16.56916809  149.62600708    4.90999985    2.84999990
   16.57000160  166.87399292    4.90999985    2.84999990
   16.57583427  166.87399292    4.90999985    2.82999992
   16.57972336  144.57299805    4.90999985    2.82999992
   16.58305550  155.78100586    4.90999985    2.84999990
   16.58638954  147.37100220    4.90999985    2.84999990
   16.58944511  142.14300537    4.90999985    2.84999990
   16.59277916  152.97200012    4.90999985    2.84999990
   16.59611130  128.37199402    4.90999985    2.84999990
   16.59916687  138.19999695    4.90999985    2.84999990
   16.60250092  142.15299988    4.90999985    2.86999989
   16.60333443  146.29600525    4.90999985    2.86999989
   16.60611153  130.29899597    4.90999985    2.86999989
   16.60944557  134.78300476    4.90999985    2.89000010
   16.61277771  131.16499329    4.90999985    2.89000010
   16.61861038  131.16499329    4.90999985    2.91000009
   16.62277794  139.00199890    4.90999985    2.91000009
   16.62583351  138.46699524    4.90999985    2.94000006
   16.62916756  126.59500122    4.90999985    2.93000007
   16.63249969  124.47100067    4.80000019    2.94000006
   16.63555527  134.06599426    3.91000009    2.93000007
   16.63666725  144.39799500    3.66000009    2.93000007
   16.63916588  133.98100281    2.98000002    2.93000007
   16.64249992  135.56100464    2.44000006    2.93000007
   16.64583397  142.02699280    2.05999994    2.93000007
   16.64888954  132.88499451    1.13000000    2.91000009
   16.65222168  137.95799255    1.11000001    2.91000009
   16.65555573  129.24800110    1.07000005    2.89000010
   16.66138840  129.24800110    1.03999996    2.86999989
   16.66555595  122.96399689    1.01999998    2.86999989
   16.66888809  131.85000610    1.01999998    2.84999990
   16.67000008  137.75900269    0.98000002    2.82999992
   16.67222214  120.30500031    0.98000002    2.84999990
   16.67555428  135.36799622    0.98000002    2.80999994
   16.67888832  134.55299377    0.92000002    2.75000000
   16.68222237  133.42900085    0.89999998    2.71000004
   16.68527603  143.49000549    0.88000000    2.67000008
   16.68861008  133.78500366    0.83999997    2.51999998
   16.69166565  124.57900238    0.81999999    2.42000008
   16.69499969  137.97799683    0.80000001    2.32999992
   16.69833183  148.48599243    0.80000001    2.32999992
   16.70416832  148.48599243    0.76999998    2.07999992
   16.70833397  131.80200195    0.75000000    1.86000001
   16.71166801  135.60299683    0.73000002    1.66999996
   16.71472359  128.77400208    0.70999998    1.50000000
   16.71805573  122.05799866    0.70999998    1.33000004
   16.72138977  137.34500122    0.69000000    1.16999996
   16.72444534  140.72200012    0.67000002    1.01999998
   16.72777748  129.21400452    0.64999998    0.89999998
   16.73111153  137.78799438    0.63000000    0.80000001
   16.73416710  134.79100037    0.61000001    0.75000000
   16.73666763  132.92500305    0.61000001    0.70999998
   16.73777771  135.78599548    0.61000001    0.69000000
   16.74111176  131.82600403    0.58999997    0.67000002
   16.74694443  131.82600403    0.56999999    0.67000002
   16.75111198  120.11599731    0.56999999    0.70999998
   16.75444412  120.47899628    0.55000001    0.73000002
   16.75777817  131.09399414    0.55000001    0.75000000
   16.76083374  137.53100586    0.52999997    0.79000002
   16.76416588  129.15100098    0.52999997    0.79000002
   16.76749992  132.80999756    0.51999998    0.81999999
   16.77000046  133.74400330    0.51999998    0.81999999
   16.77083397  130.60299683    0.51999998    0.81999999
   16.77416611  128.27799988    0.50000000    0.81999999
   16.77750015  133.31100464    0.50000000    0.81999999
   16.78055573  121.51100159    0.47999999    0.81999999
   16.78388786  126.41100311    0.47999999    0.81999999
   16.78999901  126.41100311    0.47999999    0.81999999
   16.79416656  133.07299805    0.46000001    0.80000001
   16.79722214  139.20199585    0.46000001    0.80000001
   16.80055428  128.66700745    0.46000001    0.80000001
   16.80333328  143.62899780    0.46000001    0.80000001
   16.80416679  136.21000671    0.46000001    0.80000001
   16.80749893  141.18600464    0.44000000    0.80000001
   16.81083298  131.43299866    0.44000000    0.80000001
   16.81388855  140.34599304    0.41999999    0.80000001
   16.81722260  144.69299316    0.41999999    0.79000002
   16.82055664  131.65100098    0.41999999    0.79000002
   16.82361221  138.59199524    0.41999999    0.79000002
   16.82694626  131.75399780    0.40000001    0.79000002
   16.83277893  131.75399780    0.40000001    0.79000002
   16.83694458  143.49400330    0.38000000    0.79000002
   16.84000015  142.75100708    0.38000000    0.79000002
   16.84333420  136.71299744    0.36000001    0.79000002
   16.84666824  143.39700317    0.38000000    0.79000002
   16.84972191  119.49500275    0.36000001    0.79000002
   16.85305595  133.14700317    0.34000000    0.76999998
   16.85639000  127.07900238    0.34000000    0.76999998
   16.85944557  139.42599487    0.34000000    0.76999998
   16.86277771  133.04699707    0.34000000    0.76999998
   16.86583328  133.11399841    0.31999999    0.75000000
   16.86916733  132.72500610    0.34000000    0.75000000
   16.87000084  121.36799622    0.34000000    0.75000000
   16.87555504  121.36799622    0.30000001    0.73000002
   16.87972260  133.59100342    0.30000001    0.73000002
   16.88305473  134.20199585    0.31999999    0.70999998
   16.88611031  133.17399597    0.30000001    0.69000000
   16.88944435  136.45399475    0.30000001    0.69000000
   16.89277840  133.60299683    0.30000001    0.69000000
   16.89583397  133.02299500    0.28000000    0.67000002
   16.89916611  137.14100647    0.28000000    0.67000002
   16.90222168  126.69999695    0.28000000    0.64999998
   16.90333366  133.62399292    0.28000000    0.64999998
   16.90611076  138.55999756    0.28000000    0.64999998
   16.90916634  145.07099915    0.28000000    0.64999998
   16.91250038  138.89199829    0.28000000    0.63000000
   16.91833305  138.89199829    0.25999999    0.63000000
   16.92249870  130.06599426    0.25999999    0.61000001
   16.92583275  125.91899872    0.25999999    0.61000001
   16.92916679  133.36199951    0.25999999    0.61000001
   16.93222237  133.35200500    0.25999999    0.58999997
   16.93555450  134.52499390    0.25999999    0.58999997
   16.93666649  126.85099792    0.25999999    0.58999997
   16.93916512  132.46600342    0.25000000    0.58999997
   16.94222069  123.23999786    0.25000000    0.56999999
   16.94555473  130.49299622    0.25000000    0.56999999
   16.94861031  130.07699585    0.25000000    0.55000001
   16.95194435  136.50799561    0.25000000    0.55000001
   16.95527840  132.39700317    0.25000000    0.55000001
   16.96138954  132.39700317    0.25000000    0.52999997
   16.96555710  134.63999939    0.23000000    0.52999997
   16.96861076  133.55700684    0.23000000    0.52999997
   16.97000122  140.25599670    0.23000000    0.52999997
   16.97249985  137.11000061    0.23000000    0.52999997
   16.97555542  133.33999634    0.23000000    0.51999998
   16.97888947  137.91999817    0.23000000    0.51999998
   16.98194504  133.71099854    0.23000000    0.51999998
   16.98527718  130.79800415    0.20999999    0.51999998
   16.98861122  128.59300232    0.20999999    0.51999998
   16.99166679  133.74800110    0.20999999    0.51999998
   16.99500084  122.09700012    0.20999999    0.51999998
   16.99833298  129.64799500    0.20999999    0.51999998
   17.00416756  129.64799500    0.19000000    0.50000000
   17.00833321  122.79599762    0.19000000    0.51999998
   17.01138878  124.68800354    0.19000000    0.51999998
   17.01472282  124.51399994    0.19000000    0.51999998
   17.01805496  122.57900238    0.19000000    0.51999998
   17.02111053  127.40899658    0.19000000    0.50000000
   17.02444458  135.73300171    0.19000000    0.50000000
   17.02777672  130.69999695    0.19000000    0.50000000
   17.03083229  133.21600342    0.17000000    0.50000000
   17.03416634  130.67799377    0.19000000    0.47999999
   17.03666687  131.06700134    0.17000000    0.47999999
   17.03777695  137.81700134    0.17000000    0.47999999
   17.04083252  131.85699463    0.19000000    0.47999999
   17.04694366  131.85699463    0.19000000    0.47999999
   17.05111122  133.13299561    0.17000000    0.47999999
   17.05444336  126.29399872    0.17000000    0.46000001
   17.05749893  136.05299377    0.17000000    0.46000001
   17.06083298  137.71699524    0.17000000    0.46000001
   17.06416512  124.57299805    0.17000000    0.46000001
   17.06722260  122.86499786    0.17000000    0.46000001
   17.07000160  123.79399872    0.17000000    0.44000000
   17.07111168  145.08599854    0.17000000    0.44000000
   17.07416725  125.68599701    0.17000000    0.44000000
   17.07750130  130.48199463    0.17000000    0.44000000
   17.08083344  137.57400513    0.17000000    0.44000000
   17.08388901  134.02099609    0.17000000    0.44000000
   17.08972359  134.02099609    0.15000001    0.41999999
   17.09388924  133.83500671    0.17000000    0.41999999
   17.09722328  128.81599426    0.15000001    0.41999999
   17.10055542  119.45700073    0.15000001    0.41999999
   17.10333443  134.46499634    0.17000000    0.41999999
   17.10416794  133.45500183    0.15000001    0.40000001
   17.10722351  135.42500305    0.15000001    0.40000001
   17.11055565  117.97000122    0.15000001    0.40000001
   17.11388969  127.70099640    0.15000001    0.40000001
   17.11694527  125.51000214    0.17000000    0.40000001
   17.12027740  127.14499664    0.15000001    0.38000000
   17.12333298  127.70200348    0.15000001    0.40000001
   17.12666702  119.01399994    0.15000001    0.38000000
   17.13277817  119.01399994    0.15000001    0.38000000
   17.13694382  129.57499695    0.15000001    0.38000000
   17.13999939  137.71800232    0.15000001    0.38000000
   17.14333344  127.33999634    0.15000001    0.36000001
   17.14638901  127.38899994    0.15000001    0.36000001
   17.14972115  137.54899597    0.13000000    0.36000001
   17.15305519  127.83999634    0.15000001    0.34000000
   17.15611076  136.09599304    0.15000001    0.36000001
   17.15944481  136.54499817    0.13000000    0.34000000
   17.16277695  139.88699341    0.13000000    0.34000000
   17.16583252  132.33299255    0.13000000    0.34000000
   17.16916656  137.97200012    0.13000000    0.31999999
   17.17000008  132.64100647    0.13000000    0.31999999
   17.19083214  132.64100647    0.13000000    0.30000001
   17.19499969  135.41200256    0.13000000    0.30000001
   17.19805527  133.24200439    0.13000000    0.28000000
   17.20138931  132.76699829    0.13000000    0.28000000
   17.20333481  129.56900024    0.13000000    0.28000000
   17.20499992  137.71299744    0.13000000    0.28000000
   17.20805550  133.23300171    0.13000000    0.28000000
   17.21138954  129.06300354    0.13000000    0.25999999
   17.21472359  135.51600647    0.13000000    0.25999999
   17.21777916  132.95500183    0.11000000    0.25999999
   17.22111130  135.10899353    0.11000000    0.25999999
   17.22444534  139.57299805    0.11000000    0.25999999
   17.22750092  130.17700195    0.13000000    0.25000000
   17.23361206  130.17700195    0.11000000    0.25000000
   17.23750114  137.48800659    0.11000000    0.25000000
   17.24083328  135.53100586    0.11000000    0.25000000
   17.24416733  134.93400574    0.11000000    0.23000000
   17.24722290  126.79599762    0.11000000    0.23000000
   17.25055504  125.11199951    0.11000000    0.23000000
   17.25388908  144.90100098    0.11000000    0.23000000
   17.25694466  140.61799622    0.11000000    0.23000000
   17.26027870  141.22599792    0.11000000    0.23000000
   17.26333427  138.79600525    0.11000000    0.20999999
   17.26666641  141.52400208    0.11000000    0.20999999
   17.27000046  128.83599854    0.11000000    0.20999999
   17.27055550  135.92999268    0.11000000    0.20999999
   17.27638817  135.92999268    0.11000000    0.19000000
   17.28055573  130.74600220    0.11000000    0.19000000
   17.28361130  136.19799805    0.11000000    0.19000000
   17.28694344  134.39500427    0.11000000    0.19000000
   17.29027748  142.06500244    0.11000000    0.19000000
   17.29333305  132.37100220    0.11000000    0.17000000
   17.29666710  138.09399414    0.11000000    0.17000000
   17.29972076  128.15299988    0.11000000    0.17000000
   17.30305481  117.50299835    0.09000000    0.17000000
   17.30388832  119.15000153    0.11000000    0.17000000
   17.30666542  130.30000305    0.09000000    0.17000000
   17.30999947  133.35099792    0.09000000    0.15000001
   17.31333351  127.80500031    0.09000000    0.15000001
   17.31916809  127.80500031    0.09000000    0.15000001
   17.32333374  138.63699341    0.09000000    0.15000001
   17.32666779  133.14399719    0.09000000    0.15000001
   17.32972336  130.02600098    0.09000000    0.13000000
   17.33305550  144.19599915    0.09000000    0.13000000
   17.33611107  136.16200256    0.09000000    0.11000000
   17.33722305  135.94099426    0.09000000    0.11000000
   17.33972359  128.82600403    0.09000000    0.11000000
   17.34305573  142.00300598    0.09000000    0.11000000
   17.34638977  132.87899780    0.09000000    0.11000000
   17.34944534  140.15100098    0.09000000    0.09000000
   17.35277748  131.44500732    0.09000000    0.09000000
   17.35583305  121.47599792    0.09000000    0.09000000
   17.36194420  121.47599792    0.09000000    0.09000000
   17.36611176  131.27200317    0.09000000    0.09000000
   17.36944389  127.45300293    0.09000000    0.07000000
   17.37055588  134.95199585    0.09000000    0.07000000
   17.37305641  126.97100067    0.09000000    0.07000000
   17.37638855  130.22799683    0.09000000    0.07000000
   17.37972260  130.91499329    0.09000000    0.07000000
   17.38277817  125.34500122    0.09000000    0.07000000
   17.38611031  133.43299866    0.09000000    0.07000000
   17.38916588  128.67199707    0.09000000    0.07000000
   17.39249992  133.73899841    0.09000000    0.07000000
   17.39583397  140.15100098    0.09000000    0.07000000
   17.39888954  134.35899353    0.09000000    0.07000000
   17.40472221  134.35899353    0.09000000    0.05000000
   17.40888786  134.10099792    0.07000000    0.05000000
   17.41222191  129.44500732    0.07000000    0.05000000
   17.41555595  125.49099731    0.09000000    0.05000000
   17.41860962  127.10800171    0.07000000    0.05000000
   17.42194366  130.38299561    0.07000000    0.05000000
   17.42527771  116.64499664    0.09000000    0.05000000
   17.42833328  125.57800293    0.07000000    0.05000000
   17.43166542  123.22200012    0.07000000    0.03000000
   17.43472099  121.11499786    0.07000000    0.03000000
   17.43722153  132.27999878    0.07000000    0.05000000
   17.43833160  137.10099792    0.07000000    0.03000000
   17.44166565  124.50599670    0.07000000    0.03000000
   17.44777679  124.50599670    0.07000000    0.03000000
   17.45194435  140.02799988    0.07000000    0.03000000
   17.45499992  135.35699463    0.07000000    0.03000000
   17.45833397  126.51999664    0.07000000    0.03000000
   17.46166801  135.21200562    0.07000000    0.03000000
   17.46472359  126.73100281    0.07000000    0.03000000
   17.46805573  127.20700073    0.09000000    0.03000000
   17.47055626  121.98999786    0.07000000    0.03000000
   17.47166634  130.05400085    0.09000000    0.03000000
   17.47500038  127.92700195    0.07000000    0.03000000
   17.47833443  133.66999817    0.09000000    0.03000000
   17.48139000  128.57099915    0.07000000    0.03000000
   17.48472214  143.97999573    0.07000000    0.03000000
   17.49055672  143.97999573    0.07000000    0.01000000
   17.49472237  137.75999451    0.07000000    0.01000000
   17.49805641  124.61900330    0.07000000    0.01000000
   17.50111198  129.49800110    0.07000000    0.01000000
   17.50388908  125.05000305    0.07000000    0.01000000
   17.50472260  129.31900024    0.07000000    0.01000000
   17.50805473  130.85000610    0.07000000    0.01000000
   17.51138878  121.36900330    0.07000000    0.01000000
   17.51444435  130.82299805    0.07000000    0.01000000
   17.51777840  124.10500336    0.07000000    0.01000000
   17.52083397  122.03800201    0.07000000    0.01000000
   17.52416611  127.79000092    0.07000000    0.01000000
   17.52750015  130.25100708    0.07000000    0.01000000
   17.53333282  130.25100708    0.07000000    0.01000000
   17.53750038  122.73000336    0.07000000    0.01000000
   17.54083252  140.86399841    0.07000000    0.01000000
   17.54388809  135.33999634    0.07000000    0.01000000
   17.54722214  131.77699280    0.07000000    0.01000000
   17.55055428  124.81099701    0.07000000    0.01000000
   17.55360985  128.78700256    0.07000000    0.01000000
   17.55694389  126.56700134    0.07000000    0.01000000
   17.55999947  136.75000000    0.07000000    0.01000000
   17.56333351  135.46099854    0.07000000    0.01000000
   17.56666756  136.00399780    0.07000000    0.01000000
   17.56972313  133.77699280    0.07000000    0.01000000
   17.57055664  136.04699707    0.07000000    0.01000000
   17.57611275  136.04699707    0.07000000    0.01000000
   17.58027840  125.00000000    0.07000000    0.01000000
   17.58361244  127.07800293    0.07000000    0.01000000
   17.58694458  139.82499695    0.07000000    0.01000000
   17.59000015  139.33399963    0.05000000    0.01000000
   17.59333420  130.06300354    0.05000000    0.01000000
   17.59638977  138.73199463    0.05000000    0.01000000
   17.59972191  138.59199524    0.07000000    0.01000000
   17.60305595  136.94099426    0.05000000    0.01000000
   17.60388947  133.47700500    0.07000000    0.01000000
   17.60666656  126.16600037    0.05000000    0.01000000
   17.60972214  127.24600220    0.05000000    0.01000000
   17.61305618  135.44599915    0.07000000    0.01000000
   17.61916733  135.44599915    0.05000000    0.01000000
   17.62333298  126.99199677    0.05000000    0.01000000
   17.62638855  125.66300201    0.05000000    0.01000000
   17.62972260  141.62500000    0.05000000    0.01000000
   17.63277817  136.28199768    0.05000000    0.01000000
   17.63611031  128.51400757    0.05000000    0.01000000
   17.63722229  139.16400146    0.05000000    0.01000000
   17.63972282  129.16700745    0.05000000    0.01000000
   17.64305496  137.04899597    0.05000000    0.01000000
   17.64638901  133.92300415    0.05000000    0.01000000
   17.64944458  131.38400269    0.05000000    0.01000000
   17.65277672  124.26399994    0.05000000    0.01000000
   17.65611076  117.38700104    0.05000000    0.01000000
   17.66194344  117.38700104    0.05000000    0.01000000
   17.66611099  126.89800262    0.05000000    0.01000000
   17.66916656  135.47599792    0.05000000    0.01000000
   17.67055511  134.78799438    0.05000000    0.01000000
   17.67277718  144.51300049    0.05000000    0.01000000
   17.67611122  144.96499634    0.05000000    0.01000000
   17.67944336  137.74099731    0.05000000    0.01000000
   17.68249893  135.27499390    0.05000000    0.01000000
   17.68583298  131.19700623    0.05000000    0.01000000
   17.68916512  137.35099792    0.05000000    0.01000000
   17.69222069  143.06799316    0.05000000    0.01000000
   17.69555473  123.00000000    0.05000000    0.01000000
   17.69888878  133.73800659    0.05000000    0.01000000
   17.70472336  133.73800659    0.05000000    0.01000000
   17.70888901  134.95899963    0.05000000    0.01000000
   17.71222305  116.02999878    0.05000000    0.01000000
   17.71527863  127.52600098    0.05000000    0.01000000
   17.71861076  125.48400116    0.05000000    0.01000000
   17.72194481  133.68099976    0.05000000    0.01000000
   17.72500038  133.80900574    0.05000000    0.01000000
   17.72833443  140.41400146    0.05000000    0.01000000
   17.73139000  138.90600586    0.05000000    0.01000000
   17.73472214  124.91300201    0.05000000    0.01000000
   17.73722267  132.59300232    0.05000000    0.01000000
   17.73833275  135.98500061    0.05000000    0.01000000
   17.74166679  128.77799988    0.05000000    0.01000000
   17.74749947  128.77799988    0.05000000    0.01000000
   17.75166702  122.19200134    0.05000000    0.01000000
   17.75499916  130.27600098    0.05000000    0.01000000
   17.75805473  114.06199646    0.05000000    0.01000000
   17.76138878  120.47399902    0.05000000    0.01000000
   17.76472282  115.59100342    0.19000000    2.91000009
   17.76777840  114.04900360    2.46000004    2.73000002
   17.77055550  114.50399780    2.42000008    2.75000000
   17.77138901  126.86000061    2.44000006    2.71000004
   17.77472115  113.63300323    2.44000006    2.71000004
   17.77805519  112.44300079    2.46000004    2.71000004
   17.78111076  129.60099792    2.48000002    2.73000002
   17.78444481  123.54499817    2.48000002    2.75000000
   17.79055595  123.54499817    2.46000004    2.73000002
   17.79444313  126.98500061    2.44000006    2.73000002
   17.79777718  121.89600372    2.44000006    2.73000002
   17.80111122  120.80100250    2.44000006    2.73000002
   17.80388832  118.00499725    2.44000006    2.73000002
   17.80444336  123.85099792    2.44000006    2.73000002
   17.80777740  120.74600220    2.44000006    2.73000002
   17.81110954  114.66000366    2.44000006    2.73000002
   17.81416512  113.63300323    2.46000004    2.71000004
   17.81750107  127.59700012    2.46000004    2.73000002
   17.82055664  120.48000336    2.36999989    2.71000004
   17.82389069  117.95800018    2.36999989    2.71000004
   17.82722282  129.84700012    2.36999989    2.73000002
   17.83333397  129.84700012    2.44000006    2.73000002
   17.83750153  114.94999695    2.46000004    2.73000002
   17.84055710  122.41000366    2.46000004    2.73000002
   17.84388924  116.09700012    2.46000004    2.75000000
   17.84722328  121.02600098    2.46000004    2.73000002
   17.85027885  133.34100342    2.46000004    2.75000000
   17.85361099  126.41300201    2.48000002    2.75000000
   17.85694504  134.88999939    2.50000000    2.75000000
   17.86000061  136.85800171    2.50000000    2.73000002
   17.86333466  126.99800110    2.48000002    2.73000002
   17.86638832  125.74500275    2.48000002    2.71000004
   17.86972237  127.25000000    2.48000002    2.73000002
   17.87055588  122.72399902    2.48000002    2.71000004
   17.87611198  122.72399902    2.51999998    2.69000006
   17.88027763  135.58200073    2.55999994    2.71000004
   17.88361168  130.30700684    2.61999989    2.73000002
   17.88666725  127.45600128    2.67000008    2.71000004
   17.88999939  131.55000305    2.75000000    2.71000004
   17.89305496  127.95300293    2.76999998    2.71000004
   17.89638901  131.78999329    2.96000004    2.71000004
   17.89972115  118.00199890    3.11999989    2.73000002
   17.90277672  126.36100006    3.34999990    2.71000004
   17.90388870  125.64099884    3.45000005    2.71000004
   17.90638924  123.32800293    3.76999998    2.71000004
   17.90972137  133.37300110    4.11999989    2.71000004
   17.91305542  129.38699341    4.55999994    2.73000002
   17.91888809  129.38699341    4.90999985    2.75000000
   17.92305565  116.35299683    4.90999985    2.75000000
   17.92638779  132.20500183    4.90999985    2.75000000
   17.92944336  133.50399780    4.90999985    2.73000002
   17.93277740  118.83899689    4.90999985    2.73000002
   17.93610954  125.56800079    4.90999985    2.71000004
   17.93722153  135.21400452    4.90999985    2.73000002
   17.93972206  120.80200195    4.90999985    2.73000002
   17.94277763  134.22700500    4.90999985    2.73000002
   17.94610977  125.76999664    4.90999985    2.73000002
   17.94916534  127.17400360    4.90999985    2.73000002
   17.95250130  131.15600586    4.90999985    2.73000002
   17.95583344  132.02499390    4.90999985    2.73000002
   17.96194458  132.02499390    4.90999985    2.73000002
   17.96611214  129.04299927    4.90999985    2.75000000
   17.96916771  131.28500366    4.90999985    2.75000000
   17.97055626  131.87399292    4.90999985    2.73000002
   17.97277832  132.56599426    4.90999985    2.75000000
   17.97611237  124.27200317    4.90999985    2.76999998
   17.97944450  137.41700745    4.90999985    2.76999998
   17.98250008  128.55499268    4.90999985    2.78999996
   17.98583412  129.11399841    4.90999985    2.80999994
   17.98916626  142.58000183    4.90999985    2.80999994
   17.99222183  142.55200195    4.90999985    2.80999994
   17.99555588  140.27699280    4.90999985    2.80999994
   17.99861145  132.66999817    4.90999985    2.80999994
   18.00472260  132.66999817    4.90999985    2.80999994
   18.00888824  132.25000000    4.90999985    2.82999992
   18.01194382  128.87300110    4.90999985    2.80999994
   18.01527786  128.81599426    4.90999985    2.80999994
   18.01861000  126.91899872    4.90999985    2.80999994
   18.02166557  136.41799927    4.90999985    2.78999996
   18.02499962  128.82000732    4.90999985    2.78999996
   18.02833366  131.06300354    4.90999985    2.78999996
   18.03138924  130.80299377    4.90999985    2.75000000
   18.03472137  140.11599731    4.90999985    2.75000000
   18.03722191  131.55999756    4.90999985    2.73000002
   18.03833199  129.44599915    4.90999985    2.73000002
   18.04138756  134.09500122    4.90999985    2.73000002
   18.04749870  134.09500122    4.90999985    2.71000004
   18.05166626  131.49699402    4.90999985    2.73000002
   18.05499840  128.69000244    4.90999985    2.73000002
   18.05805397  137.36300659    4.90999985    2.75000000
   18.06138802  136.45700073    4.90999985    2.75000000
   18.06444359  126.70300293    4.90999985    2.76999998
   18.06777954  135.82600403    4.90999985    2.76999998
   18.07055664  135.01300049    4.90999985    2.78999996
   18.07166672  145.50500488    4.90999985    2.80999994
   18.07472229  138.69900513    4.90999985    2.82999992
   18.07805634  122.34799957    4.90999985    2.82999992
   18.08139038  122.37000275    4.90999985    2.84999990
   18.08444595  139.79200745    4.90999985    2.86999989
   18.09027863  139.79200745    4.90999985    2.86999989
   18.09444427  137.33700562    4.90999985    2.86999989
   18.09777832  136.19200134    4.90999985    2.86999989
   18.10111237  132.01699829    4.90999985    2.89000010
   18.10388947  135.62899780    4.46999979    2.86999989
   18.10472298  124.90200043    4.19999981    2.89000010
   18.10777855  130.00000000    3.43000007    2.89000010
   18.11111069  126.79799652    2.84999990    2.89000010
   18.11444473  123.19599915    2.25000000    2.89000010
   18.11750031  125.69300079    1.86000001    2.89000010
   18.12083435  131.91900635    1.33000004    2.86999989
   18.12388992  126.37799835    1.33000004    2.86999989
   18.12722206  118.38999939    1.30999994    2.86999989
   18.13333321  118.38999939    1.25000000    2.86999989
   18.13750076  129.35200500    1.19000006    2.82999992
   18.14055634  124.70099640    1.19000006    2.82999992
   18.14388847  138.23100281    1.13000000    2.78999996
   18.14694405  136.62300110    1.13000000    2.76999998
   18.15027809  129.11399841    1.09000003    2.73000002
   18.15361023  128.07699585    1.07000005    2.71000004
   18.15666580  125.61199951    1.05999994    2.59999990
   18.15999985  131.37199402    1.03999996    2.48000002
   18.16333389  139.96400452    1.03999996    2.46000004
   18.16638756  137.19799805    1.05999994    2.44000006
   18.16972160  129.82899475    1.01999998    2.28999996
   18.17055511  128.65400696    1.00000000    2.26999998
   18.17611122  128.65400696    0.95999998    2.01999998
   18.18027687  144.43600464    0.92000002    1.78999996
   18.18333244  135.37500000    0.89999998    1.61000001
   18.18666649  145.77499390    0.89999998    1.46000004
   18.20416832  145.19099426    0.80000001    0.75000000
   18.20666695  160.61500549    0.79000002    0.70999998
   18.21000099  141.87199402    0.76999998    0.67000002
   18.21305656  125.27600098    0.75000000    0.64999998
   18.21916771  125.27600098    0.75000000    0.67000002
   18.22333336  143.60099792    0.73000002    0.70999998
   18.22638893  139.38499451    0.70999998    0.73000002
   18.22972298  148.98599243    0.69000000    0.76999998
   18.23305511  146.65100098    0.67000002    0.79000002
   18.23611069  132.70799255    0.67000002    0.79000002
   18.23750114  137.72399902    0.67000002    0.79000002
   18.23999977  131.30499268    0.64999998    0.80000001
   18.24305534  134.15499878    0.63000000    0.80000001
   18.24638939  128.60499573    0.63000000    0.80000001
   18.24972153  126.74700165    0.61000001    0.80000001
   18.25277710  134.97200012    0.61000001    0.80000001
   18.25611115  130.12500000    0.58999997    0.80000001
   18.26194382  130.12500000    0.58999997    0.80000001
   18.26611137  143.21400452    0.56999999    0.80000001
   18.26916695  130.61300659    0.56999999    0.79000002
   18.27083397  129.14700317    0.55000001    0.79000002
   18.27305603  127.97100067    0.55000001    0.79000002
   18.27611160  129.06399536    0.55000001    0.79000002
   18.27944374  122.51100159    0.56999999    0.79000002
   18.28277779  130.74000549    0.51999998    0.79000002
   18.28583336  124.15699768    0.52999997    0.79000002
   18.28916550  130.05000305    0.50000000    0.79000002
   18.29249954  132.97900391    0.50000000    0.76999998
   18.29555511  123.74800110    0.50000000    0.76999998
   18.29888916  126.47399902    0.47999999    0.79000002
   18.30472183  126.47399902    0.47999999    0.76999998
   18.30888748  140.11900330    0.46000001    0.76999998
   18.31222153  129.14999390    0.46000001    0.76999998
   18.31527710  128.11700439    0.46000001    0.76999998
   18.31861115  122.86299896    0.44000000    0.76999998
   18.32194519  125.76599884    0.44000000    0.75000000
   18.32500076  133.98500061    0.44000000    0.75000000
   18.32833481  126.74199677    0.41999999    0.75000000
   18.33139038  124.94799805    0.41999999    0.75000000
   18.33472252  125.62500000    0.41999999    0.73000002
   18.33750153  118.11900330    0.41999999    0.73000002
   18.33861160  135.91099548    0.40000001    0.73000002
   18.34166718  117.21099854    0.40000001    0.70999998
   18.34749985  117.21099854    0.40000001    0.69000000
   18.35166740  117.34300232    0.38000000    0.69000000
   18.35499954  117.02300262    0.38000000    0.67000002
   18.35833359  117.28199768    0.38000000    0.67000002
   18.36138916  115.23699951    0.38000000    0.64999998
   18.36472321  124.30000305    0.36000001    0.64999998
   18.36777878  118.86799622    0.36000001    0.64999998
   18.37083435  117.23799896    0.36000001    0.63000000
   18.37166595  112.25000000    0.34000000    0.63000000
   18.37472153  127.66799927    0.34000000    0.63000000
   18.37805557  119.94699860    0.34000000    0.63000000
   18.38138962  130.08500671    0.34000000    0.61000001
   18.38444519  126.41300201    0.31999999    0.61000001
   18.39055634  126.41300201    0.31999999    0.58999997
   18.39472198  116.84999847    0.31999999    0.58999997
   18.39777756  117.00499725    0.31999999    0.56999999
   18.40111160  133.56300354    0.30000001    0.58999997
   18.40416718  140.16200256    0.31999999    0.56999999
   18.40472221  126.35700226    0.30000001    0.56999999
   18.40777779  127.14499664    0.30000001    0.55000001
   18.41110992  131.32600403    0.30000001    0.55000001
   18.41444397  145.13000488    0.30000001    0.55000001
   18.41749954  138.06399536    0.28000000    0.52999997
   18.42083359  126.77500153    0.30000001    0.52999997
   18.42388916  129.46299744    0.28000000    0.52999997
   18.42777634  134.59300232    0.30000001    0.52999997
   18.43333244  134.59300232    0.30000001    0.51999998
   18.43750000  116.28600311    0.31999999    0.51999998
   18.43805504  127.79299927    0.30000001    0.51999998
   18.44111061  132.35099792    0.30000001    0.51999998
   18.44444275  128.52699280    0.28000000    0.51999998
   18.44777679  132.66999817    0.28000000    0.50000000
   18.45083427  131.29800415    0.25999999    0.50000000
   18.45416832  135.03300476    0.25999999    0.50000000
   18.45750046  127.23200226    0.25999999    0.50000000
   18.46055603  129.60899353    0.30000001    0.50000000
   18.46389008  121.88099670    0.31999999    0.47999999
   18.46694565  122.06900024    0.34000000    0.47999999
   18.47027779  129.44599915    0.36000001    0.46000001
   18.47083473  130.84300232    0.38000000    0.46000001
   18.47611237  130.84300232    0.50000000    0.50000000
   18.48027802  124.14800262    0.46000001    0.47999999
   18.48361206  121.00099945    0.44000000    0.50000000
   18.48666763  115.45800018    0.46000001    0.47999999
   18.48999977  126.63700104    0.40000001    0.47999999
   18.49333382  129.46200562    0.36000001    0.47999999
   18.49638939  130.22200012    0.34000000    0.46000001
   18.49972153  131.49299622    0.41999999    0.46000001
   18.50277710  124.44400024    0.44000000    0.47999999
   18.50416756  114.10299683    0.41999999    0.46000001
   18.50666618  129.85600281    0.40000001    0.47999999
   18.50972176  118.09799957    0.34000000    0.47999999
   18.51305580  119.23400116    0.28000000    0.47999999
   18.51888847  119.23400116    0.23000000    0.46000001
   18.52305603  114.32900238    0.25000000    0.46000001
   18.52638817  118.63999939    0.23000000    0.46000001
   18.52972221  122.24099731    0.25000000    0.44000000
   18.53277779  118.57499695    0.25000000    0.44000000
   18.53610992  124.12799835    0.25000000    0.41999999
   18.53750038  118.98500061    0.25999999    0.41999999
   18.53972244  125.94000244    0.25999999    0.44000000
   18.54277802  128.05299377    0.30000001    0.41999999
   18.54611015  126.76899719    0.31999999    0.41999999
   18.54944420  144.34599304    0.36000001    0.40000001
   18.55249977  141.69099426    0.40000001    0.36000001
   18.55583191  166.45599365    0.41999999    0.36000001
   18.56194305  166.45599365    0.52999997    0.34000000
   18.56611061  199.27299500    0.50000000    0.30000001
   18.56916809  167.97799683    0.63000000    0.30000001
   18.57083511  228.03199768    0.73000002    0.30000001
   18.57305717   60.48329926    0.83999997    0.30000001
   18.57611275  148.78500366    1.16999996    0.25999999
   18.57944489   -1.00000000    1.61000001    0.28000000
   18.58277893  147.66200256    1.60000002    0.25999999
   18.58583450  212.01800537    1.64999998    0.25000000
   18.58916664  153.42300415    1.55999994    0.31999999
   18.59250069  191.98100281    1.66999996    0.31999999
   18.59555626  234.27999878    1.86000001    0.28000000
   18.59889030  226.34100342    1.94000006    0.28000000
   18.60472298  226.34100342    1.89999998    0.25000000
   18.60888863   -1.00000000    2.17000008    0.25000000
   18.61194420   -1.00000000    2.21000004    0.23000000
   18.61527824   -1.00000000    2.09999990    0.19000000
   18.61861038   -1.00000000    2.09999990    0.20999999
   18.62166595   88.26570129    1.96000004    0.25000000
   18.62500000   92.59639740    2.01999998    0.25000000
   18.62833405   -1.00000000    1.88000000    0.20999999
   18.63138962  104.34500122    1.71000004    0.23000000
   18.63472176  191.45700073    1.53999996    0.23000000
   18.63750076  217.32200623    1.38000000    0.25999999
   18.63833237  214.84100342    1.26999998    0.25999999
   18.64138794  195.13999939    1.21000004    0.25999999
   18.64749908  195.13999939    1.30999994    0.25000000
   18.65166664  173.91999817    1.30999994    0.25000000
   18.65499878  228.16799927    1.16999996    0.25000000
   18.65805435   60.35120010    0.95999998    0.20999999
   18.66138840  158.95300293    0.92000002    0.19000000
   18.66472244  132.24800110    0.89999998    0.19000000
   18.66777802  267.32800293    0.80000001    0.23000000
   18.67083359  145.99099731    0.79000002    0.25000000
   18.67138863  152.37699890    0.75000000    0.25000000
   18.67444420  156.58799744    0.67000002    0.23000000
   18.67777634  128.71499634    0.50000000    0.23000000
   18.68111038  234.24699402    0.50000000    0.25000000
   18.68416595  190.50599670    0.52999997    0.19000000
   18.69027710  190.50599670    0.70999998    0.19000000
   18.69444275  185.94799805    0.79000002    0.20999999
   18.69777679  289.69400024    0.80000001    0.19000000
   18.70111275  181.72999573    0.70999998    0.19000000
   18.70416832  162.08900452    0.73000002    0.19000000
   18.70472336  151.42999268    0.73000002    0.19000000
   18.70777893  181.59899902    0.67000002    0.19000000
   18.71111107  163.38699341    0.70999998    0.19000000
   18.71444511  345.92800903    0.73000002    0.19000000
   18.71750069  338.24499512    0.76999998    0.17000000
   18.72083473  251.03399658    0.69000000    0.17000000
   18.72416687  204.79600525    0.58999997    0.17000000
   18.72722244  216.83500671    0.55000001    0.17000000
   18.73333359  216.83500671    0.64999998    0.11000000
   18.73722267   -1.00000000    0.76999998    0.09000000
   18.74111176   -1.00000000    0.64999998    0.09000000
   18.74416733   -1.00000000    0.51999998    0.09000000
   18.74749947   -1.00000000    0.51999998    0.11000000
   18.75083351  104.28900146    0.40000001    0.09000000
   18.75388908   -1.00000000    0.40000001    0.09000000
   18.75722313   -1.00000000    0.36000001    0.11000000
   18.76027870   -1.00000000    0.36000001    0.07000000
   18.76361084  260.37701416    0.40000001    0.09000000
   18.76694489   -1.00000000    0.40000001    0.07000000
   18.77000046   -1.00000000    0.31999999    0.09000000
   18.77611160   -1.00000000    0.25000000    0.11000000
   18.78027725  151.63099670    0.17000000    0.13000000
   18.78333282  149.48899841    0.19000000    0.13000000
   18.78666687  134.65600586    0.19000000    0.13000000
   18.78999901  177.99499512    0.15000001    0.11000000
   18.79305458  163.92100525    0.15000001    0.09000000
   18.79638863  130.01699829    0.15000001    0.11000000
   18.79972076  178.94000244    0.15000001    0.11000000
   18.80277634  152.68499756    0.15000001    0.11000000
   18.80444336  149.05799866    0.15000001    0.09000000
   18.80638885  123.52300262    0.17000000    0.09000000
   18.80972099  154.08999634    0.19000000    0.09000000
   18.81277657  126.94100189    0.20999999    0.09000000
   18.81888962  126.94100189    0.20999999    0.09000000
   18.82305717  192.39199829    0.19000000    0.05000000
   18.82638931  129.12399292    0.17000000    0.09000000
   18.82944489  141.35299683    0.15000001    0.09000000
   18.83277893  132.21499634    0.15000001    0.09000000
   18.83583450  207.76699829    0.13000000    0.05000000
   18.83777809  211.01400757    0.15000001    0.05000000
   18.83972359  162.92300415    0.13000000    0.05000000
   18.84305573  187.05799866    0.13000000    0.05000000
   18.84611130  161.26899719    0.13000000    0.05000000
   18.84944534  168.35699463    0.13000000    0.05000000
   18.85277748  133.57400513    0.13000000    0.07000000
   18.85583305  127.06900024    0.13000000    0.07000000
   18.86166763  127.06900024    0.11000000    0.05000000
   18.86583328  126.29699707    0.13000000    0.07000000
   18.86916733  121.28900146    0.13000000    0.05000000
   18.87111092  139.68800354    0.13000000    0.05000000
   18.87277794  124.44799805    0.13000000    0.05000000
   18.87611198  118.31199646    0.11000000    0.05000000
   18.87916756  122.23500061    0.11000000    0.05000000
   18.88249969  129.77900696    0.13000000    0.05000000
   18.88583374  116.13099670    0.11000000    0.05000000
   18.88888931  115.78399658    0.11000000    0.05000000
   18.89222145  128.20700073    0.11000000    0.05000000
   18.89527702  113.65000153    0.11000000    0.05000000
   18.89861107  119.15499878    0.11000000    0.05000000
   18.90472221  119.15499878    0.11000000    0.03000000
   18.90861130  134.23599243    0.11000000    0.03000000
   18.91194344  116.20300293    0.11000000    0.03000000
   18.91527748  126.18499756    0.11000000    0.03000000
   18.91833305  123.05599976    0.11000000    0.03000000
   18.92166519  133.49099731    0.11000000    0.03000000
   18.92499924  130.11300659    0.11000000    0.03000000
   18.92805481  120.67199707    0.11000000    0.03000000
   18.93138885  122.77600098    0.11000000    0.03000000
   18.93444443  115.52400208    0.11000000    0.03000000
   18.93777657  122.84100342    0.11000000    0.03000000
   18.93833160  119.99400330    0.11000000    0.03000000
   18.94166565  127.29299927    0.11000000    0.03000000
   18.94749832  127.29299927    0.11000000    0.03000000
   18.95166779  124.17099762    0.09000000    0.01000000
   18.95472336  119.06700134    0.09000000    0.01000000
   18.95805550  125.01000214    0.09000000    0.01000000
   18.96138954  122.27600098    0.09000000    0.01000000
   18.96444511  118.71700287    0.09000000    0.01000000
   18.96777916  124.08699799    0.09000000    0.01000000
   18.97083473  125.13200378    0.09000000    0.01000000
   18.97166634  119.19999695    0.11000000    0.01000000
   18.97472191  125.73300171    0.11000000    0.01000000
   18.97777748  114.59100342    0.09000000    0.01000000
   18.98111153  111.74800110    0.09000000    0.01000000
   18.98444557  118.38099670    0.09000000    0.01000000
   18.99027824  118.38099670    0.09000000    0.01000000
   18.99444389  125.54499817    0.09000000    0.01000000
   18.99777794  115.89299774    0.09000000    0.01000000
   19.00083351  124.29900360    0.09000000    0.01000000
   19.00416756  121.85500336    0.09000000    0.01000000
   19.00499916  118.19599915    0.09000000    0.01000000
   19.00777817  122.62999725    0.09000000    0.01000000
   19.01083374  124.99099731    0.09000000    0.01000000
   19.01416588  118.96399689    0.09000000    0.01000000
   19.01749992  124.42500305    0.09000000    0.01000000
   19.02055550  117.33000183    0.09000000    0.01000000
   19.02388954  131.10000610    0.09000000    0.01000000
   19.02694511  121.36900330    0.09000000    0.01000000
   19.03305435  121.36900330    0.09000000    0.01000000
   19.03722191  126.13099670    0.09000000    0.01000000
   19.03833199  114.92800140    0.09000000    0.01000000
   19.04111099  122.23999786    0.09000000    0.01000000
   19.04416656  118.45099640    0.09000000    0.01000000
   19.04749870  135.09300232    0.09000000    0.01000000
   19.05083275  122.08799744    0.09000000    0.01000000
   19.05388832  122.24600220    0.09000000    0.01000000
   19.05722237  129.44799805    0.09000000    0.01000000
   19.06027794  120.60199738    0.09000000    0.01000000
   19.06361008  127.60299683    0.09000000    0.01000000
   19.06694603  129.56900024    0.09000000    0.01000000
   19.07000160  130.36099243    0.09000000    0.01000000
   19.07166672  126.33399963    0.09000000    0.01000000
   19.07611275  126.33399963    0.09000000    0.01000000
   19.08000183  128.48199463    0.07000000    0.01000000
   19.08333397  141.69299316    0.07000000    0.01000000
   19.08666801  127.44400024    0.07000000    0.01000000
   19.08972359  129.66299438    0.07000000    0.01000000
   19.09305573  125.12000275    0.07000000    0.01000000
   19.09638977  133.13499451    0.07000000    0.01000000
   19.09944534  121.76599884    0.07000000    0.01000000
   19.10277748  128.23399353    0.07000000    0.01000000
   19.10499954  130.51199341    0.07000000    0.01000000
   19.10639000  115.98400116    0.07000000    0.01000000
   19.10944557  122.12699890    0.07000000    0.01000000
   19.11277771  124.05699921    0.07000000    0.01000000
   19.11888885  124.05699921    0.07000000    0.01000000
   19.12305641  127.93000031    0.07000000    0.01000000
   19.12611198  131.53599548    0.07000000    0.01000000
   19.12944412  123.41999817    0.07000000    0.01000000
   19.13277817  130.33700562    0.07000000    0.01000000
   19.13583374  126.50900269    0.07000000    0.01000000
   19.13833237  127.84400177    0.07000000    0.01000000
   19.13972282  121.74600220    0.07000000    0.01000000
   19.14277840  123.12599945    0.07000000    0.01000000
   19.14611053  133.75700378    0.07000000    0.01000000
   19.14944458  134.19400024    0.07000000    0.01000000
   19.15250015  127.06199646    0.07000000    0.01000000
   19.15583229  121.12000275    0.07000000    0.01000000
   19.16166687  121.12000275    0.07000000    0.01000000
   19.16583252  128.05499268    0.07000000    0.01000000
   19.16916656  124.99700165    0.07000000    0.01000000
   19.17166519  133.99600220    0.07000000    0.01000000
   19.17277718  129.71299744    0.07000000    0.01000000
   19.17583275  122.89299774    0.07000000    0.01000000
   19.17916679  133.34800720    0.07000000    0.01000000
   19.18249893  123.32199860    0.07000000    0.01000000
   19.18555450  128.94200134    0.07000000    0.01000000
   19.18888855  128.83000183    0.07000000    0.01000000
   19.19194412  134.84100342    0.07000000    0.01000000
   19.19527626  129.99200439    0.07000000    0.01000000
   19.19861031  132.70700073    0.07000000    0.01000000
   19.20444489  132.70700073    0.07000000    0.01000000
   19.22305679  143.62199402    0.07000000    0.01000000
   19.22611237  134.19500732    0.07000000    0.01000000
   19.22944450  133.59300232    0.07000000    0.01000000
   19.23250008  133.65199280    0.07000000    0.01000000
   19.23583412  130.61700439    0.07000000    0.01000000
   19.23916626  128.34700012    0.07000000    0.01000000
   19.24222183  128.43699646    0.07000000    0.01000000
   19.24777794  128.43699646    0.07000000    0.01000000
   19.25166702  131.58900452    0.07000000    0.01000000
   19.25499916  126.62000275    0.07000000    0.01000000
   19.25611115  130.65699768    0.07000000    0.01000000
   19.25861168  117.23500061    0.07000000    0.01000000
   19.26194382  129.85200500    0.07000000    0.01000000
   19.26499939  120.09300232    0.07000000    0.01000000
   19.26833344  122.36499786    0.07000000    0.01000000
   19.27166557  130.56599426    0.07000000    0.01000000
   19.27472115  121.37799835    0.07000000    0.01000000
   19.27805519  126.25700378    0.07000000    0.01000000
   19.28138924  120.87599945    0.07000000    0.01000000
   19.28444481  119.87200165    0.07000000    0.01000000
   19.29055595  119.87200165    0.07000000    0.01000000
   19.29472160  124.66500092    0.07000000    0.01000000
   19.29777718  118.70899963    0.07000000    0.01000000
   19.30111122  120.91300201    0.07000000    0.01000000
   19.30416679  121.73799896    0.07000000    0.01000000
   19.30749893  124.94300079    0.07000000    0.01000000
   19.31083298  135.80000305    0.07000000    0.01000000
   19.31388855  129.11700439    0.07000000    0.01000000
   19.31722260  137.94900513    0.07000000    0.01000000
   19.32055664  126.27500153    0.07000000    0.01000000
   19.32277870  131.08500671    0.07000000    0.01000000
   19.32389069  124.84400177    0.07000000    0.01000000
   19.32722282  110.85700226    0.07000000    0.01000000
   19.33333397  110.85700226    0.07000000    0.01000000
   19.33750153  121.47799683    0.07000000    0.01000000
   19.34055710  134.28100586    0.07000000    0.01000000
   19.34388924  129.91900635    0.07000000    0.01000000
   19.34722328  143.13699341    0.07000000    0.01000000
   19.35027885  129.91000366    0.07000000    0.01000000
   19.35361099  137.18299866    0.07000000    0.01000000
   19.35611153  142.41400146    0.07000000    0.01000000
   19.35722351  141.90499878    0.07000000    0.01000000
   19.36055565  138.35099792    0.07000000    0.01000000
   19.36361122  150.13800049    0.07000000    0.01000000
   19.36694527  136.25599670    0.07000000    0.01000000
   19.37027740  131.50000000    0.07000000    0.01000000
   19.37611198  131.50000000    0.07000000    0.01000000
   19.38027763  118.39700317    0.07000000    0.01000000
   19.38361168  124.43000031    0.07000000    0.01000000
   19.38666725  148.87399292    0.07000000    0.01000000
   19.38944435  128.04100037    0.07000000    0.01000000
   19.39027786  120.26499939    0.07000000    0.01000000
   19.39361191  134.23500061    0.07000000    0.01000000
   19.39694405  130.22500610    0.07000000    0.01000000
   19.39999962  139.56399536    0.07000000    0.01000000
   19.40333366  136.62600708    0.07000000    0.01000000
   19.40638924  135.90299988    0.07000000    0.01000000
   19.40972137  126.26200104    0.07000000    0.01000000
   19.41305542  135.94900513    0.07000000    0.01000000
   19.41888809  135.94900513    0.07000000    0.01000000
   19.42305565  127.22499847    0.07000000    0.01000000
   19.42638779  135.63299561    0.07000000    0.01000000
   19.42972183  123.68599701    0.07000000    0.01000000
   19.43277740  122.54199982    0.07000000    0.01000000
   19.43610954  123.30200195    0.07000000    0.01000000
   19.43916512  135.95500183    0.07000000    0.01000000
   19.44249916  138.55999756    0.07000000    0.01000000
   19.44583321  124.19100189    0.07000000    0.01000000
   19.44888878  129.21800232    0.07000000    0.01000000
   19.45222282  123.30200195    0.07000000    0.01000000
   19.45555687  142.56799316    0.07000000    0.01000000
   19.45611191  122.46900177    0.07000000    0.01000000
   19.46194458  122.46900177    0.07000000    0.01000000
   19.46611214  117.45800018    0.07000000    0.01000000
   19.46916771  138.91000366    0.07000000    0.01000000
   19.47249985  137.50199890    0.07000000    0.01000000
   19.47583389  141.86999512    0.07000000    0.01000000
   19.47888947  128.06700134    0.07000000    0.01000000
   19.48222351  129.79499817    0.07000000    0.01000000
   19.48555565  139.87100220    0.07000000    0.01000000
   19.48861122  132.41000366    0.07000000    0.01000000
   19.48944473  130.93699646    0.07000000    0.01000000
   19.49222183  130.89599609    0.07000000    0.01000000
   19.49555588  138.99800110    0.07000000    0.01000000
   19.49888992  131.65100098    0.07000000    0.01000000
   19.50472260  131.65100098    0.07000000    0.01000000
   19.50888824  126.39900208    0.07000000    0.01000000
   19.51194382  127.04900360    0.07000000    0.01000000
   19.51527786  133.52699280    0.07000000    0.01000000
   19.51861000  138.56100464    0.07000000    0.01000000
   19.52166557  132.55599976    0.07000000    0.01000000
   19.52277756  138.82800293    0.07000000    0.01000000
   19.52527809  138.97900391    0.07000000    0.01000000
   19.52861023  130.85600281    0.07000000    0.01000000
   19.53194427  132.62899780    0.07000000    0.01000000
   19.53499985  125.77899933    0.07000000    0.01000000
   19.53833199  127.65100098    0.07000000    0.01000000
   19.54138756  139.38900757    0.07000000    0.01000000
   19.54749870  139.38900757    0.07000000    0.01000000
   19.55166626  132.16799927    0.07000000    0.01000000
   19.55499840  132.30900574    0.07000000    0.01000000
   19.55611038  125.93499756    0.07000000    0.01000000
   19.55833244  126.95600128    0.07000000    0.01000000
   19.56166649  130.05000305    0.07000000    0.01000000
   19.56499863  134.84899902    0.07000000    0.01000000
   19.56805611  134.93299866    0.07000000    0.01000000
   19.57139015  144.89399719    0.07000000    0.01000000
   19.57444572  134.80900574    0.07000000    0.01000000
   19.57777786  146.93800354    0.07000000    0.01000000
   19.58111191  138.83399963    0.07000000    0.01000000
   19.58416748  147.20500183    0.07000000    0.01000000
   19.59055710  147.20500183    0.07000000    0.01000000
   19.59444427  144.87399292    0.07000000    0.01000000
   19.59777832  131.93400574    0.07000000    0.01000000
   19.60111237  146.98199463    0.07000000    0.01000000
   19.60416794  141.78399658    0.07000000    0.01000000
   19.60750008  137.11500549    0.07000000    0.01000000
   19.61083412  127.05799866    0.07000000    0.01000000
   19.61388969  140.81599426    0.07000000    0.01000000
   19.61722183  129.63699341    0.07000000    0.01000000
   19.62027740  123.80599976    0.07000000    0.01000000
   19.62277794  134.97500610    0.07000000    0.01000000
   19.62388992  140.61799622    0.07000000    0.01000000
   19.62722206  147.37399292    0.07000000    0.01000000
   19.63333321  147.37399292    0.07000000    0.01000000
   19.63750076  138.75000000    0.07000000    0.01000000
   19.64055634  139.55799866    0.07000000    0.01000000
   19.64388847  130.20199585    0.07000000    0.01000000
   19.64722252  134.17900085    0.07000000    0.01000000
   19.65027809  136.98300171    0.07000000    0.01000000
   19.65361023  129.36300659    0.07000000    0.01000000
   19.65611076  132.72399902    0.07000000    0.01000000
   19.65722275  147.48300171    0.07000000    0.01000000
   19.66055489  119.43499756    0.07000000    0.01000000
   19.66388893  122.85299683    0.07000000    0.01000000
   19.66694450  121.51999664    0.07000000    0.01000000
   19.67027664  122.33899689    0.07000000    0.01000000
   19.67611122  122.33899689    0.07000000    0.01000000
   19.68027687  138.87100220    0.07000000    0.01000000
   19.68333244  133.83299255    0.07000000    0.01000000
   19.68666649  132.55599976    0.07000000    0.01000000
   19.68944359  136.22500610    0.07000000    0.01000000
   19.69027710  136.78199768    0.07000000    0.01000000
   19.69361115  140.34199524    0.07000000    0.01000000
   19.69694328  139.51300049    0.07000000    0.01000000
   19.70000076  148.06799316    0.07000000    0.01000000
   19.70333481  150.98699951    0.07000000    0.01000000
   19.70639038  143.69500732    0.07000000    0.01000000
   19.70972252  144.60400391    0.07000000    0.01000000
   19.71305656  158.83399963    0.07000000    0.01000000
   19.71888924  158.83399963    0.07000000    0.01000000
   19.72305679  136.46200562    0.07000000    0.01000000
   19.72638893  142.14799500    0.07000000    0.01000000
   19.72972298  142.85000610    0.07000000    0.01000000
   19.73277855  139.26199341    0.07000000    0.01000000
   19.73611069  170.43200684    0.07000000    0.01000000
   19.73916626  147.51899719    0.07000000    0.01000000
   19.74250031  151.26100159    0.07000000    0.01000000
   19.74583435  141.84199524    0.07000000    0.01000000
   19.74888992  136.95100403    0.07000000    0.01000000
   19.75222206  139.45199585    0.07000000    0.01000000
   19.75555611  157.74899292    0.07000000    0.01000000
   19.75611115  137.51400757    0.07000000    0.01000000
   19.76166725  137.51400757    0.07000000    0.01000000
   19.76583290  137.87199402    0.07000000    0.01000000
   19.76916695  124.79399872    0.07000000    0.01000000
   19.77249908  141.24499512    0.07000000    0.01000000
   19.77555466  138.69900513    0.07000000    0.01000000
   19.77888870  140.35099792    0.07000000    0.01000000
   19.78194427  145.31300354    0.07000000    0.01000000
   19.78527641  147.47000122    0.07000000    0.01000000
   19.78861046  152.38800049    0.07000000    0.01000000
   19.78944397  135.62800598    0.07000000    0.01000000
   19.79194450  147.01499939    0.07000000    0.01000000
   19.79527664  137.53900146    0.07000000    0.01000000
   19.79861069  147.58200073    0.07000000    0.01000000
   19.80472183  147.58200073    0.07000000    0.01000000
   19.80888748  153.51899719    0.07000000    0.01000000
   19.81194305  116.48799896    0.07000000    0.01000000
   19.81527710  200.87100220    0.07000000    0.01000000
   19.81833458  244.10899353    0.07000000    0.01000000
   19.82166672   61.19449997    0.07000000    0.01000000
   19.82277870   -1.00000000   -1.00000000   -1.00000000
   19.82527924   -1.00000000    0.07000000    0.01000000
   19.82861137   -1.00000000    0.07000000    0.01000000
   19.83194542   -1.00000000    0.07000000    0.01000000
   19.83500099   -1.00000000    0.07000000    0.01000000
   19.83833313   -1.00000000    0.07000000    0.01000000
   19.84166718   -1.00000000    0.07000000    0.01000000
   19.85138893   -1.00000000    0.07000000    0.01000000
   19.85472298   -1.00000000    0.07000000    0.01000000
   19.85833359   -1.00000000    0.07000000    0.01000000
   19.86166763   -1.00000000    0.07000000    0.01000000
   19.86472321   -1.00000000    0.07000000    0.01000000
   19.86805534   -1.00000000    0.07000000    0.01000000
   19.87138939   -1.00000000    0.07000000    0.01000000
   19.87472153   -1.00000000    0.07000000    0.01000000
   19.87805557   -1.00000000    0.07000000    0.01000000
   19.88138962   -1.00000000    0.07000000    0.01000000
   19.88444519   -1.00000000    0.07000000    0.01000000
   19.89444351   -1.00000000    0.07000000    0.01000000
   19.89749908   -1.00000000    0.07000000    0.01000000
   19.90083313   -1.00000000    0.07000000    0.01000000
   19.90416718   -1.00000000    0.07000000    0.01000000
   19.90722275   -1.00000000    0.07000000    0.01000000
   19.91055489   -1.00000000    0.07000000    0.01000000
