    HOUR (UT)   FLARE FACTOR    SKY TESTER    SUN TESTER
   12.09416676   -1.00000000   -1.00000000   -1.00000000
   12.11805534  316.23001099    4.90999985    1.94000006
   12.12138939  318.65399170    4.90999985    1.94000006
   12.12444496  334.61199951    4.90999985    1.94000006
   12.12777805  337.95599365    4.90999985    1.94000006
   12.13111115  328.74398804    4.90999985    1.91999996
   12.13416672  361.41400146    4.90999985    1.91999996
   12.13638878  407.03298950    4.90999985    1.91999996
   12.13749981  364.10598755    4.90999985    1.91999996
   12.13888836  352.44100952    4.90999985    1.91999996
   12.14027786  387.69400024    4.90999985    1.91999996
   12.14166641  323.27398682    4.90999985    1.91999996
   12.14305496  353.02099609    4.90999985    1.89999998
   12.14444447  328.42498779    4.90999985    1.91999996
   12.14583302  311.46200562    4.90999985    1.91999996
   12.14722252  341.82998657    4.90999985    1.91999996
   12.14861107  319.78900146    4.90999985    1.91999996
   12.14999962  323.81201172    4.90999985    1.91999996
   12.15138817  344.07998657    4.90999985    1.91999996
   12.15277767  377.65200806    4.90999985    1.91999996
   12.15416622  342.60598755    4.90999985    1.91999996
   12.15555477  381.09399414    4.90999985    1.89999998
   12.15694427  393.64498901    4.90999985    1.89999998
   12.15833282  426.50100708    4.90999985    1.89999998
   12.15972137  415.65399170    4.90999985    1.89999998
   12.16111088  404.87100220    4.90999985    1.88000000
   12.16249943  340.39599609    4.90999985    1.89999998
   12.16388893  354.11599731    4.90999985    1.89999998
   12.16527748  369.65600586    4.90999985    1.89999998
   12.16666698  345.16299438    4.90999985    1.89999998
   12.16805553  335.45901489    4.90999985    1.91999996
   12.16944504  304.92199707    4.90999985    1.91999996
   12.17083359  300.16000366    4.90999985    1.94000006
   12.17222214  324.43200684    4.90999985    1.94000006
   12.17361164  291.24899292    4.90999985    1.94000006
   12.17388916  318.65399170    4.90999985    1.94000006
   12.17388916  334.61199951    4.90999985    1.94000006
   12.17388916  337.95599365    4.90999985    1.94000006
   12.17416668  328.74398804    4.90999985    1.91999996
   12.17416668  361.41400146    4.90999985    1.91999996
   12.17472267  279.47698975    4.90999985    1.94000006
   12.17805576  312.76901245    4.90999985    1.96000004
   12.18111134  286.06698608    4.90999985    1.96000004
   12.18444443  320.62600708    4.90999985    1.98000002
   12.18777752  324.54000854    4.90999985    1.96000004
   12.19444466  324.54000854    4.90999985    1.96000004
   12.19861126  343.53500366    4.90999985    1.96000004
   12.20194435  354.06900024    4.90999985    1.94000006
   12.20388889  322.97000122    4.90999985    1.94000006
   12.20527744  359.23699951    4.90999985    1.94000006
   12.20666695  343.31500244    4.90999985    1.94000006
   12.20805550  353.75900269    4.90999985    1.91999996
   12.20944405  358.29800415    4.90999985    1.91999996
   12.21083355  347.71600342    4.90999985    1.91999996
   12.21222210  403.57299805    4.90999985    1.91999996
   12.21361065  388.01098633    4.90999985    1.91999996
   12.21500015  429.05398560    4.90999985    1.91999996
   12.21638870  437.85101318    4.90999985    1.91999996
   12.21777725  353.27099609    4.90999985    1.91999996
   12.21916580  373.06900024    4.90999985    1.91999996
   12.22055531  373.49398804    4.90999985    1.91999996
   12.22194386  360.79000854    4.90999985    1.91999996
   12.22333336  341.12799072    4.90999985    1.91999996
   12.22472191  357.78201294    4.90999985    1.91999996
   12.22611046  406.66299438    4.90999985    1.91999996
   12.22749996  461.51300049    4.90999985    1.91999996
   12.22888851  523.33801270    4.90999985    1.89999998
   12.23027706  466.27301025    4.90999985    1.91999996
   12.23166656  402.14700317    4.90999985    1.91999996
   12.23305511  384.07199097    4.90999985    1.91999996
   12.23444462  341.55599976    4.90999985    1.91999996
   12.23583317  323.72299194    4.90999985    1.91999996
   12.23722267  362.02398682    4.90999985    1.91999996
   12.23861122  377.66699219    4.90999985    1.91999996
   12.24000072  409.66101074    4.90999985    1.89999998
   12.24138927  346.31399536    4.90999985    1.89999998
   12.24277782  376.56698608    4.90999985    1.89999998
   12.24416733  437.90899658    4.90999985    1.88000000
   12.24555588  439.26098633    4.90999985    1.89999998
   12.24694443  401.51599121    4.90999985    1.88000000
   12.24833393  400.10800171    4.90999985    1.86000001
   12.24972248  398.52200317    4.90999985    1.86000001
   12.25111103  362.36801147    4.90999985    1.85000002
   12.25249958  313.92898560    4.90999985    1.85000002
   12.25388908  244.20399475    4.90999985    1.85000002
   12.25388908  279.47698975    4.90999985    1.94000006
   12.25388908  312.76901245    4.90999985    1.96000004
   12.25416660  286.06698608    4.90999985    1.96000004
   12.25416660  320.62600708    4.90999985    1.98000002
   12.25416660  324.54000854    4.90999985    1.96000004
   12.25444412  343.53500366    4.90999985    1.96000004
   12.25444412  354.06900024    4.90999985    1.94000006
   12.25500011  258.91699219    4.90999985    1.85000002
   12.25833321  336.72500610    4.90999985    1.83000004
   12.26138878  340.94500732    4.90999985    1.83000004
   12.26472187  375.52398682    4.90999985    1.85000002
   12.26666641  397.58599854    4.90999985    1.85000002
   12.26805496  395.92300415    4.90999985    1.85000002
   12.26944447  361.08499146    4.90999985    1.85000002
   12.27083302  369.51599121    4.90999985    1.85000002
   12.27222157  403.75399780    4.90999985    1.85000002
   12.27361107  428.37600708    4.90999985    1.86000001
   12.27499962  410.85900879    4.90999985    1.86000001
   12.27638817  341.30801392    4.90999985    1.86000001
   12.27777767  262.91000366    4.90999985    1.86000001
   12.27777767  258.91699219    4.90999985    1.85000002
   12.27805519  336.72500610    4.90999985    1.83000004
   12.27805519  340.94500732    4.90999985    1.83000004
   12.27805519  375.52398682    4.90999985    1.85000002
   12.27861118  303.73098755    4.90999985    1.86000001
   12.28194427  246.41299438    4.90999985    1.86000001
   12.28527832  269.27301025    4.90999985    1.88000000
   12.28833389  265.85800171    4.90999985    1.89999998
   12.29166698  292.85400391    4.90999985    1.89999998
   12.29472256  335.13299561    4.90999985    1.91999996
   12.29888916  335.13299561    4.90999985    1.96000004
   12.30305576  263.62399292    4.90999985    2.00000000
   12.30638885  292.29299927    4.90999985    2.00000000
   12.30944443  300.43798828    4.90999985    2.00000000
   12.31166649  331.59399414    4.90999985    2.00000000
   12.31333351  326.49798584    4.90999985    1.98000002
   12.31638908  399.00299072    4.90999985    1.98000002
   12.31861115  315.23901367    4.90999985    1.98000002
   12.31972218  320.45098877    4.90999985    1.96000004
   12.32111073  313.06900024    4.90999985    1.96000004
   12.32250023  284.21798706    4.90999985    1.96000004
   12.32277775  326.49798584    4.90999985    1.98000002
   12.32277775  399.00299072    4.90999985    1.98000002
   12.32277775  269.27301025    4.90999985    1.88000000
   12.32305527  265.85800171    4.90999985    1.89999998
   12.32305527  292.85400391    4.90999985    1.89999998
   12.32305527  335.13299561    4.90999985    1.91999996
   12.32333374  263.62399292    4.90999985    2.00000000
   12.32333374  292.29299927    4.90999985    2.00000000
   12.32333374  300.43798828    4.90999985    2.00000000
   12.32416630  308.08200073    4.90999985    1.94000006
   12.32722187  294.98199463    4.90999985    1.96000004
   12.33055592  228.14999390    4.90999985    1.96000004
   12.33361053  274.06298828    4.90999985    1.98000002
   12.33694458  234.75300598    4.90999985    2.03999996
   12.34333324  234.75300598    4.90999985    2.09999990
   12.34749985  217.67100525    4.90999985    2.13000011
   12.35083389  209.58500671    4.90999985    2.13000011
   12.35388947  253.75500488    4.90999985    2.11999989
   12.35638905  236.38400269    4.90999985    2.09999990
   12.35777855  285.43701172    4.90999985    2.09999990
   12.36083412  250.12399292    4.90999985    2.07999992
   12.36416721  277.43798828    4.90999985    2.05999994
   12.36750031  288.78601074    4.90999985    2.05999994
   12.37055588  286.42999268    4.90999985    2.07999992
   12.37388897  245.92100525    4.90999985    2.07999992
   12.37722206  240.74200439    4.90999985    2.09999990
   12.38027763  252.53199768    4.90999985    2.11999989
   12.38611126  252.53199768    4.90999985    2.11999989
   12.39027786  255.17799377    4.90999985    2.09999990
   12.39361095  257.90899658    4.90999985    2.09999990
   12.39694405  265.75299072    4.90999985    2.07999992
   12.40027714  257.59600830    4.90999985    2.07999992
   12.40333271  268.04098511    4.90999985    2.07999992
   12.40666676  242.48899841    4.90999985    2.07999992
   12.40972137  240.62699890    4.90999985    2.07999992
   12.41305542  258.27801514    4.90999985    2.09999990
   12.41638851  255.98800659    4.90999985    2.09999990
   12.41944504  257.68200684    4.90999985    2.09999990
   12.42277813  227.15199280    4.90999985    2.11999989
   12.42333412  212.44099426    4.90999985    2.11999989
   12.42916679  212.44099426    4.90999985    2.15000010
   12.43333340  186.00599670    4.90999985    2.19000006
   12.43638897  195.09800720    4.90999985    2.21000004
   12.43972206  208.55900574    4.90999985    2.21000004
   12.44277763  200.13000488    4.90999985    2.21000004
   12.44611073  219.03700256    4.90999985    2.21000004
   12.44944477  215.32899475    4.90999985    2.21000004
   12.45249939  218.45700073    4.90999985    2.21000004
   12.45583344  212.08700562    4.90999985    2.21000004
   12.45666695  213.68400574    4.90999985    2.19000006
   12.45944405  195.72599792    4.90999985    2.21000004
   12.46249962  191.32699585    4.90999985    2.21000004
   12.46583271  211.20399475    4.90999985    2.21000004
   12.47194386  211.20399475    4.90999985    2.21000004
   12.47611046  210.62699890    4.90999985    2.23000002
   12.47916603  201.13999939    4.90999985    2.21000004
   12.48249912  199.97200012    4.90999985    2.21000004
   12.48583317  207.81900024    4.90999985    2.23000002
   12.48888874  213.26600647    4.90999985    2.23000002
   12.49000072  188.32800293    4.90999985    2.23000002
   12.49277782  191.31599426    4.90999985    2.23000002
   12.49583340  188.67999268    4.90999985    2.25000000
   12.49916649  189.05499268    4.90999985    2.25000000
   12.50249958  198.66900635    4.90999985    2.26999998
   12.50555515  198.54600525    4.90999985    2.26999998
   12.50888920  194.65400696    4.90999985    2.25000000
   12.51472187  194.65400696    4.90999985    2.25000000
   12.51888847  206.00900269    4.90999985    2.25000000
   12.52222157  185.31599426    4.90999985    2.25000000
   12.52333355  190.22700500    4.90999985    2.25000000
   12.52583313  179.80200195    4.90999985    2.26999998
   12.52888870  187.33900452    4.90999985    2.26999998
   12.53222179  194.55000305    4.90999985    2.26999998
   12.53527832  175.51600647    4.90999985    2.26999998
   12.53861141  191.02200317    4.90999985    2.28999996
   12.54194450  189.92900085    4.90999985    2.28999996
   12.54500008  185.17799377    4.90999985    2.28999996
   12.54833412  185.18600464    4.90999985    2.28999996
   12.55166721  169.88900757    4.90999985    2.28999996
   12.55777836  169.88900757    4.90999985    2.28999996
   12.56166649  182.86799622    4.90999985    2.28999996
   12.56500053  178.67900085    4.90999985    2.30999994
   12.56833363  188.14300537    4.90999985    2.30999994
   12.57138920  188.83200073    4.90999985    2.28999996
   12.57472229  197.94999695    4.90999985    2.28999996
   12.57805538  178.46800232    4.90999985    2.30999994
   12.58111095  181.41900635    4.90999985    2.30999994
   12.58444405  180.42100525    4.90999985    2.30999994
   12.58749962  197.22099304    4.90999985    2.30999994
   12.59000015  190.62100220    4.90999985    2.30999994
   12.59138870  195.24000549    4.90999985    2.28999996
   12.59444427  196.06900024    4.90999985    2.30999994
   12.60055637  196.06900024    4.90999985    2.30999994
   12.60472298  174.32699585    4.90999985    2.30999994
   12.60777855  170.91700745    4.90999985    2.30999994
   12.61111164  175.11399841    4.90999985    2.30999994
   12.61416721  181.91000366    4.90999985    2.30999994
   12.61750031  187.57899475    4.90999985    2.30999994
   12.62083340  172.58599854    4.90999985    2.32999992
   12.62333393  175.01899719    4.90999985    2.30999994
   12.62444496  189.11199951    4.90999985    2.32999992
   12.62750053  181.75999451    4.90999985    2.32999992
   12.63083363  190.04499817    4.90999985    2.32999992
   12.63388920  170.32899475    4.90999985    2.30999994
   12.63722229  183.80099487    4.90999985    2.30999994
   12.64333344  183.80099487    4.90999985    2.28999996
   12.64750004  180.14599609    4.90999985    2.30999994
   12.65055561  168.14300537    4.90999985    2.30999994
   12.65388870  188.33999634    4.90999985    2.32999992
   12.65666676  186.59700012    4.90999985    2.32999992
   12.65777779  164.67599487    4.90999985    2.32999992
   12.66083336  169.89700317    4.90999985    2.34999990
   12.66416645  171.53399658    4.90999985    2.34999990
   12.66722298  184.31399536    4.90999985    2.34999990
   12.67055607  182.05499268    4.90999985    2.34999990
   12.67388916  178.81399536    4.90999985    2.34999990
   12.67694473  177.85899353    4.90999985    2.34999990
   12.68027782  180.43699646    4.90999985    2.34999990
   12.68611145  180.43699646    4.90999985    2.34999990
   12.69027805  171.67599487    4.90999985    2.34999990
   12.69361115  167.17199707    4.90999985    2.34999990
   12.69666672  172.47700500    4.90999985    2.32999992
   12.69999981  163.93800354    4.90999985    2.32999992
   12.70333290  178.02200317    4.90999985    2.28999996
   12.70638847  180.71000671    4.90999985    2.30999994
   12.70972157  168.36999512    4.90999985    2.32999992
   12.71277714  159.35200500    4.90999985    2.34999990
   12.71611118  160.51600647    4.90999985    2.36999989
   12.71944427  173.07899475    4.90999985    2.39000010
   12.72249985  163.82299805    4.90999985    2.39000010
   12.72333336  157.41700745    4.90999985    2.39000010
   12.72916603  157.41700745    4.90999985    2.40000010
   12.73305511  159.48699951    4.90999985    2.39000010
   12.73638916  161.06700134    4.90999985    2.39000010
   12.73972225  169.71400452    4.90999985    2.36999989
   12.74277782  162.92399597    4.90999985    2.36999989
   12.74611092  178.16499329    4.90999985    2.34999990
   12.74916649  173.00500488    4.90999985    2.34999990
   12.75249958  168.72399902    4.90999985    2.34999990
   12.75583363  173.35699463    4.90999985    2.34999990
   12.75666714  182.90299988    4.90999985    2.32999992
   12.75944424  189.67199707    4.90999985    2.32999992
   12.76249981  185.16700745    4.90999985    2.28999996
   12.76583290  196.89199829    4.90999985    2.26999998
   12.77194405  196.89199829    4.90999985    2.23000002
   12.77611065  204.62300110    4.90999985    2.21000004
   12.77916622  184.99000549    4.90999985    2.19000006
   12.78249931  198.71400452    4.90999985    2.19000006
   12.78555584  209.73199463    4.90999985    2.19000006
   12.78888893  184.21600342    4.90999985    2.21000004
   12.79000092  201.86700439    4.90999985    2.23000002
   12.79250050  182.66799927    4.90999985    2.23000002
   12.79555607  183.11900330    4.90999985    2.26999998
   12.79888916  175.72599792    4.90999985    2.30999994
   12.80222225  169.84700012    4.90999985    2.34999990
   12.80527782  172.30900574    4.90999985    2.36999989
   12.80861092  165.07099915    4.90999985    2.39000010
   12.81472206  165.07099915    4.90999985    2.36999989
   12.81888866  181.94400024    4.90999985    2.36999989
   12.82194424  162.30299377    4.90999985    2.34999990
   12.82333374  162.16900635    4.90999985    2.30999994
   12.82583332  188.92199707    4.90999985    2.28999996
   12.82888889  192.10499573    4.90999985    2.23000002
   12.83222198  256.24600220    4.90999985    2.17000008
   12.83555508  248.66000366    4.90999985    2.13000011
   12.83861065  234.83299255    4.90999985    2.13000011
   12.84194374  220.01400757    4.90999985    2.15000010
   12.84499931  225.06199646    4.90999985    2.15000010
   12.84833336  224.97500610    4.90999985    2.17000008
   12.85166740  187.69299316    4.90999985    2.21000004
   12.85750008  187.69299316    4.90999985    2.26999998
   12.86166668  173.41299438    4.90999985    2.30999994
   12.86500072  175.23100281    4.90999985    2.30999994
   12.86805534  184.00999451    4.90999985    2.28999996
   12.87138939  181.59100342    4.90999985    2.25000000
   12.87472248  209.60800171    4.90999985    2.23000002
   12.87777805  207.02200317    4.90999985    2.23000002
   12.88111115  186.72700500    4.90999985    2.25000000
   12.88416672  186.26400757    4.90999985    2.25000000
   12.88749981  178.69599915    4.90999985    2.26999998
   12.89000034  197.49800110    4.90999985    2.26999998
   12.89111137  181.26699829    4.90999985    2.28999996
   12.89416695  186.57499695    4.90999985    2.30999994
   12.90055561  186.57499695    4.90999985    2.28999996
   12.90444374  191.60800171    4.90999985    2.28999996
   12.90777779  179.63699341    4.90999985    2.32999992
   12.91111088  179.54299927    4.90999985    2.34999990
   12.91416645  162.37100220    4.90999985    2.36999989
   12.91750050  154.93099976    4.90999985    2.39000010
   12.92083359  164.50300598    4.90999985    2.39000010
   12.92333412  165.55700684    4.90999985    2.36999989
   12.92444515  168.89300537    4.90999985    2.36999989
   12.92750072  165.67900085    4.90999985    2.36999989
   12.93083382  163.66099548    4.90999985    2.34999990
   12.93416691  156.68499756    4.90999985    2.36999989
   12.93722248  160.44200134    4.90999985    2.36999989
   12.94333363  160.44200134    4.90999985    2.36999989
   12.94750023  160.81900024    4.90999985    2.34999990
   12.95055580  192.96400452    4.90999985    2.34999990
   12.95388889  174.35400391    4.90999985    2.32999992
   12.95666695  175.65400696    4.90999985    2.30999994
   12.95749950  180.25000000    4.90999985    2.30999994
   12.96055508  200.29800415    4.90999985    2.30999994
   12.96388912  186.95100403    4.90999985    2.30999994
   12.96722221  192.33299255    4.90999985    2.30999994
   12.97027779  173.03700256    4.90999985    2.32999992
   12.97361088  183.31100464    4.90999985    2.32999992
   12.97666645  176.84500122    4.90999985    2.32999992
   12.97999954  188.39999390    4.90999985    2.34999990
   12.98611164  188.39999390    4.90999985    2.34999990
   12.99027824  182.45500183    4.90999985    2.34999990
   12.99333382  180.43600464    4.90999985    2.32999992
   12.99666691  178.45399475    4.90999985    2.32999992
   13.00000000  176.67900085    4.90999985    2.32999992
   13.00333309  179.39399719    4.90999985    2.32999992
   13.00638866  174.34899902    4.90999985    2.32999992
   13.00972176  170.52900696    4.90999985    2.32999992
   13.01277733  173.34300232    4.90999985    2.32999992
   13.01611137  177.65600586    4.90999985    2.34999990
   13.01944447  170.80700684    4.90999985    2.34999990
   13.02250004  171.86599731    4.90999985    2.32999992
   13.02333355  171.27000427    4.90999985    2.32999992
   13.02888870  171.27000427    4.90999985    2.32999992
   13.03305531  168.66000366    4.90999985    2.32999992
   13.03638935  163.10499573    4.90999985    2.30999994
   13.03944492  172.23199463    4.90999985    2.32999992
   13.04277802  185.30700684    4.90999985    2.30999994
   13.04611111  170.69500732    4.90999985    2.32999992
   13.04916668  174.95399475    4.90999985    2.34999990
   13.05249977  166.23899841    4.90999985    2.34999990
   13.05555534  157.90100098    4.90999985    2.36999989
   13.05666733  158.83900452    4.90999985    2.39000010
   13.05944443  160.02200317    4.90999985    2.36999989
   13.06250000  161.39799500    4.90999985    2.39000010
   13.06583309  168.52499390    4.90999985    2.39000010
   13.07194424  168.52499390    4.90999985    2.39000010
   13.07583332  160.21400452    4.90999985    2.39000010
   13.07916641  160.68600464    4.90999985    2.40000010
   13.08249950  158.75100708    4.90999985    2.40000010
   13.08555508  151.64599609    4.90999985    2.44000006
   13.08888817  154.84899902    4.90999985    2.46000004
   13.09000015  150.20399475    4.90999985    2.46000004
   13.09249973  145.75399780    4.90999985    2.46000004
   13.09555531  158.91400146    4.90999985    2.46000004
   13.09888840  154.76600647    4.90999985    2.46000004
   13.10222244  156.25399780    4.90999985    2.46000004
   13.10527802  158.08999634    4.90999985    2.46000004
   13.10861111  162.81100464    4.90999985    2.44000006
   13.11472225  162.81100464    4.90999985    2.44000006
   13.13527775  151.24000549    4.90999985    2.46000004
   13.13583279  154.57099915    4.90999985    2.46000004
   13.13888836  160.97999573    4.90999985    2.44000006
   13.14222240  154.89999390    4.90999985    2.44000006
   13.14527798  157.05000305    4.90999985    2.44000006
   13.14861107  154.08999634    4.90999985    2.46000004
   13.15194416  153.78799438    4.90999985    2.48000002
   13.15777779  153.78799438    4.90999985    2.48000002
   13.16166592  155.13499451    4.90999985    2.48000002
   13.16499996  159.83599854    4.90999985    2.48000002
   13.16833401  146.22999573    4.90999985    2.50000000
   13.16916656  150.66299438    4.90999985    2.50000000
   13.17194462  153.77600098    4.90999985    2.50000000
   13.17527771  158.51699829    4.90999985    2.50000000
   13.17833328  154.67999268    4.90999985    2.51999998
   13.18166733  149.88499451    4.90999985    2.51999998
   13.18500042  152.53500366    4.90999985    2.51999998
   13.18805599  149.26800537    4.90999985    2.50000000
   13.19138908  150.25199890    4.90999985    2.50000000
   13.19472218  164.09800720    4.90999985    2.48000002
   13.20055580  164.09800720    4.90999985    2.46000004
   13.20472240  160.39500427    4.90999985    2.46000004
   13.20777798  154.03900146    4.90999985    2.46000004
   13.21111107  148.21899414    4.90999985    2.46000004
   13.21444416  148.63600159    4.90999985    2.48000002
   13.21749973  154.80400085    4.90999985    2.48000002
   13.22083282  149.91099548    4.90999985    2.51999998
   13.22388840  151.62800598    4.90999985    2.50000000
   13.22722149  148.57099915    4.90999985    2.50000000
   13.23055553  145.12699890    4.90999985    2.50000000
   13.23361111  161.20199585    4.90999985    2.51999998
   13.23583317  157.87699890    4.90999985    2.50000000
   13.23722267  148.46699524    4.90999985    2.50000000
   13.24333382  148.46699524    4.90999985    2.50000000
   13.24750042  149.50500488    4.90999985    2.50000000
   13.25083351  154.24099731    4.90999985    2.50000000
   13.25388908  152.06900024    4.90999985    2.50000000
   13.25722218  149.64599609    4.90999985    2.50000000
   13.26027775  152.86000061    4.90999985    2.50000000
   13.26361084  154.97099304    4.90999985    2.50000000
   13.26694393  155.83599854    4.90999985    2.50000000
   13.26916599  145.35600281    4.90999985    2.50000000
   13.27055550  145.28799438    4.90999985    2.50000000
   13.27388859  148.68600464    4.90999985    2.50000000
   13.27722168  147.65699768    4.90999985    2.50000000
   13.28027725  152.44200134    4.90999985    2.51999998
   13.28611183  152.44200134    4.90999985    2.51999998
   13.29027843  143.99299622    4.90999985    2.51999998
   13.29361153  152.89799500    4.90999985    2.53999996
   13.29666710  140.39199829    4.90999985    2.53999996
   13.30000019  145.66499329    4.90999985    2.51999998
   13.30249977  142.99299622    4.90999985    2.51999998
   13.30361176  148.96200562    4.90999985    2.53999996
   13.30694485  144.35499573    4.90999985    2.51999998
   13.31027794  142.25300598    4.90999985    2.51999998
   13.31333351  141.94200134    4.90999985    2.51999998
   13.31666660  139.91299438    4.90999985    2.51999998
   13.31999969  137.31900024    4.90999985    2.51999998
   13.32305527  142.17199707    4.90999985    2.51999998
   13.32916641  142.17199707    4.90999985    2.51999998
   13.33305550  145.29400635    4.90999985    2.51999998
   13.33583260  152.61099243    4.90999985    2.51999998
   13.33666611  142.57000732    4.90999985    2.53999996
   13.34000015  146.46699524    4.90999985    2.53999996
   13.34333324  144.79800415    4.90999985    2.53999996
   13.34638882  144.11300659    4.90999985    2.53999996
   13.34972191  152.03199768    4.90999985    2.53999996
   13.35277843  143.44299316    4.90999985    2.53999996
   13.35611153  146.67999268    4.90999985    2.51999998
   13.35944462  143.82099915    4.90999985    2.53999996
   13.36250019  138.14999390    4.90999985    2.53999996
   13.36583328  142.81300354    4.86999989    2.53999996
   13.37194443  142.81300354    4.67999983    2.53999996
   13.37611103  142.79800415    4.48999977    2.53999996
   13.37916660  140.07800293    4.28999996    2.53999996
   13.38249969  143.83200073    4.11999989    2.53999996
   13.38583279  150.85400391    3.86999989    2.53999996
   13.38888836  138.46099854    3.72000003    2.53999996
   13.39222240  139.87800598    3.57999992    2.53999996
   13.39527798  144.37899780    3.45000005    2.55999994
   13.39861107  136.70599365    3.30999994    2.55999994
   13.40194416  128.45399475    3.18000007    2.55999994
   13.40277767  130.68200684    3.14000010    2.55999994
   13.40555477  132.10000610    3.00000000    2.53999996
   13.40861034  143.63999939    2.91000009    2.53999996
   13.41472149  143.63999939    2.61999989    2.53999996
   13.41888905  134.59199524    2.46000004    2.53999996
   13.42222214  141.51100159    2.28999996    2.55999994
   13.42527771  133.16700745    2.17000008    2.55999994
   13.42861176  142.04800415    2.03999996    2.55999994
   13.43166733  145.35600281    1.94000006    2.57999992
   13.43500042  134.99600220    1.78999996    2.55999994
   13.43611145  131.83799744    1.76999998    2.55999994
   13.43861103  146.66099548    1.75000000    2.55999994
   13.44166660  138.36000061    1.69000006    2.57999992
   13.44499969  136.18299866    1.63000000    2.57999992
   13.44833374  136.02000427    1.55999994    2.57999992
   13.45138836  142.37500000    1.51999998    2.57999992
   13.45749950  142.37500000    1.46000004    2.57999992
   13.46166611  139.38699341    1.44000006    2.57999992
   13.46500015  137.39199829    1.41999996    2.57999992
   13.46833324  139.51699829    1.39999998    2.59999990
   13.46972179  139.47700500    1.39999998    2.59999990
   13.47194386  136.21699524    1.39999998    2.57999992
   13.47499943  143.68899536    1.39999998    2.57999992
   13.47833252  136.25300598    1.39999998    2.57999992
   13.48138809  125.87000275    1.38000000    2.57999992
   13.48472214  129.20899963    1.36000001    2.57999992
   13.48805618  138.80599976    1.33000004    2.59999990
   13.49111176  128.13600159    1.33000004    2.57999992
   13.49444485  140.30200195    1.30999994    2.57999992
   13.50055599  140.30200195    1.28999996    2.55999994
   13.50444412  127.73999786    1.28999996    2.55999994
   13.50777817  133.19599915    1.25000000    2.57999992
   13.51111126  135.34899902    1.26999998    2.59999990
   13.51416683  134.26800537    1.28999996    2.57999992
   13.51749992  138.02299500    1.30999994    2.57999992
   13.52083302  141.19799805    1.34000003    2.59999990
   13.52388859  149.69400024    1.39999998    2.59999990
   13.52722168  136.09700012    1.46000004    2.57999992
   13.53027725  147.55400085    1.61000001    2.57999992
   13.53361130  135.16700745    1.78999996    2.59999990
   13.53638935  140.13299561    1.91999996    2.59999990
   13.53750038  139.25199890    1.98000002    2.59999990
   13.54333401  139.25199890    2.15000010    2.57999992
   13.54750061  138.78300476    2.19000006    2.59999990
   13.55055618  149.26800537    2.17000008    2.57999992
   13.55388927  149.24699402    2.15000010    2.57999992
   13.55722237  148.70500183    2.13000011    2.57999992
   13.56027794  146.83900452    2.11999989    2.57999992
   13.56361103  147.85099792    2.11999989    2.57999992
   13.56666660  143.88600159    2.09999990    2.55999994
   13.56972218  157.25199890    2.07999992    2.55999994
   13.57055569  138.34800720    2.07999992    2.55999994
   13.57361126  140.40299988    2.03999996    2.57999992
   13.57694435  143.03500366    2.01999998    2.59999990
   13.57999992  140.64999390    1.98000002    2.59999990
   13.58611107  140.64999390    1.80999994    2.59999990
   13.59027767  149.69000244    1.61000001    2.59999990
   13.59361076  133.21699524    1.46000004    2.59999990
   13.59666634  147.05900574    1.33000004    2.59999990
   13.60000038  137.30700684    1.19000006    2.61999989
   13.60305595  136.09800720    1.14999998    2.61999989
   13.60361195  146.41600037    1.14999998    2.61999989
   13.60666752  142.83299255    1.11000001    2.61999989
   13.61000061  141.76300049    1.07000005    2.61999989
   13.61305618  151.07099915    1.05999994    2.61999989
   13.61638927  138.77600098    1.07000005    2.59999990
   13.61972237  149.42300415    1.07000005    2.61999989
   13.62277794  153.67199707    1.09000003    2.59999990
   13.62888908  153.67199707    1.09000003    2.61999989
   13.63305569  153.13600159    1.09000003    2.59999990
   13.63638878  152.82899475    1.11000001    2.61999989
   13.63694477  141.96600342    1.11000001    2.61999989
   13.64000034  146.00999451    1.11000001    2.59999990
   13.64333344  140.36500549    1.11000001    2.59999990
   13.64638901  143.24499512    1.11000001    2.61999989
   13.64972210  140.85000610    1.09000003    2.61999989
   13.65305519  144.14399719    1.07000005    2.61999989
   13.65611076  144.50500488    1.05999994    2.61999989
   13.65944386  144.41299438    1.05999994    2.61999989
   13.66277695  147.43499756    1.05999994    2.61999989
   13.66583252  137.97300720    1.05999994    2.61999989
   13.67194462  137.97300720    1.01999998    2.61999989
   13.67583370  139.05599976    1.00000000    2.59999990
   13.67916679  148.26499939    0.95999998    2.61999989
   13.68249989  150.60000610    0.92000002    2.61999989
   13.68555546  144.27600098    0.89999998    2.61999989
   13.68888855  144.91600037    0.89999998    2.61999989
   13.69222260  140.68400574    0.83999997    2.61999989
   13.69527817  141.97300720    0.83999997    2.61999989
   13.69861126  137.89900208    0.83999997    2.61999989
   13.70194435  137.72000122    0.83999997    2.61999989
   13.70305538  137.99000549    0.81999999    2.61999989
   13.70555496  136.30099487    0.81999999    2.61999989
   13.70861053  142.81700134    0.81999999    2.61999989
   13.71472168  142.81700134    0.80000001    2.61999989
   13.71888828  146.84399414    0.80000001    2.61999989
   13.72194386  147.28799438    0.80000001    2.64000010
   13.72527695  147.58500671    0.80000001    2.61999989
   13.72861099  148.29200745    0.79000002    2.61999989
   13.73166656  145.34899902    0.79000002    2.64000010
   13.73500061  149.81900024    0.79000002    2.64000010
   13.73638916  143.63699341    0.79000002    2.64000010
   13.73861122  142.70399475    0.79000002    2.64000010
   13.74166679  135.94000244    0.79000002    2.64000010
   13.74499989  137.46099854    0.79000002    2.64000010
   13.74833393  138.46299744    0.76999998    2.64000010
   13.75138855  140.81300354    0.76999998    2.64000010
   13.75749969  140.81300354    0.76999998    2.64000010
   13.76166630  142.04699707    0.76999998    2.64000010
   13.76500034  140.60299683    0.76999998    2.64000010
   13.76805496  136.85800171    0.75000000    2.64000010
   13.76999950  137.32099915    0.75000000    2.64000010
   13.77166653  150.65899658    0.75000000    2.64000010
   13.77499962  147.51899719    0.75000000    2.64000010
   13.77833271  143.78700256    0.75000000    2.64000010
   13.78138828  143.38699341    0.75000000    2.64000010
   13.78472233  141.62699890    0.75000000    2.61999989
   13.78805637  153.16000366    0.75000000    2.61999989
   13.79138947  148.53700256    0.75000000    2.64000010
   13.79444504  154.17399597    0.75000000    2.64000010
   13.80027771  154.17399597    0.75000000    2.64000010
   13.80444431  153.47399902    0.75000000    2.64000010
   13.80777836  146.82000732    0.75000000    2.64000010
   13.81083393  149.61199951    0.75000000    2.64000010
   13.81416702  148.13299561    0.75000000    2.64000010
   13.81750011  148.37800598    0.76999998    2.64000010
   13.82055569  144.79299927    0.75000000    2.64000010
   13.82388878  153.49099731    0.75000000    2.64000010
   13.82722187  149.49299622    0.75000000    2.64000010
   13.83027744  141.62600708    0.75000000    2.64000010
   13.83361053  146.45300293    0.73000002    2.64000010
   13.83666611  147.60299683    0.73000002    2.64000010
   13.83694458  147.02799988    0.73000002    2.64000010
   13.84333324  147.02799988    0.75000000    2.64000010
   13.84722233  143.47500610    0.75000000    2.64000010
   13.85055637  141.66499329    0.73000002    2.64000010
   13.85388947  156.65400696    0.75000000    2.64000010
   13.85694504  164.20300293    0.73000002    2.66000009
   13.86027813  154.03199768    0.73000002    2.64000010
   13.86361122  143.37800598    0.73000002    2.64000010
   13.86666679  145.71499634    0.73000002    2.64000010
   13.86999989  150.39100647    0.73000002    2.64000010
   13.87027836  151.41400146    0.73000002    2.64000010
   13.87361145  155.28300476    0.73000002    2.64000010
   13.87694454  155.70799255    0.73000002    2.64000010
   13.88000011  143.39599609    0.73000002    2.64000010
   13.88611126  143.39599609    0.75000000    2.66000009
   13.89027786  144.02099609    0.73000002    2.64000010
   13.89333344  146.87199402    0.70999998    2.64000010
   13.89666653  145.26699829    0.70999998    2.66000009
   13.89999962  141.01300049    0.70999998    2.66000009
   13.90305519  143.96800232    0.70999998    2.64000010
   13.90361118  156.02499390    0.70999998    2.64000010
   13.90694427  145.17700195    0.70999998    2.64000010
   13.90999985  143.00799561    0.70999998    2.64000010
   13.91333294  140.45199585    0.70999998    2.66000009
   13.91666698  144.23599243    0.70999998    2.66000009
   13.91972256  150.57699585    0.69000000    2.66000009
   13.92305565  145.08900452    0.70999998    2.66000009
   13.92888927  145.08900452    0.69000000    2.64000010
   13.93305588  159.22500610    0.70999998    2.64000010
   13.93638897  142.88200378    0.70999998    2.64000010
   13.93694496  142.32600403    0.69000000    2.64000010
   13.94000053  156.78999329    0.70999998    2.66000009
   13.94305515  139.33999634    0.70999998    2.66000009
   13.94638920  150.28999329    0.70999998    2.66000009
   13.94972229  144.34899902    0.70999998    2.66000009
   13.95277786  134.93600464    0.70999998    2.66000009
   13.95611095  138.01199341    0.69000000    2.66000009
   13.95944405  149.39399719    0.70999998    2.66000009
   13.96249962  133.27000427    0.69000000    2.66000009
   13.96583271  142.70199585    0.69000000    2.66000009
   13.97166634  142.70199585    0.64999998    2.66000009
   13.97583294  163.80400085    0.64999998    2.66000009
   13.97916603  143.04299927    0.64999998    2.66000009
   13.98222160  144.58500671    0.67000002    2.67000008
   13.98555565  151.72099304    0.64999998    2.67000008
   13.98888874  142.20700073    0.67000002    2.66000009
   13.99194431  144.47300720    0.67000002    2.66000009
   13.99527836  141.66299438    0.64999998    2.66000009
   13.99861145  150.25500488    0.64999998    2.66000009
   14.00166702  141.48100281    0.67000002    2.66000009
   14.00361156  147.47599792    0.67000002    2.66000009
   14.00555515  142.93299866    0.64999998    2.66000009
   14.00861073  144.13200378    0.64999998    2.66000009
   14.01472187  144.13200378    0.64999998    2.67000008
   14.01861095  139.88999939    0.64999998    2.67000008
   14.02194405  141.37899780    0.64999998    2.66000009
   14.02527714  135.00599670    0.64999998    2.66000009
   14.02833271  140.78999329    0.64999998    2.66000009
   14.03166676  141.91000366    0.64999998    2.67000008
   14.03500080  140.54600525    0.64999998    2.66000009
   14.03694534  141.16700745    0.64999998    2.66000009
   14.03861141  147.69700623    0.64999998    2.66000009
   14.04166698  148.73300171    0.63000000    2.66000009
   14.04500008  148.13800049    0.63000000    2.66000009
   14.04833412  166.28700256    0.63000000    2.67000008
   14.05138874  151.80299377    0.63000000    2.67000008
   14.05749989  151.80299377    0.64999998    2.67000008
   14.06166649  149.90199280    0.63000000    2.66000009
   14.06472206  141.51600647    0.63000000    2.67000008
   14.06805515  152.17300415    0.63000000    2.67000008
   14.07027817  153.92100525    0.63000000    2.66000009
   14.07166672  146.09300232    0.63000000    2.67000008
   14.07472229  152.34199524    0.63000000    2.66000009
   14.07805538  143.81500244    0.63000000    2.66000009
   14.08138847  142.72200012    0.63000000    2.66000009
   14.08444405  140.69500732    0.63000000    2.67000008
   14.08777714  146.96099854    0.61000001    2.67000008
   14.09111118  138.48899841    0.61000001    2.66000009
   14.09416676  141.46000671    0.58999997    2.67000008
   14.10027790  141.46000671    0.58999997    2.67000008
   14.10444450  142.08500671    0.61000001    2.67000008
   14.10777855  146.52200317    0.58999997    2.66000009
   14.11083412  142.83099365    0.58999997    2.67000008
   14.11416721  149.19299316    0.61000001    2.67000008
   14.11750031  151.92199707    0.61000001    2.67000008
   14.12055588  146.26800537    0.61000001    2.66000009
   14.12388897  146.48399353    0.61000001    2.67000008
   14.12694454  146.85600281    0.61000001    2.67000008
   14.13027763  149.77299500    0.58999997    2.67000008
   14.13361073  146.88900757    0.61000001    2.67000008
   14.15222168  138.50700378    0.58999997    2.67000008
   14.15638828  138.50700378    0.58999997    2.67000008
   14.16055489  140.64300537    0.61000001    2.67000008
   14.16388893  142.51699829    0.58999997    2.67000008
   14.16694450  140.87100220    0.58999997    2.67000008
   14.17027855  139.16799927    0.58999997    2.67000008
   14.17361164  139.71499634    0.58999997    2.67000008
   14.17666721  152.08999634    0.58999997    2.67000008
   14.18000031  141.69999695    0.58999997    2.69000006
   14.18333340  139.78799438    0.58999997    2.69000006
   14.18555546  140.84800720    0.58999997    2.67000008
   14.18694496  148.71099854    0.58999997    2.67000008
   14.19000053  143.05099487    0.58999997    2.67000008
   14.19333363  142.56799316    0.58999997    2.67000008
   14.19944477  142.56799316    0.56999999    2.67000008
   14.20361137  151.72999573    0.56999999    2.67000008
   14.20666695  154.55299377    0.56999999    2.69000006
   14.21000004  139.63400269    0.58999997    2.67000008
   14.21305561  160.11199951    0.56999999    2.67000008
   14.21638870  150.20799255    0.56999999    2.67000008
   14.21888828  149.19299316    0.56999999    2.67000008
   14.22027779  144.89500427    0.56999999    2.67000008
   14.22333336  154.04299927    0.56999999    2.67000008
   14.22666645  146.13699341    0.58999997    2.69000006
   14.22999954  144.82200623    0.56999999    2.69000006
   14.23305511  136.11999512    0.56999999    2.69000006
   14.23638916  137.87699890    0.56999999    2.69000006
   14.24222279  137.87699890    0.56999999    2.69000006
   14.24638939  140.65299988    0.56999999    2.67000008
   14.24944496  133.68299866    0.56999999    2.67000008
   14.25222206  140.23300171    0.56999999    2.67000008
   14.25333309  134.47399902    0.56999999    2.67000008
   14.25638866  151.98500061    0.56999999    2.67000008
   14.25972176  140.69599915    0.56999999    2.69000006
   14.26305580  141.29499817    0.56999999    2.67000008
   14.26611137  133.15400696    0.58999997    2.69000006
   14.26944447  156.49200439    0.58999997    2.69000006
   14.27250004  150.49400330    0.58999997    2.69000006
   14.27583313  143.91200256    0.58999997    2.69000006
   14.27916622  149.71000671    0.61000001    2.67000008
   14.28500080  149.71000671    0.58999997    2.69000006
   14.28916740  150.60899353    0.56999999    2.69000006
   14.29250050  147.36500549    0.56999999    2.69000006
   14.29555607  142.44900513    0.58999997    2.69000006
   14.29888916  146.91299438    0.58999997    2.69000006
   14.30222225  144.59300232    0.56999999    2.69000006
   14.30527782  134.29699707    0.56999999    2.69000006
   14.30861092  145.13200378    0.56999999    2.69000006
   14.31166649  141.69200134    0.58999997    2.69000006
   14.31500053  140.18600464    0.56999999    2.69000006
   14.31833363  147.88099670    0.58999997    2.69000006
   14.31999969  146.09100342    0.58999997    2.69000006
   14.32194424  155.76199341    0.56999999    2.69000006
   14.32777786  155.76199341    0.56999999    2.69000006
   14.33194447  144.14700317    0.58999997    2.69000006
   14.33527756  144.28700256    0.58999997    2.69000006
   14.33833313  148.70300293    0.58999997    2.69000006
   14.34166622  147.50399780    0.56999999    2.71000004
   14.34499931  149.70599365    0.58999997    2.69000006
   14.34805489  147.22399902    0.58999997    2.69000006
   14.35138893  154.10699463    0.56999999    2.69000006
   14.35333347  141.46899414    0.56999999    2.69000006
   14.35500050  145.47599792    0.56999999    2.69000006
   14.35805607  142.31900024    0.58999997    2.69000006
   14.36138916  154.63299561    0.56999999    2.69000006
   14.36472225  145.92900085    0.56999999    2.69000006
   14.37055588  145.92900085    0.56999999    2.71000004
   14.37472248  154.97300720    0.56999999    2.71000004
   14.37805557  141.71800232    0.56999999    2.69000006
   14.38138866  141.08799744    0.56999999    2.71000004
   14.38472176  144.24899292    0.56999999    2.69000006
   14.38694477  140.39999390    0.56999999    2.69000006
   14.38833332  143.76699829    0.56999999    2.69000006
   14.39138889  147.46200562    0.56999999    2.69000006
   14.39472198  136.49400330    0.56999999    2.69000006
   14.39777756  148.45300293    0.55000001    2.71000004
   14.40111065  149.26699829    0.56999999    2.71000004
   14.40444374  140.75599670    0.55000001    2.71000004
   14.40749931  138.73899841    0.56999999    2.71000004
   14.41361046  138.73899841    0.55000001    2.69000006
   14.41777802  151.28599548    0.56999999    2.69000006
   14.42027855  146.27099609    0.56999999    2.69000006
   14.42138958  142.38299561    0.56999999    2.71000004
   14.42444515  144.27499390    0.56999999    2.71000004
   14.42777824  139.52900696    0.56999999    2.69000006
   14.43083382  151.94400024    0.56999999    2.69000006
   14.43416691  134.09899902    0.56999999    2.71000004
   14.43750000  149.03599548    0.56999999    2.69000006
   14.44055557  137.98599243    0.56999999    2.69000006
   14.44388866  145.77600098    0.56999999    2.69000006
   14.44722271  147.06500244    0.55000001    2.69000006
   14.45027733  140.06399536    0.55000001    2.71000004
   14.45638847  140.06399536    0.55000001    2.69000006
   14.46055508  138.98399353    0.55000001    2.69000006
   14.46361065  148.65400696    0.55000001    2.71000004
   14.46694374  146.49000549    0.55000001    2.71000004
   14.47027779  145.04299927    0.55000001    2.69000006
   14.47361088  143.35099792    0.55000001    2.69000006
   14.47666645  139.04699707    0.55000001    2.69000006
   14.47999954  144.47099304    0.55000001    2.71000004
   14.48305511  152.75700378    0.55000001    2.69000006
   14.48638916  150.77400208    0.55000001    2.71000004
   14.48722267  141.65899658    0.55000001    2.71000004
   14.49000072  144.57299805    0.56999999    2.69000006
   14.49333382  154.04200745    0.56999999    2.71000004
   14.49916649  154.04200745    0.56999999    2.69000006
   14.50333309  145.76899719    0.56999999    2.71000004
   14.50666714  154.77200317    0.56999999    2.71000004
   14.50972176  140.07600403    0.56999999    2.71000004
   14.51305580  140.90100098    0.56999999    2.71000004
   14.51638889  141.99200439    0.58999997    2.71000004
   14.51944447  145.26699829    0.58999997    2.71000004
   14.52055550  144.00799561    0.58999997    2.71000004
   14.52305508  143.91400146    0.56999999    2.71000004
   14.52638817  140.86900330    0.56999999    2.71000004
   14.52944374  145.23399353    0.56999999    2.71000004
   14.53277779  151.46800232    0.56999999    2.71000004
   14.53583336  149.13900757    0.56999999    2.71000004
   14.54222298  149.13900757    0.56999999    2.71000004
   14.54611111  143.11199951    0.56999999    2.71000004
   14.54944515  148.16200256    0.55000001    2.71000004
   14.55277824  143.12100220    0.56999999    2.71000004
   14.55416679  141.66400146    0.56999999    2.71000004
   14.55638885  154.35499573    0.55000001    2.71000004
   14.55944443  147.00900269    0.55000001    2.71000004
   14.56277752  139.10899353    0.55000001    2.71000004
   14.56611156  147.17399597    0.56999999    2.71000004
   14.56916618  153.84700012    0.56999999    2.71000004
   14.57250023  147.93699646    0.55000001    2.71000004
   14.57583332  149.41400146    0.55000001    2.71000004
   14.57888889  143.17599487    0.55000001    2.71000004
   14.58500004  143.17599487    0.56999999    2.71000004
   14.58916664  147.77200317    0.55000001    2.71000004
   14.59222221  145.12699890    0.56999999    2.71000004
   14.59555531  149.66999817    0.55000001    2.71000004
   14.59861088  148.41200256    0.56999999    2.71000004
   14.60194492  142.37600708    0.55000001    2.71000004
   14.60527802  145.38000488    0.56999999    2.71000004
   14.60833359  153.92599487    0.56999999    2.71000004
   14.61166668  149.10899353    0.56999999    2.71000004
   14.61500072  144.38800049    0.56999999    2.71000004
   14.61805534  150.45700073    0.56999999    2.71000004
   14.62083340  145.96899414    0.56999999    2.71000004
   14.62194443  148.08599854    0.56999999    2.71000004
   14.62777805  148.08599854    0.58999997    2.71000004
   14.63194466  149.60000610    0.58999997    2.71000004
   14.63500023  155.72500610    0.58999997    2.71000004
   14.63833332  143.14500427    0.56999999    2.71000004
   14.64166641  141.08299255    0.55000001    2.71000004
   14.64472198  152.72700500    0.55000001    2.71000004
   14.64805508  150.00500488    0.55000001    2.73000002
   14.65138817  155.56199646    0.52999997    2.73000002
   14.65416622  162.01600647    0.52999997    2.71000004
   14.65499973  160.59399414    0.52999997    2.73000002
   14.65805531  164.62899780    0.51999998    2.71000004
   14.66138840  154.97399902    0.52999997    2.71000004
   14.66472149  158.96200562    0.52999997    2.73000002
   14.67055607  158.96200562    0.51999998    2.71000004
   14.67472267  162.56199646    0.52999997    2.71000004
   14.67805576  169.23100281    0.51999998    2.71000004
   14.68111134  150.49800110    0.51999998    2.73000002
   14.68444443  171.35099792    0.51999998    2.71000004
   14.68750000  160.25100708    0.52999997    2.73000002
   14.68805599  162.26400757    0.52999997    2.73000002
   14.69138908  152.77699280    0.52999997    2.71000004
   14.69499969  161.97200012    0.52999997    2.71000004
   14.79694462   -1.00000000   -1.00000000   -1.00000000
   14.94416714   -1.00000000   -1.00000000   -1.00000000
   15.10194492   -1.00000000   -1.00000000   -1.00000000
   15.13277817  172.62300110    0.51999998    2.75000000
   15.13611126  161.21200562    0.52999997    2.75000000
   15.13944435  162.68099976    0.52999997    2.75000000
   15.14249992  166.29400635    0.51999998    2.73000002
   15.14583302  170.35499573    0.50000000    2.75000000
   15.14888859  166.17799377    0.50000000    2.76999998
   15.15305519  166.17799377    0.50000000    2.75000000
   15.15722179  179.97700500    0.50000000    2.75000000
   15.16055489  171.03700256    0.50000000    2.75000000
   15.16361046  169.15800476    0.50000000    2.75000000
   15.16611099  158.89199829    0.50000000    2.75000000
   15.16750050  163.32200623    0.50000000    2.75000000
   15.17083359  166.44000244    0.51999998    2.75000000
   15.17388916  160.11900330    0.51999998    2.75000000
   15.17722225  167.58599854    0.50000000    2.75000000
   15.18055630  158.39599609    0.50000000    2.75000000
   15.18361092  161.28999329    0.50000000    2.75000000
   15.18694496  160.22799683    0.50000000    2.75000000
   15.19000053  162.43099976    0.50000000    2.75000000
   15.19611073  162.43099976    0.50000000    2.75000000
   15.19999981  154.62500000    0.50000000    2.75000000
   15.20333290  159.32899475    0.50000000    2.75000000
   15.20666695  161.33200073    0.51999998    2.75000000
   15.20972157  157.20799255    0.52999997    2.75000000
   15.21305561  152.97599792    0.51999998    2.75000000
   15.21638870  150.50000000    0.50000000    2.75000000
   15.21944427  159.19700623    0.50000000    2.75000000
   15.22277737  161.34399414    0.50000000    2.75000000
   15.22583294  154.70100403    0.51999998    2.75000000
   15.22916603  163.18099976    0.51999998    2.75000000
   15.23249912  166.28900146    0.51999998    2.75000000
   15.23305511  175.12500000    0.51999998    2.75000000
   15.23888874  175.12500000    0.52999997    2.75000000
   15.24305534  166.05999756    0.55000001    2.75000000
   15.24611092  148.87600708    0.55000001    2.75000000
   15.24944496  152.13800049    0.56999999    2.75000000
   15.25277805  158.29600525    0.55000001    2.75000000
   15.25583363  146.82899475    0.55000001    2.75000000
   15.25916672  151.98699951    0.55000001    2.75000000
   15.26222229  151.81799316    0.55000001    2.75000000
   15.26555538  156.54899597    0.52999997    2.75000000
   15.26638889  151.97599792    0.52999997    2.75000000
   15.26916599  144.91400146    0.51999998    2.75000000
   15.27250004  154.68699646    0.52999997    2.75000000
   15.27583313  149.26100159    0.52999997    2.75000000
   15.28166676  149.26100159    0.55000001    2.75000000
   15.28583336  151.70100403    0.55000001    2.75000000
   15.28916740  147.77099609    0.51999998    2.75000000
   15.29222298  147.79200745    0.51999998    2.75000000
   15.29555607  154.00900269    0.51999998    2.75000000
   15.29888916  150.97599792    0.50000000    2.75000000
   15.29972267  151.06799316    0.51999998    2.75000000
   15.30222225  151.04600525    0.50000000    2.75000000
   15.30555534  148.57899475    0.50000000    2.75000000
   15.30888939  157.40499878    0.50000000    2.75000000
   15.31194496  152.36000061    0.47999999    2.76999998
   15.31527805  157.67500305    0.47999999    2.76999998
   15.31833363  162.13000488    0.47999999    2.76999998
   15.32444477  162.13000488    0.50000000    2.75000000
   15.32861137  154.09199524    0.50000000    2.75000000
   15.33194447  151.62500000    0.47999999    2.75000000
   15.33305550  153.63000488    0.47999999    2.76999998
   15.33555508  153.77000427    0.50000000    2.75000000
   15.33888817  152.85000610    0.50000000    2.76999998
   15.34222221  143.74200439    0.50000000    2.76999998
   15.34527779  152.90800476    0.50000000    2.75000000
   15.34861088  148.69700623    0.50000000    2.76999998
   15.35166740  153.53799438    0.50000000    2.75000000
   15.35500050  148.19700623    0.47999999    2.76999998
   15.35833359  145.95599365    0.50000000    2.75000000
   15.36138916  150.13099670    0.50000000    2.75000000
   15.36750031  150.13099670    0.50000000    2.75000000
   15.37138939  142.38999939    0.50000000    2.75000000
   15.37472248  139.24400330    0.51999998    2.75000000
   15.37805557  148.06399536    0.50000000    2.75000000
   15.38111115  147.91200256    0.47999999    2.75000000
   15.38444424  153.17399597    0.47999999    2.75000000
   15.38777733  150.85400391    0.47999999    2.76999998
   15.39083290  142.22399902    0.50000000    2.76999998
   15.39416695  149.84399414    0.47999999    2.75000000
   15.39722252  134.78900146    0.50000000    2.75000000
   15.39972210  138.90699768    0.50000000    2.75000000
   15.40083313  144.15499878    0.47999999    2.75000000
   15.40416622  149.98199463    0.47999999    2.75000000
   15.41027737  149.98199463    0.50000000    2.75000000
   15.41444397  151.22900391    0.50000000    2.75000000
   15.41750050  151.62800598    0.50000000    2.76999998
   15.42083359  151.95799255    0.47999999    2.76999998
   15.42416668  145.35800171    0.47999999    2.76999998
   15.42722225  145.84300232    0.50000000    2.75000000
   15.43055630  143.82000732    0.50000000    2.76999998
   15.43305588  146.59599304    0.50000000    2.75000000
   15.43416691  154.88800049    0.50000000    2.75000000
   15.43750000  156.35899353    0.47999999    2.75000000
   15.44083309  151.24600220    0.47999999    2.76999998
   15.44388866  150.13499451    0.47999999    2.75000000
   15.44722271  155.01300049    0.47999999    2.75000000
   15.45305538  155.01300049    0.50000000    2.75000000
   15.45722198  142.30599976    0.47999999    2.76999998
   15.46055508  138.85099792    0.50000000    2.76999998
   15.46361065  136.77499390    0.50000000    2.76999998
   15.46638870  147.95399475    0.50000000    2.75000000
   15.46722221  148.47399902    0.50000000    2.76999998
   15.47055531  136.07499695    0.50000000    2.76999998
   15.47388840  134.88299561    0.50000000    2.76999998
   15.47694397  128.69599915    0.50000000    2.75000000
   15.48027706  128.22999573    0.50000000    2.75000000
   15.48333359  135.05299377    0.50000000    2.76999998
   15.48666668  145.21800232    0.50000000    2.76999998
   15.49000072  132.38400269    0.50000000    2.75000000
   15.49583340  132.38400269    0.50000000    2.76999998
   15.50000000  140.12699890    0.47999999    2.76999998
   15.50333309  147.87600708    0.50000000    2.76999998
   15.50638866  140.85099792    0.50000000    2.76999998
   15.50972176  134.71200562    0.50000000    2.75000000
   15.51305580  131.87600708    0.50000000    2.75000000
   15.51611137  140.53900146    0.50000000    2.76999998
   15.51944447  134.20700073    0.50000000    2.76999998
   15.52277756  137.09800720    0.50000000    2.76999998
   15.52583313  139.44999695    0.50000000    2.76999998
   15.52916622  139.54200745    0.50000000    2.76999998
   15.53222179  141.20100403    0.50000000    2.76999998
   15.53305531  142.40299988    0.50000000    2.76999998
   15.53861141  142.40299988    0.50000000    2.75000000
   15.54277802  144.09399414    0.50000000    2.76999998
   15.54611111  132.64399719    0.47999999    2.76999998
   15.54944515  133.58799744    0.50000000    2.76999998
   15.55249977  150.46800232    0.50000000    2.76999998
   15.55583382  142.44500732    0.47999999    2.76999998
   15.55916691  140.79600525    0.47999999    2.76999998
   15.56222248  136.77999878    0.47999999    2.76999998
   15.56555557  131.74200439    0.47999999    2.76999998
   15.56638908  136.20599365    0.47999999    2.76999998
   15.56888866  139.61199951    0.47999999    2.76999998
   15.57222176  136.27699280    0.47999999    2.76999998
   15.57555580  139.01499939    0.47999999    2.76999998
   15.58166695  139.01499939    0.47999999    2.76999998
   15.58583260  141.38499451    0.47999999    2.75000000
   15.58888817  132.72200012    0.47999999    2.75000000
   15.59222221  138.35400391    0.47999999    2.75000000
   15.59555531  151.24299622    0.50000000    2.76999998
   15.59861088  136.31199646    0.50000000    2.76999998
   15.59972191  144.85000610    0.50000000    2.76999998
   15.60249996  144.08900452    0.50000000    2.76999998
   15.60555553  138.41499329    0.50000000    2.76999998
   15.60888958  136.25399780    0.50000000    2.76999998
   15.61194515  135.04600525    0.50000000    2.76999998
   15.61527824  136.44099426    0.50000000    2.75000000
   15.61861134  141.15499878    0.50000000    2.76999998
   15.62444496  141.15499878    0.50000000    2.76999998
   15.62861156  157.03100586    0.47999999    2.75000000
   15.63194466  139.02200317    0.47999999    2.76999998
   15.63305569  137.87899780    0.47999999    2.76999998
   15.63527775  135.40600586    0.47999999    2.76999998
   15.63861084  138.52000427    0.46000001    2.76999998
   15.64194393  138.58999634    0.47999999    2.76999998
   15.64499950  141.00100708    0.47999999    2.76999998
   15.64833355  127.50099945    0.47999999    2.75000000
   15.65166664  119.40499878    0.47999999    2.76999998
   15.65472221  137.29699707    0.47999999    2.78999996
   15.65805531  128.65100098    0.50000000    2.76999998
   15.66111088  141.49699402    0.47999999    2.78999996
   15.66722298  141.49699402    0.47999999    2.76999998
   15.67138958  141.86300659    0.47999999    2.75000000
   15.67472267  147.37800598    0.47999999    2.76999998
   15.67777824  140.23800659    0.47999999    2.76999998
   15.68111134  139.25700378    0.47999999    2.76999998
   15.68444443  143.38900757    0.47999999    2.76999998
   15.68750000  143.68600464    0.47999999    2.76999998
   15.69083309  143.21099854    0.47999999    2.76999998
   15.69416714  137.26100159    0.47999999    2.75000000
   15.69722271  140.54100037    0.47999999    2.76999998
   15.69972229  145.87600708    0.47999999    2.76999998
   15.70083332  146.22700500    0.47999999    2.76999998
   15.70416641  136.28100586    0.50000000    2.76999998
   15.71027756  136.28100586    0.47999999    2.76999998
   15.71416664  135.23100281    0.47999999    2.76999998
   15.71749973  130.50199890    0.47999999    2.76999998
   15.72083282  140.10099792    0.47999999    2.76999998
   15.72388840  135.14900208    0.47999999    2.76999998
   15.72722149  132.89999390    0.47999999    2.76999998
   15.73055553  134.04299927    0.46000001    2.76999998
   15.73305511  132.67300415    0.47999999    2.78999996
   15.73388958  135.90400696    0.47999999    2.78999996
   15.73722267  129.62500000    0.47999999    2.76999998
   15.74055576  135.68699646    0.46000001    2.76999998
   15.74361134  135.81599426    0.47999999    2.76999998
   15.74694443  141.74499512    0.47999999    2.76999998
   15.75305557  141.74499512    0.47999999    2.76999998
   15.75722218  132.99400330    0.47999999    2.76999998
   15.76027775  166.12500000    0.46000001    2.76999998
   15.76361084  128.75399780    0.46000001    2.76999998
   15.76638889  153.29499817    0.46000001    2.76999998
   15.76722240  151.26199341    0.46000001    2.76999998
   15.77055550  125.90299988    0.44000000    2.76999998
   15.77388859  139.17100525    0.44000000    2.76999998
   15.77694416  138.72900391    0.44000000    2.76999998
   15.78027725  148.41900635    0.46000001    2.76999998
   15.78361130  154.02000427    0.44000000    2.76999998
   15.78666687  146.13200378    0.44000000    2.76999998
   15.79000092  133.72500610    0.44000000    2.78999996
   15.79583359  133.72500610    0.44000000    2.76999998
   15.80000019  137.89300537    0.44000000    2.76999998
   15.80333328  126.69999695    0.44000000    2.76999998
   15.80638885  148.58200073    0.44000000    2.76999998
   15.80972195  148.95199585    0.44000000    2.78999996
   15.81305599  133.39199829    0.44000000    2.78999996
   15.81611156  127.94799805    0.44000000    2.76999998
   15.81944466  144.30700684    0.44000000    2.76999998
   15.82277775  124.66200256    0.46000001    2.76999998
   15.82583332  145.82000732    0.46000001    2.76999998
   15.82916641  135.50199890    0.46000001    2.76999998
   15.83222198  137.28199768    0.44000000    2.76999998
   15.83305550  139.27200317    0.44000000    2.76999998
   15.83861065  139.27200317    0.46000001    2.78999996
   15.84277725  123.04499817    0.50000000    2.76999998
   15.84611034  120.96700287    0.52999997    2.76999998
   15.84916592  119.65799713    0.50000000    2.76999998
   15.85249996  132.74299622    0.47999999    2.78999996
   15.85583401  126.02600098    0.47999999    2.76999998
   15.85888958  130.61500549    0.47999999    2.76999998
   15.86222267  130.73300171    0.46000001    2.76999998
   15.86555576  129.31900024    0.46000001    2.78999996
   15.86638927  137.22399902    0.46000001    2.78999996
   15.86916637  130.38900757    0.46000001    2.76999998
   15.87222195  125.19400024    0.44000000    2.78999996
   15.87555599  127.61199951    0.44000000    2.76999998
   15.88166714  127.61199951    0.44000000    2.76999998
   15.88555527  128.99000549    0.44000000    2.78999996
   15.88888836  124.35099792    0.44000000    2.76999998
   15.89222240  119.94100189    0.44000000    2.78999996
   15.89527798  116.69300079    0.44000000    2.78999996
   15.89861107  105.39399719    0.44000000    2.76999998
   15.89972210  122.33999634    0.44000000    2.76999998
   15.90249920  130.17999268    0.44000000    2.76999998
   15.90555477  127.72599792    0.44000000    2.76999998
   15.90888882  127.67800140    0.46000001    2.76999998
   15.91222191  126.19599915    0.46000001    2.78999996
   15.91527748  119.93399811    0.46000001    2.76999998
   15.91861153  112.67700195    0.46000001    2.76999998
   15.92444515  112.67700195    0.46000001    2.78999996
   15.92861176  131.70399475    0.46000001    2.78999996
   15.93166733  119.61299896    0.47999999    2.76999998
   15.93305588  118.30100250    0.47999999    2.78999996
   15.93555546  126.86900330    0.47999999    2.76999998
   15.93861103  125.07800293    0.47999999    2.76999998
   15.94194412  122.27500153    0.47999999    2.78999996
   15.94499969  122.06800079    0.47999999    2.76999998
   15.94833374  113.73999786    0.47999999    2.76999998
   15.95166683  123.76899719    0.47999999    2.76999998
   15.95472240  117.68399811    0.47999999    2.76999998
   15.95805550  122.34300232    0.47999999    2.76999998
   15.96138859  119.44799805    0.46000001    2.76999998
   15.96722221  119.44799805    0.46000001    2.76999998
   15.97138882  128.29800415    0.46000001    2.76999998
   15.97472191  122.92900085    0.46000001    2.78999996
   15.97777748  124.35299683    0.47999999    2.76999998
   15.98111057  128.26699829    0.47999999    2.76999998
   15.98416710  118.01000214    0.50000000    2.76999998
   15.98750019  127.70500183    0.50000000    2.76999998
   15.99083328  125.73500061    0.50000000    2.76999998
   15.99388885  127.64900208    0.52999997    2.76999998
   15.99722290  125.44799805    0.52999997    2.76999998
   15.99972248  129.74000549    0.52999997    2.76999998
   16.00083351  132.04499817    0.52999997    2.76999998
   16.00388908  129.01699829    0.52999997    2.76999998
   16.01000023  129.01699829    0.46000001    2.78999996
   16.01416588  121.67299652    0.46000001    2.78999996
   16.01749992  127.57700348    0.44000000    2.78999996
   16.02055550  124.45800018    0.44000000    2.78999996
   16.02388954  130.13600159    0.44000000    2.78999996
   16.02722168  117.59700012    0.41999999    2.78999996
   16.03027725  119.09400177    0.44000000    2.76999998
   16.03305435  124.91000366    0.44000000    2.78999996
   16.03416634  122.16200256    0.46000001    2.76999998
   16.03722191  127.04000092    0.46000001    2.78999996
   16.04055595  136.61500549    0.46000001    2.76999998
   16.04361153  121.77999878    0.46000001    2.78999996
   16.04694366  130.78199768    0.46000001    2.78999996
   16.05305481  130.78199768    0.46000001    2.76999998
   16.05722237  134.97099304    0.46000001    2.76999998
   16.06027794  129.61099243    0.46000001    2.76999998
   16.06361008  120.27999878    0.46000001    2.76999998
   16.06638718  135.57200623    0.44000000    2.78999996
   16.06722260  124.14499664    0.44000000    2.78999996
   16.07027817  133.12800598    0.46000001    2.76999998
   16.07361221  130.01400757    0.46000001    2.76999998
   16.07666779  118.93800354    0.46000001    2.78999996
   16.08000183  132.44999695    0.46000001    2.78999996
   16.08333397  130.91499329    0.44000000    2.78999996
   16.08638954  124.74199677    0.44000000    2.78999996
   16.08972359  126.17099762    0.44000000    2.78999996
   16.09583473  126.17099762    0.44000000    2.76999998
   16.10000038  125.66500092    0.46000001    2.76999998
   16.10305595  127.98200226    0.46000001    2.78999996
   16.10639000  131.33200073    0.46000001    2.78999996
   16.10972214  120.77899933    0.47999999    2.78999996
   16.11277771  135.15699768    0.46000001    2.76999998
   16.11611176  137.67199707    0.46000001    2.78999996
   16.11944389  130.77400208    0.47999999    2.76999998
   16.12249947  133.99800110    0.46000001    2.78999996
   16.12583351  128.28500366    0.47999999    2.78999996
   16.12888908  129.82600403    0.44000000    2.78999996
   16.13222313  136.74200439    0.44000000    2.78999996
   16.13305473  137.22599792    0.41999999    2.78999996
   16.15388870  137.22599792    0.44000000    2.78999996
   16.15805435  130.67199707    0.44000000    2.76999998
   16.16110992  135.52200317    0.44000000    2.76999998
   16.16444397  120.25700378    0.46000001    2.78999996
   16.16638756  125.87899780    0.46000001    2.76999998
   16.16805458  133.38999939    0.44000000    2.78999996
   16.17111015  137.01800537    0.44000000    2.76999998
   16.17444420  134.21000671    0.46000001    2.76999998
   16.17777634  120.73200226    0.46000001    2.78999996
   16.18083191  123.59899902    0.47999999    2.76999998
   16.18416595  129.15600586    0.47999999    2.76999998
   16.18722153  127.75700378    0.46000001    2.78999996
   16.19055557  130.41000366    0.47999999    2.78999996
   16.19638824  130.41000366    0.46000001    2.78999996
   16.20055580  136.17799377    0.47999999    2.76999998
   16.20388985  135.04600525    0.47999999    2.76999998
   16.20722389  126.61299896    0.47999999    2.76999998
   16.21027946  126.58699799    0.50000000    2.76999998
   16.21361160  130.57899475    0.50000000    2.78999996
   16.21694565  113.88300323    0.46000001    2.78999996
   16.22027779  122.51799774    0.46000001    2.78999996
   16.22333336  134.74600220    0.46000001    2.78999996
   16.22666740  131.20899963    0.50000000    2.78999996
   16.23000145  127.00599670    0.56999999    2.76999998
   16.23305511  138.14500427    0.61000001    2.78999996
   16.23361206  144.38099670    0.63000000    2.78999996
   16.23944473  144.38099670    0.67000002    2.76999998
   16.24361229  124.63200378    0.64999998    2.76999998
   16.24666786  124.48100281    0.64999998    2.76999998
   16.25000000  132.32099915    0.69000000    2.75000000
   16.25333405  122.36199951    0.70999998    2.78999996
   16.25638962  127.29299927    0.75000000    2.76999998
   16.25972176  133.27400208    0.79000002    2.78999996
   16.26277733  134.87800598    0.81999999    2.76999998
   16.26611137  128.22999573    0.79000002    2.76999998
   16.26666641  124.69599915    0.79000002    2.76999998
   16.27000046  125.99400330    0.76999998    2.76999998
   16.27305603  127.35900116    0.70999998    2.75000000
   16.27638817  132.15499878    0.64999998    2.76999998
   16.28222275  132.15499878    0.64999998    2.76999998
   16.28638840  128.70300293    0.69000000    2.76999998
   16.28972244  130.74000549    0.67000002    2.76999998
   16.29277802  135.46000671    0.67000002    2.76999998
   16.29611015  128.50000000    0.61000001    2.78999996
   16.29944420  133.70300293    0.61000001    2.76999998
   16.29999924  111.97799683    0.56999999    2.76999998
   16.30305481  128.13200378    0.56999999    2.76999998
   16.30611038  135.90299988    0.56999999    2.78999996
   16.30944443  136.07899475    0.56999999    2.76999998
   16.31277657  138.31700134    0.58999997    2.76999998
   16.31583214  139.93600464    0.56999999    2.76999998
   16.31916809  144.30400085    0.58999997    2.76999998
   16.32500076  144.30400085    0.61000001    2.76999998
   16.32916832  135.31399536    0.61000001    2.76999998
   16.33250046  126.50599670    0.63000000    2.76999998
   16.33333397  122.52200317    0.63000000    2.76999998
   16.33611107  137.00500488    0.64999998    2.76999998
   16.33916664  131.24000549    0.64999998    2.76999998
   16.34250069  123.40699768    0.64999998    2.76999998
   16.34583473  121.18199921    0.64999998    2.76999998
   16.34889030  120.69300079    0.64999998    2.76999998
   16.35222244  131.01300049    0.64999998    2.76999998
   16.35527802  127.94599915    0.67000002    2.75000000
   16.35861206  131.40400696    0.67000002    2.75000000
   16.36194420  131.49200439    0.67000002    2.76999998
   16.36777878  131.49200439    0.69000000    2.76999998
   16.37194443  135.39500427    0.67000002    2.76999998
   16.37527847  125.76100159    0.67000002    2.76999998
   16.37861061  137.10899353    0.61000001    2.76999998
   16.38166618  123.55899811    0.58999997    2.78999996
   16.38500023  121.97799683    0.58999997    2.78999996
   16.38805580  119.76200104    0.58999997    2.78999996
   16.39138794  121.35199738    0.58999997    2.78999996
   16.39472198  125.86699677    0.58999997    2.78999996
   16.39777756  124.08200073    0.56999999    2.76999998
   16.39999962  127.22100067    0.56999999    2.76999998
   16.40166664  131.49800110    0.58999997    2.76999998
   16.40472221  125.28500366    0.56999999    2.76999998
   16.41083336  125.28500366    0.58999997    2.76999998
   16.41472244  127.27400208    0.61000001    2.76999998
   16.41805458  131.81100464    0.61000001    2.76999998
   16.42138863  130.13800049    0.61000001    2.76999998
   16.42444420  119.65899658    0.63000000    2.76999998
   16.42777634  126.60700226    0.63000000    2.76999998
   16.43111038  132.16600037    0.63000000    2.76999998
   16.43333244  130.83200073    0.63000000    2.75000000
   16.43472099  138.91600037    0.63000000    2.75000000
   16.43777657  139.07600403    0.58999997    2.75000000
   16.44111061  136.20700073    0.56999999    2.78999996
   16.44444275  130.16200256    0.55000001    2.76999998
   16.44749832  130.64500427    0.55000001    2.76999998
   16.45361137  130.64500427    0.58999997    2.76999998
   16.45777893  123.06700134    0.61000001    2.76999998
   16.46083450  126.83799744    0.61000001    2.76999998
   16.46416664  124.73799896    0.61000001    2.76999998
   16.46666718  126.48300171    0.61000001    2.78999996
   16.46777916  129.29699707    0.61000001    2.78999996
   16.47083473  125.53600311    0.63000000    2.76999998
   16.47416687  130.22799683    0.63000000    2.76999998
   16.47750092  136.82699585    0.63000000    2.76999998
   16.48055649  128.55000305    0.67000002    2.76999998
   16.48388863  126.05400085    0.67000002    2.75000000
   16.48722267  126.22699738    0.70999998    2.76999998
   16.49027824  131.88699341    0.70999998    2.76999998
   16.49638939  131.88699341    0.69000000    2.76999998
   16.50055504  127.34899902    0.69000000    2.76999998
   16.50388908  129.92999268    0.73000002    2.76999998
   16.50694466  126.76399994    0.73000002    2.76999998
   16.51027870  127.35700226    0.69000000    2.76999998
   16.51361084  124.58499908    0.69000000    2.75000000
   16.51666641  125.53800201    0.69000000    2.75000000
   16.52000046  136.01699829    0.64999998    2.76999998
   16.52305603  135.14500427    0.56999999    2.76999998
   16.52638817  128.85600281    0.56999999    2.78999996
   16.52972221  130.20100403    0.56999999    2.76999998
   16.53277779  137.61999512    0.56999999    2.76999998
   16.53333282  132.02200317    0.56999999    2.76999998
   16.53916550  132.02200317    0.58999997    2.78999996
   16.54333305  121.24400330    0.56999999    2.76999998
   16.54666710  123.46099854    0.58999997    2.76999998
   16.54999924  124.75700378    0.58999997    2.76999998
   16.55305481  124.68000031    0.52999997    2.76999998
   16.55638885  123.59100342    0.55000001    2.76999998
   16.55944443  127.64700317    0.51999998    2.76999998
   16.56277657  126.51999664    0.51999998    2.76999998
   16.56611061  131.41400146    0.51999998    2.76999998
   16.56666756  124.97699738    0.51999998    2.76999998
   16.56972313  124.01000214    0.51999998    2.76999998
   16.57305717  127.72000122    0.52999997    2.78999996
   16.57611275  127.37300110    0.55000001    2.78999996
   16.58222389  127.37300110    0.55000001    2.76999998
   16.58638954  127.25199890    0.55000001    2.76999998
   16.58944511  125.62200165    0.55000001    2.75000000
   16.59277916  127.60399628    0.55000001    2.75000000
   16.59583473  136.97399902    0.55000001    2.78999996
   16.59916687  137.07499695    0.56999999    2.76999998
   16.60000038  138.89399719    0.56999999    2.76999998
   16.60277748  136.55499268    0.58999997    2.78999996
   16.60611153  127.91799927    0.58999997    2.76999998
   16.60916710  136.05400085    0.55000001    2.78999996
   16.61250114  137.48699951    0.56999999    2.76999998
   16.61555672  125.62000275    0.55000001    2.76999998
   16.61888885  128.38999939    0.52999997    2.76999998
   16.62500000  128.38999939    0.55000001    2.78999996
   16.62916756  131.87699890    0.52999997    2.76999998
   16.63222313  136.12399292    0.51999998    2.76999998
   16.63333321  127.64099884    0.51999998    2.76999998
   16.63611031  120.06400299    0.51999998    2.76999998
   16.63944435  129.28300476    0.50000000    2.76999998
   16.64249992  128.01800537    0.51999998    2.78999996
   16.64583397  125.02500153    0.51999998    2.78999996
   16.64888954  133.06100464    0.51999998    2.78999996
   16.65222168  129.53999329    0.51999998    2.75000000
   16.65555573  122.39700317    0.52999997    2.78999996
   16.65861130  124.38600159    0.51999998    2.76999998
   16.66194344  122.74900055    0.51999998    2.76999998
   16.66777802  122.74900055    0.47999999    2.78999996
   16.67194366  133.52000427    0.46000001    2.76999998
   16.67527771  127.67700195    0.46000001    2.78999996
   16.67833328  128.22700500    0.46000001    2.78999996
   16.68166542  120.54299927    0.46000001    2.78999996
   16.68472099  118.59700012    0.46000001    2.76999998
   16.68805504  116.28199768    0.46000001    2.78999996
   16.69138718  124.72699738    0.46000001    2.76999998
   16.69444275  127.16000366    0.46000001    2.76999998
   16.69777679  133.69799805    0.44000000    2.75000000
   16.70000076  118.17900085    0.46000001    2.78999996
   16.70138931  132.93899536    0.46000001    2.76999998
   16.70444489  123.52100372    0.47999999    2.78999996
   16.71055603  123.52100372    0.47999999    2.78999996
   16.71472359  129.36099243    0.47999999    2.78999996
   16.71805573  141.24400330    0.47999999    2.76999998
   16.72138977  135.92300415    0.50000000    2.76999998
   16.72444534  134.83399963    0.50000000    2.76999998
   16.72777748  134.15100098    0.50000000    2.76999998
   16.73083305  122.48400116    0.51999998    2.78999996
   16.73333359  123.98100281    0.52999997    2.76999998
   16.73472214  134.23899841    0.52999997    2.76999998
   16.73777771  125.52999878    0.55000001    2.76999998
   16.74111176  124.55999756    0.55000001    2.76999998
   16.74444389  131.02600098    0.50000000    2.76999998
   16.74749947  125.26699829    0.47999999    2.78999996
   16.75361061  125.26699829    0.46000001    2.76999998
   16.75749969  117.80899811    0.46000001    2.78999996
   16.76083374  117.77600098    0.46000001    2.78999996
   16.76416588  121.02600098    0.51999998    2.76999998
   16.76666641  123.72599792    0.50000000    2.76999998
   16.76777840  118.09300232    0.50000000    2.76999998
   16.77083397  119.92700195    0.50000000    2.78999996
   16.77416611  129.89799500    0.51999998    2.76999998
   16.77750015  121.63400269    0.51999998    2.76999998
   16.78055573  125.57199860    0.51999998    2.78999996
   16.78388786  116.39399719    0.52999997    2.76999998
   16.78722191  129.84300232    0.51999998    2.76999998
   16.79027748  129.23800659    0.52999997    2.78999996
   16.79638863  129.23800659    0.55000001    2.78999996
   16.80055428  131.85200500    0.52999997    2.76999998
   16.80360985  132.97300720    0.50000000    2.78999996
   16.80694389  138.28999329    0.50000000    2.76999998
   16.81027794  124.92900085    0.51999998    2.76999998
   16.81333351  131.51899719    0.50000000    2.76999998
   16.81666756  124.21700287    0.50000000    2.76999998
   16.81972313  122.69999695    0.47999999    2.76999998
   16.82305717  124.80100250    0.47999999    2.76999998
   16.82638931  133.36799622    0.47999999    2.78999996
   16.82944489  119.83200073    0.47999999    2.76999998
   16.83277893  126.67800140    0.47999999    2.76999998
   16.83333397  120.78099823    0.47999999    2.76999998
   16.83916664  120.78099823    0.47999999    2.76999998
   16.84333420  123.97399902    0.47999999    2.76999998
   16.84666824  117.60099792    0.47999999    2.76999998
   16.84972191  116.50199890    0.47999999    2.78999996
   16.85305595  126.19000244    0.47999999    2.76999998
   16.85639000  123.93599701    0.47999999    2.76999998
   16.85944557  120.96099854    0.47999999    2.78999996
   16.86277771  132.62899780    0.46000001    2.76999998
   16.86583328  124.50399780    0.47999999    2.76999998
   16.86666679  125.22200012    0.47999999    2.76999998
   16.86972237  123.27300262    0.50000000    2.76999998
   16.87305641  131.35800171    0.47999999    2.76999998
   16.87611198  128.95500183    0.47999999    2.76999998
   16.88194466  128.95500183    0.47999999    2.76999998
   16.88611031  118.02700043    0.47999999    2.78999996
   16.88944435  130.89300537    0.47999999    2.76999998
   16.89249992  120.18299866    0.47999999    2.76999998
   16.89583397  119.81800079    0.50000000    2.76999998
   16.89916611  124.98200226    0.46000001    2.76999998
   16.89999962  137.86500549    0.46000001    2.76999998
   16.90277672  130.97599792    0.46000001    2.76999998
   16.90611076  126.97399902    0.46000001    2.78999996
   16.90916634  126.96099854    0.47999999    2.78999996
   16.91250038  126.08499908    0.50000000    2.76999998
   16.91555595  127.71700287    0.47999999    2.76999998
   16.91888809  123.10199738    0.47999999    2.76999998
   16.92499924  123.10199738    0.46000001    2.76999998
   16.92888832  126.77100372    0.46000001    2.78999996
   16.93222237  124.41100311    0.46000001    2.76999998
   16.93333244  115.01499939    0.46000001    2.76999998
   16.93583298  121.97100067    0.47999999    2.76999998
   16.93916512  124.58699799    0.47999999    2.78999996
   16.94222069  128.37500000    0.47999999    2.78999996
   16.94555473  126.69000244    0.47999999    2.78999996
   16.94861031  128.94299316    0.47999999    2.76999998
   16.95194435  119.68800354    0.47999999    2.76999998
   16.95527840  126.22299957    0.46000001    2.76999998
   16.95833397  123.70099640    0.46000001    2.76999998
   16.96166801  120.15599823    0.47999999    2.76999998
   16.96777916  120.15599823    0.50000000    2.76999998
   16.97194481  113.34799957    0.51999998    2.76999998
   16.97500038  120.28800201    0.51999998    2.76999998
   16.97833443  123.59400177    0.51999998    2.75000000
   16.98166656  123.50700378    0.51999998    2.76999998
   16.98472214  121.28900146    0.51999998    2.76999998
   16.98805618  116.59200287    0.51999998    2.76999998
   16.99138832  119.48300171    0.47999999    2.78999996
   16.99444389  118.31400299    0.47999999    2.75000000
   16.99777794  120.60099792    0.47999999    2.78999996
   17.00027847  115.27300262    0.47999999    2.78999996
   17.00138855  119.29499817    0.47999999    2.78999996
   17.00472260  119.89800262    0.50000000    2.76999998
   17.01055527  119.89800262    0.44000000    2.76999998
   17.01472282  124.91899872    0.44000000    2.76999998
   17.01805496  120.82599640    0.50000000    2.76999998
   17.02111053  124.48799896    0.51999998    2.76999998
   17.02444458  125.19899750    0.51999998    2.76999998
   17.02777672  129.53399658    0.50000000    2.76999998
   17.03083229  117.48600006    0.50000000    2.76999998
   17.03333282  127.12899780    0.50000000    2.76999998
   17.03444481  129.21200562    0.51999998    2.76999998
   17.03777695  127.64099884    0.51999998    2.76999998
   17.04083252  128.78100586    0.51999998    2.76999998
   17.04416656  121.01999664    0.51999998    2.76999998
   17.04722214  124.81800079    0.51999998    2.76999998
   17.05333328  124.81800079    0.51999998    2.76999998
   17.05749893  123.67500305    0.51999998    2.76999998
   17.06083298  117.52799988    0.51999998    2.76999998
   17.06388855  129.16000366    0.52999997    2.76999998
   17.06666756  126.05500031    0.52999997    2.76999998
   17.06777954  131.33700562    0.52999997    2.76999998
   17.07111168  121.66300201    0.52999997    2.76999998
   17.07416725  127.91300201    0.52999997    2.76999998
   17.07750130  120.86199951    0.51999998    2.76999998
   17.08083344  127.46900177    0.51999998    2.76999998
   17.08388901  130.70799255    0.51999998    2.76999998
   17.08722305  122.10299683    0.47999999    2.76999998
   17.09055710  128.92900085    0.46000001    2.76999998
   17.09638977  128.92900085    0.47999999    2.78999996
   17.10027885  124.69599915    0.47999999    2.76999998
   17.10361099  123.29299927    0.47999999    2.78999996
   17.10694504  123.77799988    0.51999998    2.76999998
   17.11000061  117.10199738    0.50000000    2.76999998
   17.11333466  123.82700348    0.50000000    2.76999998
   17.11666679  123.56800079    0.50000000    2.78999996
   17.11972237  123.56300354    0.50000000    2.76999998
   17.12305641  127.71700287    0.50000000    2.76999998
   17.12611198  120.51000214    0.51999998    2.76999998
   17.12972260  135.74099731    0.50000000    2.76999998
   17.13277817  122.48500061    0.47999999    2.76999998
   17.13333321  118.36299896    0.47999999    2.76999998
   17.13916588  118.36299896    0.47999999    2.76999998
   17.14333344  132.06599426    0.50000000    2.78999996
   17.14638901  119.35700226    0.51999998    2.78999996
   17.14972115  124.82499695    0.51999998    2.76999998
   17.16722107  121.60099792    0.51999998    2.76999998
   17.16972160  118.72899628    0.51999998    2.76999998
   17.17305565  126.63700104    0.51999998    2.76999998
   17.17611122  126.24600220    0.52999997    2.76999998
   17.18222237  126.24600220    0.52999997    2.78999996
   17.18638802  120.89199829    0.50000000    2.76999998
   17.18944359  125.11299896    0.50000000    2.76999998
   17.19277763  118.33300018    0.50000000    2.76999998
   17.19610977  113.53299713    0.52999997    2.76999998
   17.19916534  122.12599945    0.52999997    2.76999998
   17.20055580  120.55599976    0.55000001    2.78999996
   17.20305634  127.63500214    0.52999997    2.76999998
   17.20611191  129.67900085    0.51999998    2.76999998
   17.20944595  126.70999908    0.51999998    2.76999998
   17.21250153  131.41200256    0.51999998    2.76999998
   17.21583366  123.47000122    0.51999998    2.76999998
   17.21916771  126.79399872    0.51999998    2.76999998
   17.22500038  126.79399872    0.55000001    2.78999996
   17.22916794  116.75000000    0.55000001    2.76999998
   17.23222351  122.72799683    0.52999997    2.78999996
   17.23388863  125.05300140    0.51999998    2.78999996
   17.23611069  129.67199707    0.51999998    2.76999998
   17.23916626  127.76499939    0.51999998    2.76999998
   17.24250031  127.01100159    0.50000000    2.76999998
   17.24583435  127.65499878    0.50000000    2.76999998
   17.24888992  118.20200348    0.50000000    2.78999996
   17.25222206  135.76400757    0.50000000    2.76999998
   17.25555611  128.11399841    0.50000000    2.76999998
   17.25861168  122.22399902    0.50000000    2.78999996
   17.26194382  125.16300201    0.50000000    2.78999996
   17.26777840  125.16300201    0.50000000    2.76999998
   17.27194405  129.89599609    0.51999998    2.76999998
   17.27527809  125.46199799    0.50000000    2.76999998
   17.27833366  127.31500244    0.50000000    2.76999998
   17.28166580  128.68499756    0.51999998    2.76999998
   17.28499985  130.91600037    0.50000000    2.76999998
   17.28805542  123.52500153    0.50000000    2.76999998
   17.29138756  122.67500305    0.50000000    2.76999998
   17.29444313  132.78300476    0.47999999    2.76999998
   17.29777718  126.79799652    0.47999999    2.78999996
   17.30055428  129.96400452    0.47999999    2.78999996
   17.30166626  134.81199646    0.47999999    2.76999998
   17.30472183  128.24099731    0.47999999    2.78999996
   17.31055450  128.24099731    0.51999998    2.76999998
   17.31472206  118.61199951    0.50000000    2.76999998
   17.31805611  128.57299805    0.47999999    2.76999998
   17.32139015  120.00499725    0.47999999    2.78999996
   17.32444572  128.51699829    0.47999999    2.76999998
   17.32777786  134.73300171    0.47999999    2.76999998
   17.33111191  132.04600525    0.61000001    2.76999998
   17.33388901  131.99200439    0.61000001    2.76999998
   17.33472252  130.39900208    0.61000001    2.76999998
   17.33777809  126.89900208    0.58999997    2.75000000
   17.34111214  117.98500061    0.55000001    2.76999998
   17.34416771  132.64100647    0.55000001    2.78999996
   17.34749985  127.88999939    0.55000001    2.78999996
   17.35361099  127.88999939    0.51999998    2.78999996
   17.35777855  129.89199829    0.52999997    2.76999998
   17.36083412  127.58899689    0.55000001    2.76999998
   17.36416626  136.40100098    0.56999999    2.76999998
   17.36722183  134.36500549    0.56999999    2.76999998
   17.36777878  131.22099304    0.56999999    2.76999998
   17.37111092  121.12300110    0.56999999    2.76999998
   17.37416649  121.84500122    0.56999999    2.75000000
   17.37750053  115.90899658    0.56999999    2.76999998
   17.38083267  126.29699707    0.56999999    2.76999998
   17.38388824  120.23500061    0.67000002    2.76999998
   17.38722229  130.04800415    0.55000001    2.76999998
   17.39055634  132.79800415    0.55000001    2.76999998
   17.39638901  132.79800415    0.51999998    2.76999998
   17.40055466  128.72900391    0.52999997    2.76999998
   17.40111160  137.59500122    0.52999997    2.76999998
   17.40416718  137.95700073    0.56999999    2.78999996
   17.40749931  138.02400208    0.56999999    2.76999998
   17.41083336  132.93600464    0.61000001    2.76999998
   17.41388893  134.30499268    0.69000000    2.76999998
   17.41722107  118.75099945    0.67000002    2.76999998
   17.42055511  127.55100250    0.67000002    2.76999998
   17.42361069  124.03600311    0.67000002    2.76999998
   17.42694473  115.91600037    0.56999999    2.76999998
   17.43000031  122.24500275    0.51999998    2.76999998
   17.43333244  131.02699280    0.52999997    2.76999998
   17.43388748  121.99700165    0.52999997    2.76999998
   17.43916512  121.99700165    0.50000000    2.78999996
   17.44333267  123.04399872    0.51999998    2.76999998
   17.44666672  134.08299255    0.52999997    2.76999998
   17.44972038  132.10600281    0.51999998    2.78999996
   17.45305634  127.92099762    0.47999999    2.76999998
   17.45611191  129.59800720    0.51999998    2.76999998
   17.45944595  126.14900208    0.51999998    2.76999998
   17.46277809  132.65499878    0.51999998    2.76999998
   17.46583366  127.91300201    0.51999998    2.78999996
   17.46722221  128.16099548    0.51999998    2.78999996
   17.46972275  120.29100037    0.51999998    2.76999998
   17.47277832  125.37300110    0.51999998    2.76999998
   17.47611237  130.21099854    0.51999998    2.75000000
   17.48194504  130.21099854    0.51999998    2.76999998
   17.48611069  134.07200623    0.61000001    2.76999998
   17.48944473  124.43000031    0.55000001    2.76999998
   17.49250031  122.07599640    0.55000001    2.76999998
   17.49583435  144.25399780    0.51999998    2.76999998
   17.49916649  121.89199829    0.47999999    2.78999996
   17.50055504  134.37699890    0.47999999    2.76999998
   17.50277710  127.58999634    0.47999999    2.76999998
   17.50583267  123.84899902    0.50000000    2.76999998
   17.50916672  120.35299683    0.50000000    2.76999998
   17.51250076  132.44400024    0.52999997    2.76999998
   17.51555634  137.90400696    0.55000001    2.76999998
   17.51888847  131.56900024    0.56999999    2.76999998
   17.52499962  131.56900024    0.55000001    2.76999998
   17.52888870  127.16500092    0.52999997    2.75000000
   17.53222275  130.34399414    0.52999997    2.76999998
   17.53388786  138.94900513    0.55000001    2.76999998
   17.53583336  131.72099304    0.52999997    2.76999998
   17.53888893  134.42199707    0.52999997    2.76999998
   17.54222107  117.23600006    0.52999997    2.76999998
   17.54555511  124.35600281    0.55000001    2.76999998
   17.54861069  121.99199677    0.55000001    2.76999998
   17.55194283  132.66200256    0.52999997    2.76999998
   17.55527687  131.77099609    0.55000001    2.75000000
   17.55833244  132.08099365    0.52999997    2.76999998
   17.56166649  125.78900146    0.51999998    2.76999998
   17.56777954  125.78900146    0.51999998    2.76999998
   17.57194519  130.58599854    0.50000000    2.76999998
   17.57500076  130.89999390    0.50000000    2.76999998
   17.57833481  129.52000427    0.50000000    2.76999998
   17.58166695  118.71399689    0.47999999    2.76999998
   17.58472252  128.93400574    0.46000001    2.76999998
   17.58805656  123.14700317    0.44000000    2.76999998
   17.59138870  122.45600128    0.46000001    2.76999998
   17.59444427  138.64799500    0.44000000    2.76999998
   17.59777832  125.14700317    0.46000001    2.75000000
   17.60055542  120.18800354    0.46000001    2.75000000
   17.60138893  120.06400299    0.47999999    2.76999998
   17.60444450  121.60500336    0.47999999    2.76999998
   17.61055565  121.60500336    0.47999999    2.76999998
   17.61472321  125.42800140    0.47999999    2.76999998
   17.61805534  124.74800110    0.50000000    2.76999998
   17.62111092  121.12100220    0.50000000    2.76999998
   17.62444496  129.18600464    0.50000000    2.76999998
   17.62750053  120.16899872    0.50000000    2.76999998
   17.63083267  126.60299683    0.51999998    2.76999998
   17.63388824  125.22699738    0.51999998    2.75000000
   17.63444519  123.70600128    0.51999998    2.75000000
   17.63750076  131.64999390    0.52999997    2.76999998
   17.64083290  129.91499329    0.52999997    2.76999998
   17.64416695  136.41900635    0.52999997    2.75000000
   17.64722252  127.32800293    0.55000001    2.76999998
   17.65333366  127.32800293    0.55000001    2.76999998
   17.65749931  125.61699677    0.55000001    2.75000000
   17.66083336  129.10400391    0.55000001    2.76999998
   17.66416550  128.44000244    0.55000001    2.76999998
   17.66722107  120.74600220    0.55000001    2.76999998
   17.66777802  127.44300079    0.55000001    2.75000000
   17.67083359  125.85900116    0.55000001    2.75000000
   17.67416573  130.04499817    0.55000001    2.76999998
   17.67749977  131.34700012    0.55000001    2.75000000
   17.68055534  109.48699951    0.55000001    2.75000000
   17.68388748  110.59899902    0.56999999    2.76999998
   17.68722153  123.34999847    0.56999999    2.76999998
   17.69027710  122.10500336    0.56999999    2.76999998
   17.69638824  122.10500336    0.56999999    2.76999998
   17.70027924  117.08799744    0.58999997    2.75000000
   17.70083427  115.62500000    0.58999997    2.75000000
   17.70416832  130.36099243    0.58999997    2.76999998
   17.70750046  120.83699799    0.58999997    2.75000000
   17.71055603  134.03100586    0.61000001    2.75000000
   17.71389008  125.84899902    0.58999997    2.75000000
   17.71722221  128.26600647    0.58999997    2.76999998
   17.72027779  120.72699738    0.58999997    2.75000000
   17.72361183  131.72999573    0.58999997    2.75000000
   17.72666740  128.04299927    0.58999997    2.76999998
   17.73000145  112.41500092    0.56999999    2.75000000
   17.73333359  120.23699951    0.56999999    2.75000000
   17.73416710  132.17199707    0.56999999    2.75000000
   17.73916626  132.17199707    0.56999999    2.76999998
   17.74333382  121.70099640    0.56999999    2.76999998
   17.74638939  123.85399628    0.56999999    2.75000000
   17.74972153  121.96099854    0.56999999    2.76999998
   17.75305557  114.13999939    0.56999999    2.75000000
   17.75638962  120.74400330    0.56999999    2.75000000
   17.75944519  115.17400360    0.56999999    2.75000000
   17.76277733  123.48600006    0.58999997    2.76999998
   17.76583290  118.37000275    0.58999997    2.75000000
   17.76749992  120.96600342    0.64999998    2.75000000
   17.76944351  124.08300018    0.64999998    2.75000000
   17.77277756  116.30699921    0.64999998    2.76999998
   17.77583313  125.88999939    0.67000002    2.75000000
   17.78194427  125.88999939    0.64999998    2.76999998
   17.78610992  125.83899689    0.67000002    2.75000000
   17.78944397  124.99600220    0.64999998    2.75000000
   17.79249954  121.50700378    0.67000002    2.75000000
   17.79583359  125.82800293    0.61000001    2.75000000
   17.79888916  118.23600006    0.61000001    2.76999998
   17.80083275  128.88499451    0.61000001    2.75000000
   17.80249977  121.96299744    0.63000000    2.76999998
   17.80583191  102.99199677    0.61000001    2.75000000
   17.80888748  116.39800262    0.61000001    2.75000000
   17.81222153  111.23799896    0.61000001    2.75000000
   17.81555557  124.81800079    0.58999997    2.75000000
   17.81861115  117.50800323    0.56999999    2.75000000
   17.82500076  117.50800323    0.58999997    2.75000000
   17.82888985  109.88200378    0.61000001    2.75000000
   17.83222389  116.55899811    0.63000000    2.75000000
   17.83444595  120.19799805    0.63000000    2.75000000
   17.83583450  119.61199951    0.63000000    2.75000000
   17.83916664  118.70600128    0.69000000    2.75000000
   17.84222221  110.44200134    0.70999998    2.73000002
   17.84555626  110.25099945    0.73000002    2.75000000
   17.84889030  109.04000092    0.73000002    2.75000000
   17.85194397  114.07299805    0.70999998    2.75000000
   17.85527802  123.44100189    0.70999998    2.75000000
   17.85861206  116.70200348    0.69000000    2.75000000
   17.86166763  112.14800262    0.69000000    2.75000000
   17.86777878  112.14800262    0.69000000    2.75000000
   17.87166595  110.08000183    0.69000000    2.75000000
   17.87500000  114.53800201    0.69000000    2.75000000
   17.87833405  118.67500305    0.69000000    2.75000000
   17.88138962  121.79699707    0.69000000    2.75000000
   17.88472176  111.11599731    0.67000002    2.75000000
   17.88805580  117.05000305    0.67000002    2.75000000
   17.89111137  122.34799957    0.67000002    2.75000000
   17.89444351  103.09700012    0.64999998    2.75000000
   17.89749908  115.50499725    0.63000000    2.75000000
   17.90083313  107.61699677    0.63000000    2.73000002
   17.90277672  115.55000305    0.63000000    2.73000002
   17.90444374  108.83499908    0.63000000    2.75000000
   17.91055489  108.83499908    0.64999998    2.75000000
   17.91472244  111.45099640    0.64999998    2.75000000
   17.91777802  113.12100220    0.63000000    2.75000000
   17.92111015  120.15200043    0.63000000    2.75000000
   17.92444420  112.04299927    0.63000000    2.75000000
   17.92749977  123.38800049    0.63000000    2.73000002
   17.93083191  124.40599823    0.63000000    2.75000000
   17.93388748  122.31700134    0.63000000    2.75000000
   17.93610954  113.40299988    0.63000000    2.75000000
   17.93777657  119.02600098    0.63000000    2.75000000
   17.94083214  112.10700226    0.63000000    2.75000000
   17.94416618  111.57199860    0.63000000    2.73000002
   17.94722176  115.78700256    0.63000000    2.73000002
   17.95333481  115.78700256    0.63000000    2.75000000
   17.95750046  106.72100067    0.63000000    2.75000000
   17.96083450  123.19999695    0.61000001    2.73000002
   17.96389008  112.50900269    0.63000000    2.75000000
   17.96722221  124.91699982    0.61000001    2.75000000
   17.96972275  117.44100189    0.58999997    2.73000002
   17.97083473  116.65100098    0.58999997    2.73000002
   17.97416687  115.16699982    0.58999997    2.75000000
   17.97722244  120.25299835    0.56999999    2.75000000
   17.98055649  115.83599854    0.55000001    2.75000000
   17.98388863  111.71199799    0.55000001    2.75000000
   17.98694420  116.95099640    0.52999997    2.75000000
   17.99027824  108.30599976    0.55000001    2.75000000
   17.99611092  108.30599976    0.52999997    2.75000000
   18.00027847  112.56199646    0.55000001    2.75000000
   18.00305557   99.71150208    0.55000001    2.75000000
   18.00388908  104.69799805    0.55000001    2.73000002
   18.00722313  105.94200134    0.55000001    2.73000002
   18.01027870  110.82499695    0.55000001    2.75000000
   18.01361084  109.23999786    0.55000001    2.75000000
   18.01694489  117.17600250    0.58999997    2.75000000
   18.02000046  113.61599731    0.58999997    2.75000000
   18.02333260  113.79299927    0.61000001    2.75000000
   18.02666664  108.01499939    0.63000000    2.75000000
   18.02972221  110.26699829    0.63000000    2.75000000
   18.03305435  110.72200012    0.63000000    2.75000000
   18.03916550  110.72200012    0.64999998    2.73000002
   18.04305458  109.21099854    0.67000002    2.75000000
   18.04638863  114.92900085    0.64999998    2.75000000
   18.04972076  112.37599945    0.67000002    2.73000002
   18.05277634  111.01200104    0.64999998    2.73000002
   18.05611038  109.68099976    0.64999998    2.73000002
   18.05944443  112.25000000    0.63000000    2.75000000
   18.06250000  105.75900269    0.61000001    2.75000000
   18.06583214  110.54599762    0.58999997    2.75000000
   18.06916809  114.47399902    0.61000001    2.73000002
   18.07000160  102.20800018    0.61000001    2.73000002
   18.07250023  111.23000336    0.63000000    2.73000002
   18.07583427  109.70999908    0.64999998    2.75000000
   18.08194542  109.70999908    0.67000002    2.75000000
   18.08611107  104.56600189    0.67000002    2.75000000
   18.08916664  114.84400177    0.70999998    2.71000004
   18.09250069  109.16999817    0.70999998    2.73000002
   18.09583473  116.97200012    0.70999998    2.75000000
   18.09889030  116.85299683    0.70999998    2.73000002
   18.10222244  104.59500122    0.70999998    2.73000002
   18.10333443  104.48899841    0.69000000    2.73000002
   18.10583305  113.90699768    0.69000000    2.73000002
   18.10916710  111.37400055    0.69000000    2.73000002
   18.11250114  118.32199860    0.67000002    2.75000000
   18.11555672  116.50599670    0.67000002    2.75000000
   18.11888885  124.15799713    0.69000000    2.73000002
   18.12472153  124.15799713    0.67000002    2.75000000
   18.12888908  112.87999725    0.67000002    2.73000002
   18.13222313  114.58200073    0.67000002    2.73000002
   18.13527679  106.69300079    0.69000000    2.73000002
   18.13694382  116.80799866    0.69000000    2.73000002
   18.13888931  113.69599915    0.69000000    2.73000002
   18.14222145  114.54900360    0.67000002    2.73000002
   18.14527702  104.55799866    0.64999998    2.73000002
   18.14861107  113.77500153    0.64999998    2.73000002
   18.15194321  116.83300018    0.63000000    2.73000002
   18.15499878  123.05699921    0.61000001    2.75000000
   18.15833282  114.64299774    0.56999999    2.75000000
   18.16166687  118.43099976    0.58999997    2.75000000
   18.16749954  118.43099976    0.58999997    2.73000002
   18.18610954  121.37699890    0.56999999    2.75000000
   18.18916512  119.87200165    0.56999999    2.73000002
   18.19249916  108.95500183    0.56999999    2.73000002
   18.19555473  124.85099792    0.58999997    2.73000002
   18.19888878  116.98899841    0.58999997    2.75000000
   18.20222282  121.54699707    0.56999999    2.73000002
   18.20527840  114.72200012    0.56999999    2.73000002
   18.21055603  114.72200012    0.56999999    2.73000002
   18.21472359  116.96399689    0.56999999    2.75000000
   18.21805573  111.41600037    0.61000001    2.73000002
   18.21916771  107.22499847    0.61000001    2.73000002
   18.22166634  109.61199951    0.61000001    2.73000002
   18.22500038  112.96199799    0.63000000    2.73000002
   18.22805595  120.49600220    0.64999998    2.73000002
   18.23139000  111.16000366    0.64999998    2.73000002
   18.23472214  118.35099792    0.67000002    2.73000002
   18.23777771  120.70999908    0.67000002    2.73000002
   18.24111176  124.58599854    0.67000002    2.73000002
   18.24444389  127.90299988    0.67000002    2.71000004
   18.24749947  127.73200226    0.67000002    2.73000002
   18.25361061  127.73200226    0.67000002    2.73000002
   18.25777817  124.56800079    0.69000000    2.75000000
   18.26083374  117.55200195    0.67000002    2.73000002
   18.26416588  115.62500000    0.64999998    2.73000002
   18.26722145  121.15599823    0.63000000    2.73000002
   18.27055550  111.60600281    0.63000000    2.73000002
   18.27388954  109.29000092    0.63000000    2.73000002
   18.27694511  123.80500031    0.63000000    2.73000002
   18.28027725  125.27400208    0.61000001    2.73000002
   18.28361130  114.43699646    0.61000001    2.73000002
   18.28583336  123.73300171    0.61000001    2.73000002
   18.28722191  124.78399658    0.61000001    2.73000002
   18.29055595  118.48300171    0.61000001    2.73000002
   18.29638863  118.48300171    0.63000000    2.73000002
   18.30055428  115.37500000    0.64999998    2.73000002
   18.30360985  124.46199799    0.67000002    2.75000000
   18.30694389  115.30999756    0.70999998    2.73000002
   18.31027794  120.79399872    0.70999998    2.73000002
   18.31333351  111.41699982    0.75000000    2.73000002
   18.31666756  129.12699890    0.76999998    2.73000002
   18.31916809  123.95300293    0.76999998    2.73000002
   18.32027817  109.52600098    0.76999998    2.71000004
   18.32361221  127.45700073    0.79000002    2.73000002
   18.32666779  117.31800079    0.86000001    2.73000002
   18.33000183  116.83699799    0.83999997    2.71000004
   18.33333397  116.06099701    0.86000001    2.73000002
   18.33916664  116.06099701    0.70999998    2.71000004
   18.34333420  112.11100006    0.70999998    2.73000002
   18.34666824  120.47399902    0.69000000    2.73000002
   18.34972191  111.93099976    0.69000000    2.73000002
   18.35250092  119.68499756    0.70999998    2.73000002
   18.35333443  124.42099762    0.70999998    2.73000002
   18.35666656  124.85199738    0.69000000    2.71000004
   18.36000061  121.01699829    0.67000002    2.73000002
   18.36305618  113.62699890    0.64999998    2.71000004
   18.36638832  114.25399780    0.64999998    2.73000002
   18.36944389  106.64299774    0.64999998    2.75000000
   18.37277794  124.22100067    0.64999998    2.75000000
   18.37611198  125.12799835    0.64999998    2.73000002
   18.38194466  125.12799835    0.64999998    2.73000002
   18.38611031  117.67600250    0.64999998    2.73000002
   18.38944435  118.88800049    0.64999998    2.75000000
   18.39277840  115.03900146    0.64999998    2.73000002
   18.39583397  121.47799683    0.64999998    2.73000002
   18.39916611  117.53099823    0.67000002    2.71000004
   18.40222168  114.73200226    0.64999998    2.73000002
   18.40555573  116.70200348    0.64999998    2.73000002
   18.40888786  116.05500031    0.63000000    2.71000004
   18.41194344  118.64499664    0.64999998    2.73000002
   18.41527748  122.19999695    0.63000000    2.71000004
   18.41860962  119.82499695    0.63000000    2.75000000
   18.41916656  104.10800171    0.63000000    2.75000000
   18.42499924  104.10800171    0.63000000    2.73000002
   18.42916679  112.44300079    0.63000000    2.73000002
   18.43222237  116.71499634    0.64999998    2.73000002
   18.43555450  126.20800018    0.64999998    2.73000002
   18.43888855  116.78700256    0.64999998    2.73000002
   18.44194412  113.43499756    0.67000002    2.73000002
   18.44527626  117.15399933    0.67000002    2.73000002
   18.44833183  117.09899902    0.67000002    2.73000002
   18.45166779  118.87300110    0.70999998    2.71000004
   18.45250130  117.55799866    0.70999998    2.73000002
   18.45527840  112.21199799    0.73000002    2.71000004
   18.45861244  115.35700226    0.73000002    2.71000004
   18.46166801  118.12100220    0.70999998    2.73000002
   18.46777916  118.12100220    0.69000000    2.71000004
   18.47194481  111.14600372    0.69000000    2.71000004
   18.47500038  123.97599792    0.69000000    2.71000004
   18.47833443  108.12000275    0.69000000    2.71000004
   18.48166656  121.47599792    0.70999998    2.73000002
   18.48472214  126.67299652    0.70999998    2.71000004
   18.48583412  121.91000366    0.70999998    2.71000004
   18.48833275  114.78099823    0.73000002    2.71000004
   18.49166679  119.72699738    0.73000002    2.71000004
   18.49500084  117.51499939    0.73000002    2.71000004
   18.49805641  122.27300262    0.73000002    2.73000002
   18.50138855  127.05200195    0.75000000    2.71000004
   18.50444412  116.61699677    0.76999998    2.71000004
   18.51055527  116.61699677    0.76999998    2.71000004
   18.51472282  125.93499756    0.76999998    2.71000004
   18.51805496  128.75500488    0.76999998    2.71000004
   18.51916695  121.55599976    0.76999998    2.71000004
   18.52138901  119.36699677    0.76999998    2.71000004
   18.52472115  127.67199707    0.79000002    2.71000004
   18.52805519  125.87500000    0.79000002    2.71000004
   18.53111076  115.01599884    0.79000002    2.71000004
   18.53444481  117.55999756    0.79000002    2.71000004
   18.53750038  112.55799866    0.79000002    2.69000006
   18.54083252  118.11299896    0.80000001    2.73000002
   18.54416656  116.51300049    0.80000001    2.71000004
   18.54722214  115.27400208    0.80000001    2.71000004
   18.55360985  115.27400208    0.81999999    2.71000004
   18.55749893  122.19799805    0.81999999    2.71000004
   18.56083298  117.48400116    0.83999997    2.71000004
   18.56416512  125.93499756    0.81999999    2.71000004
   18.56722260  124.90699768    0.81999999    2.71000004
   18.57055664  129.71000671    0.83999997    2.71000004
   18.57389069  122.23100281    0.83999997    2.69000006
   18.57694626  109.84200287    0.83999997    2.71000004
   18.58027840  138.16700745    0.83999997    2.69000006
   18.58333397  124.01999664    0.83999997    2.71000004
   18.58583450  134.55099487    0.83999997    2.71000004
   18.58694458  118.34999847    0.83999997    2.71000004
   18.59027863  115.22699738    0.83999997    2.71000004
   18.59638977  115.22699738    0.83999997    2.71000004
   18.60055542  123.22000122    0.81999999    2.69000006
   18.60361099  117.71600342    0.81999999    2.71000004
   18.60694504  124.47899628    0.81999999    2.69000006
   18.61000061  122.71299744    0.83999997    2.71000004
   18.61333466  124.53700256    0.83999997    2.71000004
   18.61666679  120.99900055    0.83999997    2.71000004
   18.61916733  127.61299896    0.83999997    2.71000004
   18.62000084  122.38800049    0.83999997    2.71000004
   18.62333298  116.01499939    0.83999997    2.71000004
   18.62666702  116.37100220    0.83999997    2.71000004
   18.62972260  130.21400452    0.86000001    2.71000004
   18.63305473  129.85400391    0.86000001    2.69000006
   18.63916588  129.85400391    0.88000000    2.71000004
   18.64333344  140.04699707    0.89999998    2.71000004
   18.64638901  121.38600159    0.88000000    2.71000004
   18.64972115  141.79699707    0.89999998    2.71000004
   18.65250015  128.94700623    0.89999998    2.69000006
   18.65333366  130.61599731    0.89999998    2.69000006
   18.65666580  127.13300323    0.89999998    2.69000006
   18.65999985  122.37400055    0.89999998    2.69000006
   18.66305542  115.45500183    0.92000002    2.69000006
   18.66638756  134.36799622    0.92000002    2.69000006
   18.66944313  136.25199890    0.94000000    2.69000006
   18.67277718  128.55799866    0.92000002    2.69000006
   18.67611122  126.05999756    0.94000000    2.69000006
   18.68194389  126.05999756    0.92000002    2.69000006
   18.68610954  116.18599701    0.92000002    2.69000006
   18.68944359  132.27400208    0.92000002    2.69000006
   18.69277763  130.60299683    0.94000000    2.69000006
   18.69583321  132.39100647    0.94000000    2.71000004
   18.69916534  126.01399994    0.94000000    2.69000006
   18.70222282  124.71600342    0.94000000    2.69000006
   18.70555687  131.99000549    0.95999998    2.69000006
   18.70888901  131.01400757    0.95999998    2.69000006
   18.71194458  130.94099426    0.95999998    2.69000006
   18.71527863  121.37400055    0.95999998    2.69000006
   18.71861076  138.52000427    0.95999998    2.69000006
   18.71916771  129.11000061    0.95999998    2.69000006
   18.72472191  129.11000061    0.95999998    2.69000006
   18.72888947  119.93199921    0.95999998    2.69000006
   18.73222351  129.11500549    0.95999998    2.69000006
   18.73555565  137.91000366    0.94000000    2.69000006
   18.73861122  129.08000183    0.94000000    2.69000006
   18.74194527  131.94799805    0.94000000    2.69000006
   18.74500084  137.15299988    0.92000002    2.69000006
   18.74833298  140.93600464    0.92000002    2.67000008
   18.75166702  126.47699738    0.89999998    2.69000006
   18.75250053  142.06300354    0.92000002    2.67000008
   18.75499916  125.95800018    0.89999998    2.69000006
   18.75833321  128.77400208    0.89999998    2.69000006
   18.76166725  124.55300140    0.88000000    2.69000006
   18.76777840  124.55300140    0.88000000    2.69000006
   18.77194405  123.71900177    0.88000000    2.69000006
   18.77499962  135.00500488    0.88000000    2.69000006
   18.77833366  134.97599792    0.88000000    2.69000006
   18.78166580  128.65800476    0.88000000    2.69000006
   18.78472137  125.76399994    0.86000001    2.69000006
   18.78583336  126.13700104    0.86000001    2.69000006
   18.78833199  125.07800293    0.86000001    2.67000008
   18.79166603  132.96600342    0.86000001    2.69000006
   18.79500008  121.57900238    0.86000001    2.69000006
   18.79805565  124.83999634    0.86000001    2.69000006
   18.80138779  118.07800293    0.86000001    2.69000006
   18.80472183  115.67500305    0.86000001    2.69000006
   18.81055450  115.67500305    0.88000000    2.69000006
   18.81472206  140.18600464    0.88000000    2.69000006
   18.81777954  118.89499664    0.89999998    2.69000006
   18.81916809  125.97699738    0.89999998    2.69000006
   18.82139015  128.80200195    0.89999998    2.69000006
   18.82472229  134.59199524    0.89999998    2.69000006
   18.82805634  123.42800140    0.92000002    2.69000006
   18.83111191  122.55300140    0.92000002    2.69000006
   18.83444595  136.82200623    0.92000002    2.69000006
   18.83777809  127.19699860    0.92000002    2.67000008
   18.84083366  105.82800293    0.92000002    2.67000008
   18.84416771  133.55299377    0.92000002    2.69000006
   18.84722328  132.08299255    0.92000002    2.67000008
   18.85333443  132.08299255    0.92000002    2.67000008
   18.85750008  123.53900146    0.94000000    2.67000008
   18.86083412  120.89399719    0.94000000    2.67000008
   18.86416626  127.01899719    0.94000000    2.67000008
   18.86750031  135.68800354    0.94000000    2.67000008
   18.87055588  135.11799622    0.94000000    2.69000006
   18.87388992  115.30200195    0.94000000    2.67000008
   18.87694550  128.74099731    0.94000000    2.67000008
   18.88027763  132.85200500    0.95999998    2.67000008
   18.88361168  130.97900391    0.95999998    2.67000008
   18.88583374  132.71200562    0.95999998    2.67000008
   18.88694382  137.80099487    0.95999998    2.67000008
   18.89027786  149.52000427    0.95999998    2.67000008
   18.89611053  149.52000427    0.95999998    2.67000008
   18.90027809  126.55300140    0.95999998    2.67000008
   18.90361023  124.22200012    0.98000002    2.67000008
   18.90694427  146.21299744    0.95999998    2.67000008
   18.90999985  135.50199890    0.98000002    2.67000008
   18.91333389  119.98000336    0.95999998    2.66000009
   18.91638756  115.75299835    0.95999998    2.67000008
   18.91916656  128.29899597    0.95999998    2.67000008
   18.92000008  125.03900146    0.95999998    2.67000008
   18.92333221  124.22100067    0.95999998    2.67000008
   18.92666626  126.53600311    0.98000002    2.67000008
   18.92972183  123.28199768    0.98000002    2.67000008
   18.93305397  133.12699890    0.95999998    2.67000008
   18.93916512  133.12699890    0.98000002    2.67000008
   18.94333267  143.15100098    0.98000002    2.67000008
   18.94638824  123.03299713    0.98000002    2.67000008
   18.94972038  126.58799744    0.98000002    2.67000008
   18.95250130  131.17500305    0.98000002    2.67000008
   18.95333481  127.12300110    0.98000002    2.67000008
   18.95666695  145.47200012    1.00000000    2.67000008
   18.96000099  120.67500305    0.98000002    2.66000009
   18.96305656  140.19999695    1.00000000    2.67000008
   18.96638870  143.81599426    1.00000000    2.67000008
   18.96972275  134.63099670    1.00000000    2.67000008
   18.97277832  121.23400116    1.00000000    2.66000009
   18.97611237  133.26300049    1.00000000    2.66000009
   18.98194504  133.26300049    1.00000000    2.66000009
   18.98611069  127.40499878    0.98000002    2.67000008
   18.98916626  129.62199402    0.98000002    2.66000009
   18.99250031  126.60399628    0.98000002    2.67000008
   18.99583435  138.38200378    0.95999998    2.67000008
   18.99888992  131.23599243    0.95999998    2.66000009
   19.00222206  130.68200684    0.95999998    2.67000008
   19.00555611  125.50199890    0.95999998    2.67000008
   19.00861168  131.19500732    0.95999998    2.66000009
   19.01194382  111.40000153    0.95999998    2.66000009
   19.01527786  119.44300079    0.95999998    2.66000009
   19.01833344  128.13600159    0.98000002    2.66000009
   19.01916695  129.79600525    0.98000002    2.66000009
   19.02472115  129.79600525    0.98000002    2.66000009
   19.02888870  138.09500122    0.98000002    2.67000008
   19.03222275  146.66200256    0.98000002    2.66000009
   19.03527641  148.83200073    0.98000002    2.66000009
   19.03861046  142.57000732    1.00000000    2.67000008
   19.04194450  139.71600342    0.98000002    2.66000009
   19.04500008  128.97799683    0.98000002    2.66000009
   19.04833221  129.34100342    1.00000000    2.66000009
   19.05138779  137.14100647    1.00000000    2.66000009
   19.05249977  145.13099670    1.00000000    2.66000009
   19.05527687  129.34599304    1.00000000    2.66000009
   19.05833244  134.08000183    1.01999998    2.67000008
   19.06166649  154.97099304    1.01999998    2.66000009
   19.06750107  154.97099304    1.01999998    2.66000009
   19.07166672  133.58500671    1.03999996    2.66000009
   19.07500076  131.72700500    1.03999996    2.66000009
   19.07833481  128.94999695    1.03999996    2.67000008
   19.08139038  146.66499329    1.03999996    2.66000009
   19.08472252  142.11000061    1.05999994    2.66000009
   19.08583450  124.35700226    1.05999994    2.66000009
   19.08833313  133.00399780    1.05999994    2.67000008
   19.09138870  128.84599304    1.05999994    2.67000008
   19.09472275  137.75799561    1.03999996    2.66000009
   19.09777832  127.95700073    1.05999994    2.64000010
   19.10111237  131.46299744    1.03999996    2.66000009
   19.10444450  120.91699982    1.05999994    2.64000010
   19.11055565  120.91699982    1.05999994    2.67000008
   19.11472321  121.33999634    1.05999994    2.66000009
   19.11777878  154.63600159    1.07000005    2.66000009
   19.11916733  141.67599487    1.07000005    2.66000009
   19.12166595  143.26899719    1.07000005    2.64000010
   19.12472153  132.99200439    1.07000005    2.64000010
   19.12805557  125.98699951    1.07000005    2.64000010
   19.13111115  152.32000732    1.07000005    2.66000009
   19.13444519  147.73599243    1.09000003    2.64000010
   19.13777733  134.94599915    1.07000005    2.66000009
   19.14083290  136.27799988    1.09000003    2.66000009
   19.14416695  136.29299927    1.09000003    2.64000010
   19.14749908  125.19699860    1.07000005    2.64000010
   19.15333366  125.19699860    1.09000003    2.64000010
   19.15749931  129.03199768    1.09000003    2.64000010
   19.16055489  139.17300415    1.09000003    2.64000010
   19.16388893  121.58100128    1.09000003    2.64000010
   19.16722107  126.94100189    1.09000003    2.64000010
   19.17027664  120.90000153    1.07000005    2.64000010
   19.17361069  123.04699707    1.09000003    2.66000009
   19.17694473  137.72399902    1.09000003    2.66000009
   19.18000031  137.15100098    1.07000005    2.66000009
   19.18333244  126.60500336    1.07000005    2.64000010
   19.18583298  122.15899658    1.07000005    2.64000010
   19.20639038  122.15899658    1.09000003    2.64000010
   19.21055603  131.60099792    1.09000003    2.64000010
   19.21389008  131.18299866    1.07000005    2.66000009
   19.21694565  130.20399475    1.07000005    2.64000010
   19.21916771  139.41000366    1.07000005    2.64000010
   19.22083473  125.97399902    1.07000005    2.64000010
   19.22389030  126.83200073    1.07000005    2.64000010
   19.22722244  127.82900238    1.07000005    2.61999989
   19.23055649  116.59200287    1.05999994    2.64000010
   19.23361206  147.88900757    1.05999994    2.64000010
   19.23694420  129.94700623    1.05999994    2.64000010
   19.24027824  125.81700134    1.05999994    2.64000010
   19.24333382  129.01400757    1.05999994    2.64000010
   19.24916649  129.01400757    1.07000005    2.64000010
   19.25333405  135.97500610    1.05999994    2.64000010
   19.25666618  143.96800232    1.05999994    2.64000010
   19.25972176  131.68699646    1.05999994    2.64000010
   19.26305580  140.78999329    1.05999994    2.66000009
   19.26638794  136.48199463    1.05999994    2.64000010
   19.26944351  134.38800049    1.07000005    2.64000010
   19.27277756  143.28700256    1.05999994    2.64000010
   19.27583313  117.65599823    1.07000005    2.64000010
   19.27916718  131.17100525    1.07000005    2.64000010
   19.28249931  143.52000427    1.07000005    2.64000010
   19.28555489  133.61599731    1.05999994    2.64000010
   19.28610992  139.09100342    1.05999994    2.64000010
   19.29194450  139.09100342    1.07000005    2.61999989
   19.29611015  136.37899780    1.07000005    2.64000010
   19.29944420  134.33500671    1.07000005    2.64000010
   19.30277634  132.61300659    1.07000005    2.64000010
   19.30583191  125.01200104    1.09000003    2.61999989
   19.30916595  130.36700439    1.09000003    2.64000010
   19.31222153  133.36199951    1.09000003    2.61999989
   19.31555557  135.03399658    1.11000001    2.64000010
   19.31888962  115.86100006    1.11000001    2.64000010
   19.31944466  148.31399536    1.11000001    2.64000010
   19.32250023  132.04100037    1.13000000    2.64000010
   19.32583427  135.64199829    1.13000000    2.61999989
   19.32888985  128.75399780    1.13000000    2.61999989
   19.33500099  128.75399780    1.13000000    2.61999989
   19.33916664  129.28500366    1.13000000    2.61999989
   19.34222221  121.47200012    1.13000000    2.61999989
   19.34555626  139.94200134    1.13000000    2.61999989
   19.34861183  143.88900757    1.14999998    2.61999989
   19.35194397  128.76199341    1.13000000    2.61999989
   19.35277748  133.34500122    1.13000000    2.61999989
   19.35555649  138.12500000    1.13000000    2.61999989
   19.35888863  129.33000183    1.13000000    2.61999989
   19.36194420  136.49200439    1.13000000    2.61999989
   19.36527824  126.34999847    1.14999998    2.61999989
   19.36861038  126.89299774    1.14999998    2.61999989
   19.37166595  126.93800354    1.16999996    2.61999989
   19.37777710  126.93800354    1.19000006    2.61999989
   19.38194466  130.72500610    1.21000004    2.61999989
   19.38500023  149.64599609    1.21000004    2.61999989
   19.38611031  134.54899597    1.23000002    2.61999989
   19.38888931  131.83799744    1.23000002    2.61999989
   19.39222145  123.02300262    1.23000002    2.61999989
   19.39527702  130.41799927    1.25000000    2.61999989
   19.39861107  128.05799866    1.25000000    2.61999989
   19.40166664  135.58799744    1.25000000    2.61999989
   19.40499878  143.78199768    1.25000000    2.61999989
   19.40833282  131.32299805    1.25000000    2.61999989
   19.41138840  142.50999451    1.25000000    2.59999990
   19.41472244  134.72500610    1.25000000    2.61999989
   19.42055511  134.72500610    1.26999998    2.61999989
   19.42472076  136.70399475    1.26999998    2.61999989
   19.42805481  127.39499664    1.26999998    2.59999990
   19.43111038  135.28500366    1.26999998    2.61999989
   19.43444443  133.33599854    1.26999998    2.59999990
   19.43777657  138.46400452    1.26999998    2.61999989
   19.44083214  132.92700195    1.26999998    2.61999989
   19.44416618  137.08999634    1.26999998    2.61999989
   19.44749832  122.06999969    1.25000000    2.59999990
   19.45055580  134.96499634    1.25000000    2.59999990
   19.45277786  137.41600037    1.25000000    2.59999990
   19.45416832  138.77999878    1.25000000    2.59999990
   19.45750046  131.36500549    1.26999998    2.61999989
   19.46333504  131.36500549    1.26999998    2.59999990
   19.46750069  131.66000366    1.28999996    2.59999990
   19.47083473  141.27200317    1.28999996    2.59999990
   19.47416687  134.49699402    1.30999994    2.59999990
   19.47722244  143.74499512    1.28999996    2.59999990
   19.48055649  148.45799255    1.30999994    2.59999990
   19.48361206  132.09300232    1.30999994    2.59999990
   19.48611069  145.87100220    1.30999994    2.59999990
   19.48750114  128.44799805    1.30999994    2.59999990
   19.49083328  151.58999634    1.30999994    2.59999990
   19.49388885  124.89700317    1.30999994    2.59999990
   19.49722290  138.67199707    1.30999994    2.59999990
   19.50027847  143.39999390    1.33000004    2.59999990
   19.50638962  143.39999390    1.33000004    2.59999990
   19.51055527  117.26899719    1.33000004    2.59999990
   19.51361084  136.97700500    1.33000004    2.59999990
   19.51694489  135.67199707    1.33000004    2.59999990
   19.51944351  137.40299988    1.33000004    2.59999990
   19.52055550  125.44000244    1.33000004    2.57999992
   19.52388954  128.16799927    1.33000004    2.57999992
   19.52694511  137.02099609    1.33000004    2.59999990
   19.53027725  129.49499512    1.33000004    2.59999990
   19.53333282  136.63099670    1.33000004    2.59999990
   19.53666687  134.42399597    1.33000004    2.57999992
   19.53999901  117.50099945    1.33000004    2.59999990
   19.54305458  131.62800598    1.33000004    2.57999992
   19.54916573  131.62800598    1.33000004    2.57999992
   19.55333328  149.56300354    1.38000000    2.59999990
   19.55638885  149.52600098    1.38000000    2.57999992
   19.55972099  148.87899780    1.38000000    2.57999992
   19.56305504  146.22700500    1.39999998    2.57999992
   19.56611061  123.53299713    1.39999998    2.59999990
   19.56944466  130.72000122    1.39999998    2.57999992
   19.57277870  143.85899353    1.38000000    2.57999992
   19.57583427  141.75100708    1.39999998    2.57999992
   19.57916832  136.53599548    1.39999998    2.57999992
   19.58222389  149.28500366    1.41999996    2.57999992
   19.58555603  129.34500122    1.44000006    2.57999992
   19.58611107  136.01499939    1.44000006    2.57999992
   19.59194565  136.01499939    1.41999996    2.57999992
   19.59611130  148.66700745    1.41999996    2.57999992
   19.59944534  140.72200012    1.41999996    2.55999994
   19.60250092  153.48500061    1.41999996    2.57999992
   19.60583305  148.61799622    1.41999996    2.57999992
   19.60916710  146.13499451    1.41999996    2.57999992
   19.61222267  150.26699829    1.39999998    2.57999992
   19.61555672  140.49299622    1.39999998    2.57999992
   19.61861038  143.86300659    1.38000000    2.55999994
   19.61944389  142.96299744    1.36000001    2.57999992
   19.62222290  144.93600464    1.36000001    2.57999992
   19.62555504  141.64599609    1.38000000    2.57999992
   19.62861061  141.16900635    1.38000000    2.55999994
   19.63472176  141.16900635    1.39999998    2.57999992
   19.63888931  157.64399719    1.41999996    2.55999994
   19.64222145  142.29400635    1.41999996    2.55999994
   19.64555550  146.46899414    1.41999996    2.55999994
   19.64861107  155.72300720    1.41999996    2.55999994
   19.65194321  157.87500000    1.41999996    2.55999994
   19.65277672  164.34399414    1.41999996    2.55999994
   19.65555573  183.52200317    1.41999996    2.55999994
   19.65888786  210.74000549    1.39999998    2.55999994
   19.66194344  248.18899536    1.39999998    2.55999994
   19.66527748  267.30999756    1.38000000    2.55999994
   19.66860962  299.51998901    1.39999998    2.55999994
   19.67166519  332.34500122    1.39999998    2.55999994
   19.67777634  332.34500122    1.41999996    2.55999994
   19.68194389   36.20500183    1.41999996    2.55999994
   19.68499947   -1.00000000    1.41999996    2.55999994
   19.68861008   -1.00000000    1.44000006    2.57999992
   19.69166565   -1.00000000    1.41999996    2.55999994
   19.69499969   -1.00000000    1.44000006    2.55999994
   19.69833183   -1.00000000    1.46000004    2.55999994
   19.70138931   -1.00000000    1.44000006    2.55999994
   19.70472336   -1.00000000    1.44000006    2.55999994
   19.70777893   -1.00000000    1.44000006    2.55999994
   19.71111107   -1.00000000    1.44000006    2.55999994
   19.71444511   -1.00000000    1.44000006    2.55999994
   19.72472191   -1.00000000    1.41999996    2.55999994
   19.72777748   -1.00000000    1.41999996    2.53999996
   19.73111153   -1.00000000    1.41999996    2.53999996
   19.73416710   -1.00000000    1.41999996    2.55999994
   19.73750114   -1.00000000    1.41999996    2.55999994
   19.74083328   -1.00000000    1.41999996    2.55999994
   19.74388885   -1.00000000    1.44000006    2.53999996
   19.74722290   -1.00000000    1.41999996    2.55999994
   19.75055504   -1.00000000    1.41999996    2.55999994
   19.75416756   -1.00000000    1.44000006    2.55999994
   19.75722313   -1.00000000    1.46000004    2.55999994
   19.76749992   -1.00000000    1.44000006    2.55999994
   19.77055550   -1.00000000    1.46000004    2.53999996
   19.77388954   -1.00000000    1.44000006    2.53999996
   19.77722168   -1.00000000    1.44000006    2.53999996
   19.78027725   -1.00000000    1.46000004    2.53999996
   19.78361130   -1.00000000    1.48000002    2.53999996
   19.78722191   -1.00000000    1.48000002    2.53999996
   19.79027748   -1.00000000    1.48000002    2.53999996
   19.79361153   -1.00000000    1.53999996    2.53999996
   19.79694366   -1.00000000    1.60000002    2.53999996
   19.79999924   -1.00000000    1.63000000    2.53999996
   19.81027794   -1.00000000    1.66999996    2.51999998
   19.81361008   -1.00000000    1.66999996    2.51999998
