    HOUR (UT)   FLARE FACTOR    SKY TESTER    SUN TESTER
   12.09361076   -1.00000000   -1.00000000   -1.00000000
   12.11361122  235.71800232    1.71000004    1.80999994
   12.11777782  236.17199707    1.71000004    1.83000004
   12.12222195  201.55299377    1.69000006    1.83000004
   12.12555599  211.99899292    1.71000004    1.83000004
   12.12861156  220.56399536    1.71000004    1.85000002
   12.13194466  206.88299561    1.69000006    1.85000002
   12.13527775  230.90699768    1.66999996    1.85000002
   12.13833332  219.89700317    1.66999996    1.85000002
   12.14166641  214.57299805    1.64999998    1.85000002
   12.14499950  202.54299927    1.64999998    1.86000001
   12.14638901  201.63800049    1.64999998    1.86000001
   12.14861107  209.19799805    1.63000000    1.86000001
   12.15166664  204.71600342    1.63000000    1.86000001
   12.15499973  210.71000671    1.63000000    1.86000001
   12.15833282  195.08799744    1.63000000    1.86000001
   12.16138840  195.25000000    1.61000001    1.86000001
   12.16472149  213.70899963    1.61000001    1.88000000
   12.16805553  198.97000122    1.61000001    1.88000000
   12.17111111  199.20799255    1.60000002    1.88000000
   12.17444515  183.08900452    1.60000002    1.88000000
   12.17777824  188.37300110    1.60000002    1.88000000
   12.17972279  198.56100464    1.60000002    1.88000000
   12.18138885  173.58999634    1.60000002    1.88000000
   12.18444443  211.80700684    1.60000002    1.88000000
   12.18777752  200.40800476    1.60000002    1.89999998
   12.19111156  198.61900330    1.60000002    1.89999998
   12.19416714  205.77299500    1.58000004    1.89999998
   12.19750023  196.82699585    1.58000004    1.89999998
   12.20083332  220.42399597    1.58000004    1.89999998
   12.20388889  190.47000122    1.55999994    1.89999998
   12.20722198  179.51899719    1.55999994    1.91999996
   12.21027756  219.64900208    1.55999994    1.91999996
   12.21305561  184.55900574    1.53999996    1.91999996
   12.21416664  207.94200134    1.53999996    1.91999996
   12.21749973  213.14399719    1.53999996    1.94000006
   12.22055531  206.73800659    1.53999996    1.94000006
   12.22388840  204.32899475    1.51999998    1.94000006
   12.22694397  194.49299622    1.51999998    1.94000006
   12.23027706  184.23599243    1.50000000    1.94000006
   12.23361111  218.07099915    1.50000000    1.94000006
   12.23666668  193.63900757    1.50000000    1.96000004
   12.24000072  185.79100037    1.50000000    1.94000006
   12.24333382  191.42199707    1.50000000    1.94000006
   12.24638939  183.05599976    1.48000002    1.94000006
   12.24694443  205.44000244    1.48000002    1.96000004
   12.25027752  194.97799683    1.48000002    1.96000004
   12.25333309  196.77699280    1.48000002    1.96000004
   12.25666714  213.32200623    1.48000002    1.98000002
   12.25972176  193.34899902    1.46000004    1.96000004
   12.26305580  210.59599304    1.46000004    1.98000002
   12.26638889  198.60099792    1.46000004    1.98000002
   12.26944447  214.47900391    1.44000006    1.96000004
   12.27277756  217.16099548    1.44000006    1.98000002
   12.27611065  213.85400391    1.46000004    2.00000000
   12.27916622  193.25999451    1.46000004    2.00000000
   12.27972221  180.78700256    1.46000004    2.00000000
   12.28277779  198.78799438    1.44000006    2.00000000
   12.28611183  227.78599548    1.44000006    2.00000000
   12.28916740  233.68200684    1.44000006    2.00000000
   12.29250050  227.81300354    1.44000006    2.00000000
   12.29555607  211.69500732    1.44000006    2.00000000
   12.29888916  197.04299927    1.44000006    2.00000000
   12.30222225  196.90199280    1.44000006    2.00000000
   12.30527782  214.11199951    1.44000006    2.00000000
   12.30861092  201.24699402    1.44000006    2.00000000
   12.31194496  200.53599548    1.44000006    2.00000000
   12.31305599  236.88499451    1.44000006    2.00000000
   12.31555557  201.10200500    1.44000006    2.00000000
   12.31888866  213.55799866    1.44000006    2.00000000
   12.32194424  215.58500671    1.44000006    2.01999998
   12.32527733  218.32699585    1.44000006    2.01999998
   12.32833290  217.34199524    1.44000006    2.01999998
   12.33166695  209.29899597    1.44000006    2.01999998
   12.33500004  224.07299805    1.44000006    2.03999996
   12.33805561  203.39300537    1.44000006    2.03999996
   12.34138870  224.22999573    1.44000006    2.03999996
   12.34472179  185.50799561    1.44000006    2.03999996
   12.34638882  199.29499817    1.44000006    2.03999996
   12.34833336  202.05599976    1.46000004    2.03999996
   12.35166740  217.83000183    1.46000004    2.03999996
   12.35472298  218.79800415    1.48000002    2.03999996
   12.35805607  183.84700012    1.48000002    2.05999994
   12.36138916  189.94999695    1.48000002    2.05999994
   12.36444473  187.88600159    1.48000002    2.05999994
   12.36777782  213.99000549    1.50000000    2.03999996
   12.37111092  207.18600464    1.50000000    2.05999994
   12.37416649  203.65699768    1.50000000    2.05999994
   12.37750053  222.25900269    1.51999998    2.05999994
   12.37972260  210.36999512    1.50000000    2.05999994
   12.38111115  195.82000732    1.50000000    2.05999994
   12.38444424  172.13600159    1.50000000    2.05999994
   12.38749981  191.92300415    1.50000000    2.05999994
   12.39083290  184.02799988    1.50000000    2.07999992
   12.39416695  202.89599609    1.50000000    2.07999992
   12.39722252  217.36000061    1.50000000    2.07999992
   12.40055561  220.75300598    1.50000000    2.07999992
   12.40361118  233.15100098    1.50000000    2.07999992
   12.40694427  214.65100098    1.51999998    2.07999992
   12.41027737  200.13200378    1.51999998    2.07999992
   12.41305542  221.48699951    1.51999998    2.07999992
   12.41388893  211.04600525    1.51999998    2.07999992
   12.41722298  201.62300110    1.51999998    2.07999992
   12.42027855  215.34500122    1.50000000    2.07999992
   12.42361164  228.15899658    1.50000000    2.07999992
   12.42666721  213.69299316    1.50000000    2.09999990
   12.43000031  193.98699951    1.48000002    2.09999990
   12.43333340  189.89799500    1.48000002    2.09999990
   12.43638897  224.09500122    1.48000002    2.09999990
   12.43972206  198.38200378    1.48000002    2.09999990
   12.44305515  204.83999634    1.48000002    2.09999990
   12.44611073  211.16299438    1.48000002    2.09999990
   12.44666672  213.12600708    1.48000002    2.11999989
   12.44999981  225.63299561    1.48000002    2.11999989
   12.45305538  193.76100159    1.46000004    2.11999989
   12.45638847  187.88299561    1.46000004    2.11999989
   12.45972157  192.97599792    1.46000004    2.11999989
   12.46305561  232.55200195    1.44000006    2.11999989
   12.46611118  227.18400574    1.44000006    2.13000011
   12.46944427  210.88299561    1.44000006    2.13000011
   12.47277737  187.89199829    1.44000006    2.13000011
   12.47583294  207.09399414    1.41999996    2.13000011
   12.47916603  217.16700745    1.41999996    2.11999989
   12.47999954  214.39900208    1.39999998    2.13000011
   12.48277760  238.16299438    1.39999998    2.13000011
   12.48583317  215.68800354    1.39999998    2.11999989
   12.48916721  243.24400330    1.39999998    2.11999989
   12.49250031  235.22999573    1.38000000    2.13000011
   12.49555588  231.09300232    1.38000000    2.13000011
   12.49888897  230.77499390    1.38000000    2.13000011
   12.50194454  213.41099548    1.36000001    2.13000011
   12.50527763  307.04299927    1.36000001    2.13000011
   12.50861073  242.44599915    1.36000001    2.13000011
   12.51166630  246.48599243    1.36000001    2.13000011
   12.51333332  220.53300476    1.36000001    2.13000011
   12.51555538  266.74200439    1.36000001    2.13000011
   12.51861095  277.79800415    1.36000001    2.15000010
   12.52194405  292.97500610    1.36000001    2.15000010
   12.52527714  261.02899170    1.34000003    2.15000010
   12.52833271  273.39599609    1.34000003    2.15000010
   12.53166676  263.19601440    1.34000003    2.15000010
   12.53500080  233.89799500    1.33000004    2.15000010
   12.53805637  256.20199585    1.30999994    2.17000008
   12.54138947  239.09399414    1.30999994    2.15000010
   12.54444504  267.69601440    1.30999994    2.17000008
   12.54666710  250.49800110    1.28999996    2.17000008
   12.54833412  224.91200256    1.30999994    2.17000008
   12.55138874  235.52699280    1.28999996    2.17000008
   12.55472279  282.32699585    1.30999994    2.17000008
   12.55805588  302.31799316    1.28999996    2.17000008
   12.56111145  263.87899780    1.28999996    2.17000008
   12.56444454  248.42100525    1.30999994    2.19000006
   12.56750011  253.65199280    1.30999994    2.19000006
   12.57083321  260.99600220    1.30999994    2.17000008
   12.57416630  269.05200195    1.38000000    2.19000006
   12.57750034  238.65100098    1.39999998    2.19000006
   12.57999992  285.54901123    1.39999998    2.19000006
   12.58111095  256.30700684    1.41999996    2.19000006
   12.58416653  226.06300354    1.41999996    2.19000006
   12.58749962  237.58000183    1.46000004    2.19000006
   12.59083271  215.20199585    1.50000000    2.19000006
   12.59388828  243.57400513    1.61000001    2.19000006
   12.59722233  220.86500549    1.64999998    2.19000006
   12.60027790  216.69400024    1.55999994    2.19000006
   12.60361195  241.85600281    1.46000004    2.21000004
   12.60694504  219.33299255    1.41999996    2.19000006
   12.61000061  227.71600342    1.46000004    2.19000006
   12.61333370  211.71899414    1.46000004    2.19000006
   12.61388969  236.95100403    1.46000004    2.19000006
   12.61694431  249.70199585    1.55999994    2.19000006
   12.62027836  256.57400513    1.58000004    2.19000006
   12.62361145  230.62899780    1.60000002    2.19000006
   12.62666702  258.53900146    1.58000004    2.19000006
   12.63000011  283.55801392    1.51999998    2.19000006
   12.63305569  229.45899963    1.41999996    2.21000004
   12.63638878  283.19900513    1.39999998    2.19000006
   12.63972187  297.67098999    1.39999998    2.19000006
   12.64277744  309.69000244    1.39999998    2.19000006
   12.64611053  301.75201416    1.53999996    2.21000004
   12.64666653  286.52099609    1.53999996    2.21000004
   12.64972210  252.71400452    1.66999996    2.21000004
   12.65277767  276.66799927    1.85000002    2.21000004
   12.65611076  267.14898682    2.13000011    2.21000004
   12.65944386  249.65699768    2.50000000    2.23000002
   12.66249943  267.14700317    2.93000007    2.23000002
   12.66583252  271.39898682    3.34999990    2.23000002
   12.66916656  216.08200073    4.05999994    2.23000002
   12.67222214  249.22799683    4.86999989    2.25000000
   12.67555618  242.31300354    4.90999985    2.25000000
   12.67861176  214.76300049    4.90999985    2.25000000
   12.68000031  223.38000488    4.90999985    2.25000000
   12.68249989  209.84800720    4.90999985    2.25000000
   12.68555546  218.68800354    4.90999985    2.25000000
   12.68888855  211.59500122    4.90999985    2.25000000
   12.69222260  228.43600464    4.90999985    2.25000000
   12.69527817  206.50000000    4.90999985    2.26999998
   12.69861126  207.84500122    4.90999985    2.26999998
   12.70166683  260.11898804    4.90999985    2.26999998
   12.70499992  215.90199280    4.90999985    2.26999998
   12.70833302  221.50999451    4.90999985    2.26999998
   12.71138859  222.48500061    4.90999985    2.26999998
   12.71333313  218.30999756    4.90999985    2.26999998
   12.71527767  218.70100403    4.90999985    2.28999996
   12.71833324  210.71200562    4.90999985    2.26999998
   12.72166634  200.93200684    4.90999985    2.28999996
   12.72499943  212.84100342    4.90999985    2.28999996
   12.72805500  196.02299500    4.90999985    2.28999996
   12.73138809  205.45199585    4.90999985    2.30999994
   12.73444462  199.12500000    4.90999985    2.30999994
   12.73777771  192.90100098    4.90999985    2.32999992
   12.74111176  240.20700073    4.90999985    2.32999992
   12.74416733  209.11500549    4.90999985    2.32999992
   12.74666691  216.69900513    4.90999985    2.34999990
   12.74805546  192.61099243    4.90999985    2.32999992
   12.75111103  204.28399658    4.90999985    2.34999990
   12.75444412  211.82899475    4.90999985    2.34999990
   12.75777817  202.37899780    4.90999985    2.34999990
   12.76083374  208.08299255    4.90999985    2.34999990
   12.76416683  208.63699341    4.90999985    2.34999990
   12.76749992  209.09300232    4.90999985    2.34999990
   12.77055550  222.44000244    4.90999985    2.26999998
   12.77388859  226.53999329    1.88000000    2.26999998
   12.77694416  225.26100159    1.44000006    2.28999996
   12.77999973  215.96400452    4.90999985    2.28999996
   12.78083324  196.05299377    1.30999994    2.28999996
   12.78388977  224.32200623    1.30999994    2.28999996
   12.78722286  222.30200195    1.30999994    2.28999996
   12.79055595  225.96499634    1.28999996    2.28999996
   12.79361153  203.85800171    1.28999996    2.28999996
   12.79694462  208.64900208    1.28999996    2.28999996
   12.80000019  232.04100037    1.28999996    2.28999996
   12.80333328  219.51100159    1.28999996    2.28999996
   12.80666733  222.75399780    1.28999996    2.28999996
   12.80972195  231.17900085    1.28999996    2.28999996
   12.81305599  245.55200195    1.28999996    2.28999996
   12.81361103  244.90800476    1.28999996    2.28999996
   12.81694412  217.62100220    1.28999996    2.30999994
   12.81999969  232.30799866    1.26999998    2.28999996
   12.82333374  208.78700256    2.42000008    2.30999994
   12.82638836  199.09399414    1.98000002    2.30999994
   12.82972240  222.84800720    1.55999994    2.28999996
   12.83305550  236.74299622    1.38000000    2.28999996
   12.83611107  225.18899536    1.30999994    2.26999998
   12.83944416  240.03799438    1.28999996    2.28999996
   12.84277725  217.84899902    1.28999996    2.30999994
   12.84583282  202.26800537    1.28999996    2.30999994
   12.84694386  239.69500732    1.26999998    2.30999994
   12.84972191  220.79400635    1.28999996    2.30999994
   12.85277843  238.10400391    1.28999996    2.30999994
   12.85611153  233.50300598    1.28999996    2.30999994
   12.85916710  233.72799683    1.28999996    2.30999994
   12.86250019  249.63400269    1.28999996    2.30999994
   12.86583328  243.77200317    1.28999996    2.32999992
   12.86888885  261.78601074    1.26999998    2.30999994
   12.87222195  296.71099854    1.26999998    2.32999992
   12.87555599  265.36499023    1.26999998    2.30999994
   12.87861156  289.45800781    1.26999998    2.32999992
   12.88027763  310.87799072    1.26999998    2.32999992
   12.88249969  291.94000244    1.26999998    2.32999992
   12.88555527  299.61999512    1.25000000    2.30999994
   12.88888836  334.42999268    1.25000000    2.30999994
   12.89194393  370.25698853    1.23000002    2.32999992
   12.89527798  338.37500000    1.25000000    2.30999994
   12.89861107  379.86700439    1.23000002    2.32999992
   12.90166664  416.08599854    1.23000002    2.32999992
   12.90388870  409.06900024    1.21000004    2.32999992
   12.90499973  433.63101196    1.21000004    2.32999992
   12.90638828  427.99798584    1.21000004    2.32999992
   12.90777779  436.13101196    1.21000004    2.32999992
   12.90916634  400.88101196    1.21000004    2.32999992
   12.91055489  412.33200073    1.21000004    2.32999992
   12.91194439  500.03500366    1.21000004    2.32999992
   12.91333294  443.14401245    1.21000004    2.34999990
   12.91472149  497.18899536    1.21000004    2.34999990
   12.91611099  528.75201416    1.21000004    2.34999990
   12.91750050  587.76702881    1.21000004    2.32999992
   12.91888905  541.16998291    1.21000004    2.32999992
   12.92027855  541.91802979    1.21000004    2.32999992
   12.92166710  542.82000732    1.19000006    2.32999992
   12.92305565  548.19201660    1.19000006    2.32999992
   12.92444515  553.12402344    1.19000006    2.32999992
   12.92583370  418.45901489    1.19000006    2.32999992
   12.92722225  395.46200562    1.19000006    2.32999992
   12.92861176  344.66500854    1.19000006    2.32999992
   12.92888927  299.61999512    1.25000000    2.30999994
   12.92888927  334.42999268    1.25000000    2.30999994
   12.92888927  370.25698853    1.23000002    2.32999992
   12.92916679  338.37500000    1.25000000    2.30999994
   12.92916679  379.86700439    1.23000002    2.32999992
   12.92916679  416.08599854    1.23000002    2.32999992
   12.92944431  265.36499023    1.26999998    2.30999994
   12.92944431  289.45800781    1.26999998    2.32999992
   12.92944431  291.94000244    1.26999998    2.32999992
   12.93027782  289.51501465    1.19000006    2.32999992
   12.93333340  202.02499390    1.19000006    2.34999990
   12.93666649  135.98800659    1.16999996    2.34999990
   12.93972206  136.50900269    1.16999996    2.34999990
   12.94305515  119.67900085    1.19000006    2.34999990
   12.94944477  119.67900085    1.16999996    2.34999990
   12.95361137  106.99199677    1.16999996    2.34999990
   12.95694447   93.68669891    1.16999996    2.34999990
   12.96000004   38.82130051    1.16999996    2.34999990
   12.96249962   32.89070129    1.14999998    2.34999990
   12.96388912   32.70000076    1.16999996    2.34999990
   12.96694374   -1.00000000    1.14999998    2.34999990
   12.97027779   -1.00000000    1.14999998    2.34999990
   12.97361088   -1.00000000    1.14999998    2.34999990
   12.97666645   -1.00000000    1.13000000    2.34999990
   12.97999954   -1.00000000    1.13000000    2.34999990
   12.98333359   -1.00000000    1.13000000    2.34999990
   12.98638916   -1.00000000    1.13000000    2.34999990
   12.99222279   -1.00000000    1.11000001    2.36999989
   12.99638939   -1.00000000    1.09000003    2.36999989
   12.99972248   -1.00000000    1.09000003    2.36999989
   13.00305557   -1.00000000    1.09000003    2.36999989
   13.00611115   -1.00000000    1.09000003    2.36999989
   13.00944424   -1.00000000    1.09000003    2.36999989
   13.01249981   -1.00000000    1.09000003    2.36999989
   13.01583290   -1.00000000    1.09000003    2.36999989
   13.01916599   -1.00000000    1.09000003    2.39000010
   13.02222157   -1.00000000    1.07000005    2.36999989
   13.02555561   -1.00000000    1.07000005    2.39000010
   13.02888870   -1.00000000    1.07000005    2.39000010
   13.03916740   -1.00000000    1.07000005    2.39000010
   13.04250050   -1.00000000    1.05999994    2.39000010
   13.04583359   -1.00000000    1.05999994    2.39000010
   13.04888916   -1.00000000    1.03999996    2.39000010
   13.05222225   -1.00000000    1.03999996    2.39000010
   13.05527782   -1.00000000    1.01999998    2.40000010
   13.05861092   -1.00000000    1.03999996    2.39000010
   13.06194496   -1.00000000    1.01999998    2.40000010
   13.06527805   -1.00000000    1.01999998    2.39000010
   13.06833363   -1.00000000    1.01999998    2.39000010
   13.07166672   -1.00000000    1.01999998    2.39000010
   13.08222198   -1.00000000    1.01999998    2.40000010
   13.08527756   -1.00000000    1.00000000    2.40000010
   13.08861065   -1.00000000    1.00000000    2.39000010
   13.09166622   -1.00000000    1.00000000    2.39000010
   13.09499931   -1.00000000    0.98000002    2.40000010
   13.09861088   -1.00000000    0.95999998    2.40000010
   13.10166740   -1.00000000    0.94000000    2.40000010
   13.10500050   -1.00000000    0.94000000    2.40000010
   13.10833359   -1.00000000    0.94000000    2.40000010
   13.11138916   -1.00000000    0.94000000    2.40000010
   13.13749981   -1.00000000    0.92000002    2.42000008
   13.14055538   -1.00000000    0.92000002    2.40000010
   13.14388847   -1.00000000    0.89999998    2.42000008
   13.14722252  179.09599304    0.88000000    2.42000008
   13.15027714  170.97500610    0.88000000    2.42000008
   13.15361118  175.96400452    0.88000000    2.42000008
   13.15666676  175.41400146    0.88000000    2.42000008
   13.15999985  163.00999451    0.88000000    2.42000008
   13.16333294  166.47700500    0.88000000    2.42000008
   13.16416645  180.56799316    0.88000000    2.42000008
   13.16694450  180.01600647    0.86000001    2.42000008
   13.17000008  175.88299561    0.86000001    2.42000008
   13.17638874  175.88299561    0.86000001    2.42000008
   13.18055630  181.47599792    0.86000001    2.42000008
   13.18361092  174.57600403    0.86000001    2.42000008
   13.18694496  194.25799561    0.86000001    2.42000008
   13.19000053  170.55499268    0.86000001    2.42000008
   13.19333363  179.85899353    0.86000001    2.44000006
   13.19666672  171.80599976    0.83999997    2.44000006
   13.19750023  180.05599976    0.83999997    2.42000008
   13.20027733  168.85899353    0.83999997    2.42000008
   13.20333290  173.97700500    0.83999997    2.44000006
   13.20666695  164.40899658    0.83999997    2.44000006
   13.21000004  185.93099976    0.83999997    2.44000006
   13.21305561  178.16099548    0.81999999    2.44000006
   13.21888828  178.16099548    0.81999999    2.44000006
   13.22305489  180.68899536    0.83999997    2.44000006
   13.22638798  171.16499329    0.83999997    2.44000006
   13.22944355  178.56799316    0.83999997    2.44000006
   13.23111057  174.05999756    0.83999997    2.44000006
   13.23305511  188.05900574    0.83999997    2.44000006
   13.23638916  190.41200256    0.83999997    2.44000006
   13.23972225  175.95500183    0.81999999    2.44000006
   13.24277782  179.12699890    0.81999999    2.44000006
   13.24611092  169.97900391    0.81999999    2.46000004
   13.24944496  166.83700562    0.81999999    2.46000004
   13.25249958  175.96699524    0.81999999    2.46000004
   13.25583363  180.43899536    0.81999999    2.46000004
   13.26194477  180.43899536    0.80000001    2.46000004
   13.26583290  168.81399536    0.81999999    2.46000004
   13.26916599  163.58000183    0.80000001    2.44000006
   13.27250004  166.33000183    0.81999999    2.46000004
   13.27555561  161.59700012    0.80000001    2.46000004
   13.27888870  183.97399902    0.80000001    2.46000004
   13.28222179  162.12399292    0.80000001    2.46000004
   13.28527832  172.87899780    0.80000001    2.46000004
   13.28861141  162.36999512    0.80000001    2.46000004
   13.29166698  164.77099609    0.81999999    2.46000004
   13.29500008  175.22200012    0.80000001    2.46000004
   13.29777813  164.19799805    0.80000001    2.46000004
   13.29888916  175.46000671    0.80000001    2.46000004
   13.30472279  175.46000671    0.80000001    2.46000004
   13.30888939  172.35099792    0.80000001    2.46000004
   13.31194496  162.46800232    0.80000001    2.46000004
   13.31527805  191.04200745    0.80000001    2.46000004
   13.31861115  165.30999756    0.80000001    2.46000004
   13.32166672  177.39500427    0.80000001    2.48000002
   13.32499981  179.79499817    0.79000002    2.46000004
   13.32833290  174.52299500    0.79000002    2.46000004
   13.33111095  180.89799500    0.79000002    2.46000004
   13.33194447  166.25100708    0.79000002    2.46000004
   13.33500004  180.29299927    0.79000002    2.48000002
   13.33833313  187.67300415    0.76999998    2.46000004
   13.34138870  170.24699402    0.76999998    2.46000004
   13.34749985  170.24699402    0.79000002    2.46000004
   13.35166740  168.57000732    0.76999998    2.48000002
   13.35500050  173.32099915    0.79000002    2.46000004
   13.35805607  191.45199585    0.76999998    2.48000002
   13.36138916  191.34599304    0.76999998    2.48000002
   13.36444473  173.25900269    0.79000002    2.48000002
   13.36527824  189.77499390    0.76999998    2.46000004
   13.36833382  165.15699768    0.76999998    2.48000002
   13.37166691  175.91900635    0.76999998    2.48000002
   13.37500000  166.54299927    0.76999998    2.48000002
   13.37805557  156.10400391    0.76999998    2.48000002
   13.38138866  168.05700684    0.76999998    2.48000002
   13.38444424  172.14999390    0.76999998    2.48000002
   13.39027786  172.14999390    0.76999998    2.48000002
   13.39444447  180.16000366    0.76999998    2.48000002
   13.39777756  167.02499390    0.75000000    2.50000000
   13.39833355  162.19799805    0.76999998    2.48000002
   13.40138817  181.93299866    0.75000000    2.48000002
   13.40472221  175.86300659    0.75000000    2.48000002
   13.40777779  183.10600281    0.75000000    2.50000000
   13.41111088  173.21200562    0.75000000    2.50000000
   13.41444397  163.94599915    0.75000000    2.48000002
   13.41750050  177.90299988    0.75000000    2.50000000
   13.42083359  160.57899475    0.75000000    2.48000002
   13.42416668  170.60899353    0.75000000    2.48000002
   13.42722225  160.72399902    0.75000000    2.50000000
   13.43333340  160.72399902    0.75000000    2.50000000
   13.43750000  157.62500000    0.75000000    2.50000000
   13.58055592   -1.00000000   -1.00000000   -1.00000000
   13.68055630   -1.00000000   -1.00000000   -1.00000000
   13.78222179   -1.00000000   -1.00000000   -1.00000000
   13.82250023   89.21489716    1.03999996    2.55999994
   13.82555580  156.82200623    1.03999996    2.55999994
   13.82888889  157.01300049    1.01999998    2.55999994
   13.83194447  166.86900330    1.00000000    2.55999994
   13.83527756  176.91999817    0.98000002    2.55999994
   13.83861065  174.76100159    0.94000000    2.57999992
   13.84277725  174.76100159    0.94000000    2.57999992
   13.84694386  157.89399719    0.92000002    2.55999994
   13.85027790  155.09899902    0.92000002    2.57999992
   13.85333347  183.29800415    0.86000001    2.57999992
   13.85555553  176.57499695    0.86000001    2.57999992
   13.85694504  164.59700012    0.86000001    2.57999992
   13.86055565  162.81100464    0.88000000    2.57999992
   13.86388969  173.41400146    0.88000000    2.55999994
   13.86722279  169.21499634    0.86000001    2.55999994
   13.87027836  176.25799561    0.86000001    2.55999994
   13.87361145  170.39100647    0.89999998    2.57999992
   13.87694454  165.38000488    0.89999998    2.57999992
   13.88000011  165.75900269    0.89999998    2.57999992
   13.88638878  165.75900269    0.89999998    2.55999994
   13.89055538  154.75100708    0.89999998    2.55999994
   13.89388847  160.27600098    0.89999998    2.57999992
   13.89722252  163.88800049    0.94000000    2.57999992
   13.90027714  157.97500610    1.01999998    2.57999992
   13.90361118  154.89300537    1.01999998    2.57999992
   13.90694427  177.54400635    1.01999998    2.57999992
   13.90999985  196.05900574    1.01999998    2.57999992
   13.91333294  171.50000000    1.01999998    2.57999992
   13.91638851  172.92799377    1.00000000    2.57999992
   13.91972256  179.95500183    0.95999998    2.57999992
   13.92222214  158.21099854    0.86000001    2.57999992
   13.92333412  157.87199402    0.86000001    2.57999992
   13.92916679  157.87199402    0.79000002    2.57999992
   13.93333340  161.01499939    0.79000002    2.59999990
   13.93666649  159.06900024    0.76999998    2.57999992
   13.93972206  161.13400269    0.75000000    2.57999992
   13.94305515  161.00700378    0.75000000    2.57999992
   13.94611073  166.33500671    0.75000000    2.57999992
   13.94944477  169.13699341    0.76999998    2.57999992
   13.95277786  173.75100708    0.76999998    2.57999992
   13.95555496  176.31700134    0.75000000    2.59999990
   13.95638847  172.82800293    0.79000002    2.59999990
   13.95972157  165.85099792    0.79000002    2.59999990
   13.96277714  157.35299683    0.80000001    2.57999992
   13.96611118  150.32699585    0.81999999    2.59999990
   13.97194386  150.32699585    0.80000001    2.59999990
   13.97611046  180.35499573    0.81999999    2.59999990
   13.97944355  173.64700317    0.80000001    2.57999992
   13.98249912  159.43400574    0.80000001    2.59999990
   13.98583317  155.87600708    0.81999999    2.57999992
   13.98888874  197.87899780    0.80000001    2.59999990
   13.98944473  176.20300293    0.80000001    2.59999990
   13.99277782  149.45899963    0.79000002    2.57999992
   13.99583340  179.08099365    0.79000002    2.59999990
   13.99916649  162.76699829    0.79000002    2.59999990
   14.00249958  163.65800476    0.81999999    2.57999992
   14.00555515  170.73800659    0.88000000    2.57999992
   14.00888920  164.31799316    0.88000000    2.59999990
   14.01500034  164.31799316    0.89999998    2.57999992
   14.01888847  169.17300415    0.92000002    2.59999990
   14.02222157  150.05499268    0.88000000    2.59999990
   14.02277756  148.64999390    0.88000000    2.59999990
   14.02611065  164.53399658    0.88000000    2.59999990
   14.02916622  171.88200378    0.88000000    2.59999990
   14.03249931  157.82800293    0.86000001    2.59999990
   14.03555584  175.05900574    0.83999997    2.59999990
   14.03888893  163.66700745    0.83999997    2.59999990
   14.04222298  157.14399719    0.81999999    2.59999990
   14.04527855  159.47700500    0.75000000    2.59999990
   14.04861164  162.13699341    0.75000000    2.59999990
   14.05194473  160.64900208    0.76999998    2.57999992
   14.05777836  160.64900208    0.75000000    2.59999990
   14.06194496  174.85499573    0.75000000    2.59999990
   14.06500053  170.02400208    0.75000000    2.59999990
   14.06833363  158.45399475    0.75000000    2.61999989
   14.07166672  157.99800110    0.73000002    2.59999990
   14.07472229  156.27600098    0.73000002    2.59999990
   14.07805538  167.97500610    0.73000002    2.61999989
   14.08111095  156.90299988    0.73000002    2.59999990
   14.08444405  157.95300293    0.69000000    2.59999990
   14.08777714  163.63999939    0.69000000    2.59999990
   14.08888817  156.79800415    0.69000000    2.61999989
   14.09138870  159.42300415    0.69000000    2.59999990
   14.09472179  152.88000488    0.69000000    2.61999989
   14.10055637  152.88000488    0.70999998    2.61999989
   14.10472298  176.18699646    0.70999998    2.59999990
   14.10777855  152.46000671    0.73000002    2.61999989
   14.11111164  171.22200012    0.70999998    2.59999990
   14.11444473  153.76800537    0.70999998    2.61999989
   14.11750031  157.22300720    0.69000000    2.61999989
   14.12083340  160.99600220    0.69000000    2.61999989
   14.12222195  161.11799622    0.69000000    2.61999989
   14.12472248  145.85299683    0.70999998    2.59999990
   14.12777805  163.38800049    0.69000000    2.59999990
   14.13111115  163.73500061    0.69000000    2.59999990
   14.13444424  165.15299988    0.67000002    2.61999989
   14.13749981  168.09100342    0.64999998    2.61999989
   14.14333344  168.09100342    0.64999998    2.61999989
   14.14750004  146.31100464    0.63000000    2.61999989
   14.15083313  160.79800415    0.63000000    2.61999989
   14.15388870  148.91799927    0.64999998    2.61999989
   14.15583324  170.88299561    0.64999998    2.61999989
   14.15777779  157.56199646    0.64999998    2.61999989
   14.16083336  176.48899841    0.63000000    2.61999989
   14.16416645  162.84199524    0.63000000    2.61999989
   14.16722298  160.52099609    0.63000000    2.61999989
   14.17055607  151.47999573    0.63000000    2.64000010
   14.17388916  158.97799683    0.63000000    2.61999989
   14.17694473  161.26300049    0.63000000    2.61999989
   14.18027782  173.05799866    0.61000001    2.61999989
   14.18611145  173.05799866    0.61000001    2.61999989
   14.19027805  163.13400269    0.61000001    2.61999989
   14.19361115  165.62699890    0.63000000    2.61999989
   14.19694424  168.49400330    0.61000001    2.61999989
   14.19999981  169.27299500    0.61000001    2.61999989
   14.20333290  169.75700378    0.61000001    2.61999989
   14.20638847  172.32800293    0.63000000    2.61999989
   14.20972157  172.22999573    0.63000000    2.61999989
   14.21305561  171.60499573    0.63000000    2.61999989
   14.21611118  162.38099670    0.63000000    2.61999989
   14.21944427  170.87399292    0.61000001    2.64000010
   14.22249985  147.00500488    0.61000001    2.61999989
   14.22305489  166.32800293    0.61000001    2.61999989
   14.22916603  166.32800293    0.61000001    2.61999989
   14.23333359  179.84500122    0.61000001    2.61999989
   14.23638916  162.50000000    0.61000001    2.61999989
   14.23972225  172.95899963    0.61000001    2.61999989
   14.24305534  180.06500244    0.61000001    2.61999989
   14.24611092  163.44500732    0.61000001    2.61999989
   14.24944496  192.34700012    0.61000001    2.64000010
   14.25249958  158.51899719    0.61000001    2.61999989
   14.25583363  180.34800720    0.61000001    2.61999989
   14.25638866  147.81100464    0.61000001    2.61999989
   14.25944424  157.00999451    0.61000001    2.61999989
   14.26277733  169.79899597    0.61000001    2.64000010
   14.26611137  162.82899475    0.61000001    2.64000010
   14.27194405  162.82899475    0.63000000    2.64000010
   14.27611065  173.85499573    0.61000001    2.64000010
   14.27916622  138.00900269    0.63000000    2.64000010
   14.28249931  160.96699524    0.63000000    2.61999989
   14.28583336  166.36500549    0.61000001    2.64000010
   14.28888893  163.58099365    0.61000001    2.64000010
   14.28944492  149.78399658    0.61000001    2.64000010
   14.29277802  165.65100098    0.61000001    2.61999989
   14.29611111  155.32600403    0.63000000    2.61999989
   14.29916668  148.91600037    0.63000000    2.61999989
   14.30249977  162.01400757    0.63000000    2.61999989
   14.30555534  162.33399963    0.63000000    2.61999989
   14.30888939  157.35200500    0.63000000    2.61999989
   14.31472206  157.35200500    0.63000000    2.64000010
   14.31888866  169.11599731    0.63000000    2.64000010
   14.32222176  151.89100647    0.61000001    2.64000010
   14.32277775  150.15299988    0.61000001    2.64000010
   14.32583332  143.98399353    0.61000001    2.64000010
   14.32916641  160.21600342    0.61000001    2.64000010
   14.33222198  167.54699707    0.58999997    2.64000010
   14.33555508  138.32299805    0.61000001    2.64000010
   14.33861065  167.58700562    0.61000001    2.64000010
   14.34194374  162.80599976    0.61000001    2.64000010
   14.34527779  148.46600342    0.63000000    2.64000010
   14.34833336  155.27000427    0.63000000    2.64000010
   14.35166740  158.61000061    0.63000000    2.64000010
   14.35750008  158.61000061    0.64999998    2.66000009
   14.36166668  155.21699524    0.75000000    2.64000010
   14.36500072  149.60099792    0.83999997    2.64000010
   14.36833382  163.47900391    0.88000000    2.64000010
   14.37138939  155.32699585    0.95999998    2.64000010
   14.37472248  164.36599731    1.00000000    2.64000010
   14.37777805  156.28399658    1.05999994    2.64000010
   14.38111115  149.23500061    1.05999994    2.64000010
   14.38444424  152.02699280    1.21000004    2.61999989
   14.38749981  168.71499634    1.28999996    2.64000010
   14.38944435  165.82600403    1.28999996    2.64000010
   14.39138889  168.10200500    1.11000001    2.64000010
   14.39472198  167.80299377    1.11000001    2.64000010
   14.40055561  167.80299377    0.73000002    2.64000010
   14.40472221  142.10899353    0.73000002    2.64000010
   14.40777779  165.87500000    0.70999998    2.64000010
   14.41111088  159.19000244    0.69000000    2.64000010
   14.41416645  162.04400635    0.67000002    2.64000010
   14.41750050  145.91600037    0.67000002    2.64000010
   14.42083359  147.44400024    0.64999998    2.64000010
   14.42277813  146.61700439    0.64999998    2.64000010
   14.42444515  174.97999573    0.64999998    2.66000009
   14.42777824  150.71499634    0.64999998    2.64000010
   14.43083382  143.26899719    0.64999998    2.64000010
   14.43416691  151.35600281    0.64999998    2.64000010
   14.43722248  151.86700439    0.64999998    2.64000010
   14.44333363  151.86700439    0.86000001    2.64000010
   14.44750023  155.10600281    1.11000001    2.64000010
   14.45055580  151.14199829    1.21000004    2.64000010
   14.45388889  159.22099304    1.39999998    2.66000009
   14.45611095  165.52600098    1.50000000    2.64000010
   14.45749950  157.40499878    1.41999996    2.64000010
   14.46083355  164.84599304    1.41999996    2.64000010
   14.46388912  163.86099243    1.41999996    2.64000010
   14.46722221  163.01699829    1.41999996    2.64000010
   14.47027779  146.45300293    0.80000001    2.64000010
   14.47361088  145.21699524    0.80000001    2.64000010
   14.47694397  160.41299438    0.79000002    2.64000010
   14.47999954  128.93099976    0.76999998    2.64000010
   14.48611164  128.93099976    0.76999998    2.66000009
   14.49027824  162.63800049    0.76999998    2.66000009
   14.49361134  146.67300415    0.76999998    2.66000009
   14.49666691  149.72099304    0.75000000    2.66000009
   14.50000000  123.85099792    0.76999998    2.64000010
   14.50333309  145.84700012    0.76999998    2.66000009
   14.50638866  146.53999329    0.79000002    2.66000009
   14.50972176  150.20100403    0.83999997    2.66000009
   14.51305580  150.35299683    0.88000000    2.66000009
   14.51611137  155.09100342    0.89999998    2.64000010
   14.51944447  144.84700012    0.98000002    2.66000009
   14.52277756  145.10200500    1.00000000    2.66000009
   14.52305508  139.85200500    1.00000000    2.66000009
   14.52888870  139.85200500    0.83999997    2.66000009
   14.53305531  132.33399963    0.75000000    2.66000009
   14.53638935  144.40400696    0.73000002    2.66000009
   14.53972244  139.66299438    0.70999998    2.64000010
   14.54277802  145.33599854    0.69000000    2.66000009
   14.54611111  135.89399719    0.67000002    2.67000008
   14.54916668  148.15499878    0.69000000    2.66000009
   14.55249977  145.76300049    0.69000000    2.66000009
   14.55583382  151.46499634    0.69000000    2.66000009
   14.55666733  143.13699341    0.69000000    2.66000009
   14.55944443  162.67700195    0.69000000    2.66000009
   14.56277752  151.67900085    0.69000000    2.66000009
   14.56583309  142.55000305    0.69000000    2.66000009
   14.57194424  142.55000305    0.69000000    2.64000010
   14.57611084  150.45399475    0.63000000    2.66000009
   14.57916641  147.26100159    0.63000000    2.66000009
   14.58249950  144.60299683    0.63000000    2.66000009
   14.58583260  138.81900024    0.63000000    2.66000009
   14.58888817  133.73599243    0.63000000    2.66000009
   14.58972168  159.55799866    0.63000000    2.66000009
   14.59249973  149.75399780    0.63000000    2.66000009
   14.59583282  140.04899597    0.63000000    2.66000009
   14.59916592  129.64900208    0.63000000    2.67000008
   14.60222244  148.35800171    0.63000000    2.64000010
   14.60555553  162.82600403    0.61000001    2.66000009
   14.60861111  134.77600098    0.61000001    2.66000009
   14.61472225  134.77600098    0.61000001    2.67000008
   14.61888885  140.05900574    0.58999997    2.67000008
   14.62194443  145.47000122    0.58999997    2.66000009
   14.62305546  154.55200195    0.61000001    2.66000009
   14.62555599  152.16700745    0.61000001    2.66000009
   14.62888908  153.67999268    0.61000001    2.67000008
   14.63194466  159.23899841    0.61000001    2.67000008
   14.63527775  146.34899902    0.61000001    2.67000008
   14.63861084  154.91200256    0.58999997    2.66000009
   14.64166641  151.85899353    0.58999997    2.67000008
   14.64499950  159.16600037    0.58999997    2.67000008
   14.64833355  156.11700439    0.58999997    2.66000009
   14.65138817  147.83000183    0.58999997    2.66000009
   14.65749931  147.83000183    0.58999997    2.66000009
   14.66166592  153.71600342    0.61000001    2.66000009
   14.66499996  142.91900635    0.61000001    2.67000008
   14.66805553  156.35000610    0.58999997    2.67000008
   14.67138958  138.43899536    0.58999997    2.67000008
   14.67444515  144.77400208    0.58999997    2.67000008
   14.67777824  157.74200439    0.56999999    2.66000009
   14.68111134  141.78300476    0.56999999    2.66000009
   14.68416691  154.72599792    0.56999999    2.67000008
   14.68750000  145.13200378    0.58999997    2.67000008
   14.69000053  142.73500061    0.56999999    2.67000008
   14.69111156  150.32499695    0.56999999    2.67000008
   14.69444466  154.18699646    0.56999999    2.67000008
   14.70027733  154.18699646    0.56999999    2.67000008
   14.70444393  149.56199646    0.58999997    2.66000009
   14.70777798  152.77099609    0.56999999    2.67000008
   14.71111107  143.96099854    0.58999997    2.67000008
   14.71416664  138.87699890    0.58999997    2.69000006
   14.71749973  133.27299500    0.58999997    2.69000006
   14.72055531  129.41600037    0.58999997    2.67000008
   14.72333336  144.61000061    0.56999999    2.69000006
   14.72416592  156.72799683    0.56999999    2.69000006
   14.72749996  156.28700256    0.58999997    2.67000008
   14.73055553  150.72500610    0.58999997    2.67000008
   14.73388958  136.63299561    0.61000001    2.69000006
   14.73722267  148.19400024    0.61000001    2.69000006
   14.74333382  148.19400024    0.58999997    2.69000006
   14.74722290  140.94700623    0.58999997    2.67000008
   14.75055599  153.44599915    0.61000001    2.67000008
   14.75388908  144.47200012    0.61000001    2.67000008
   14.75666714  144.31700134    0.63000000    2.67000008
   14.75749969  143.32499695    0.61000001    2.67000008
   14.76083374  154.76600647    0.61000001    2.67000008
   14.76388931  152.32699585    0.61000001    2.67000008
   14.76722240  145.11300659    0.61000001    2.67000008
   14.77055550  148.05799866    0.61000001    2.67000008
   14.77361107  132.33700562    0.61000001    2.69000006
   14.77694416  143.66900635    0.58999997    2.67000008
   14.78027725  139.94400024    0.58999997    2.67000008
   14.78611183  139.94400024    0.58999997    2.67000008
   14.79027843  133.60200500    0.58999997    2.67000008
   14.79333401  129.14999390    0.58999997    2.67000008
   14.79666710  126.71600342    0.56999999    2.67000008
   14.80000019  130.84199524    0.56999999    2.69000006
   14.80305576  141.55200195    0.56999999    2.69000006
   14.80638885  142.07600403    0.56999999    2.69000006
   14.80944443  141.62800598    0.56999999    2.69000006
   14.81277752  143.29100037    0.56999999    2.69000006
   14.81611156  127.44000244    0.56999999    2.67000008
   14.81916618  134.26499939    0.56999999    2.69000006
   14.82250023  145.27000427    0.56999999    2.67000008
   14.83944416  140.86900330    0.56999999    2.69000006
   14.84361076  140.86900330    0.58999997    2.67000008
   14.84777737  138.24099731    0.58999997    2.67000008
   14.85111141  136.78399658    0.58999997    2.67000008
   14.85416698  155.60499573    0.58999997    2.67000008
   14.85750008  145.86599731    0.58999997    2.67000008
   14.86083412  155.71699524    0.58999997    2.67000008
   14.86388969  138.92799377    0.58999997    2.67000008
   14.86722279  140.31799316    0.58999997    2.69000006
   14.87027836  141.74600220    0.58999997    2.69000006
   14.87277794  136.16400146    0.58999997    2.69000006
   14.87416649  130.83099365    0.58999997    2.69000006
   14.87722206  126.60299683    0.61000001    2.69000006
   14.88055611  127.69499969    0.58999997    2.67000008
   14.88638878  127.69499969    0.58999997    2.69000006
   14.89055538  137.03700256    0.58999997    2.69000006
   14.89388847  140.69599915    0.58999997    2.69000006
   14.89722252  148.38499451    0.58999997    2.67000008
   14.90027714  137.67300415    0.58999997    2.69000006
   14.90361118  136.75999451    0.58999997    2.69000006
   14.90611076  131.91200256    0.58999997    2.69000006
   14.90749931  130.24200439    0.58999997    2.69000006
   14.91055489  130.46000671    0.58999997    2.67000008
   14.91388893  131.78500366    0.58999997    2.67000008
   14.91694450  159.15199280    0.58999997    2.69000006
   14.92027855  133.33900452    0.58999997    2.69000006
   14.92361164  129.04400635    0.58999997    2.69000006
   14.92944431  129.04400635    0.58999997    2.69000006
   14.93361092  128.86700439    0.58999997    2.69000006
   14.93666649  133.88000488    0.58999997    2.69000006
   14.93944454  127.31500244    0.56999999    2.69000006
   14.94055557  136.27200317    0.56999999    2.69000006
   14.94388866  131.23899841    0.56999999    2.69000006
   14.94722271  134.33200073    0.56999999    2.69000006
   14.95027733  130.97999573    0.56999999    2.67000008
   14.95361137  134.86099243    0.56999999    2.69000006
   14.95666695  130.48100281    0.58999997    2.69000006
   14.96000004  126.22699738    0.58999997    2.69000006
   14.96333313  118.37699890    0.56999999    2.67000008
   14.96638870  137.86799622    0.56999999    2.67000008
   14.97222137  137.86799622    0.61000001    2.69000006
   14.97638798  125.08100128    0.63000000    2.69000006
   14.97972202  125.33200073    0.64999998    2.67000008
   14.98277760  137.42300415    0.64999998    2.69000006
   14.98611164  130.70799255    0.64999998    2.69000006
   14.98916721  124.26000214    0.64999998    2.69000006
   14.99250031  129.95500183    0.63000000    2.69000006
   14.99583340  142.59300232    0.63000000    2.69000006
   14.99888897  127.06400299    0.67000002    2.69000006
   15.00222206  121.13099670    0.67000002    2.69000006
   15.00555515  120.01599884    0.67000002    2.69000006
   15.00722218  126.43099976    0.69000000    2.69000006
   15.00916672  128.77400208    0.70999998    2.67000008
   15.01500034  128.77400208    0.70999998    2.67000008
   15.01916599  131.93200684    0.75000000    2.69000006
   15.02250004  130.19299316    0.76999998    2.69000006
   15.02555561  123.36699677    0.76999998    2.67000008
   15.02888870  135.68600464    0.76999998    2.67000008
   15.03222179  131.74800110    0.79000002    2.67000008
   15.03527832  134.19900513    0.79000002    2.69000006
   15.03861141  130.54600525    0.79000002    2.69000006
   15.04055595  135.66099548    0.79000002    2.67000008
   15.04222298  132.03900146    0.79000002    2.69000006
   15.04555607  128.21299744    0.79000002    2.69000006
   15.04861164  129.18299866    0.79000002    2.69000006
   15.05194473  131.18600464    0.76999998    2.69000006
   15.05777836  131.18600464    0.75000000    2.69000006
   15.06194496  134.59800720    0.73000002    2.67000008
   15.06527805  127.58799744    0.75000000    2.69000006
   15.06861115  123.95600128    0.76999998    2.69000006
   15.07166672  129.42900085    0.76999998    2.69000006
   15.07416630  129.91200256    0.80000001    2.69000006
   15.07527733  134.83900452    0.81999999    2.69000006
   15.07861137  128.34199524    0.81999999    2.67000008
   15.08194447  125.68399811    0.86000001    2.69000006
   15.08500004  124.59500122    0.89999998    2.69000006
   15.08833313  144.21699524    0.94000000    2.69000006
   15.09166622  129.56100464    0.94000000    2.69000006
   15.09472179  134.68099976    0.92000002    2.69000006
   15.10083389  134.68099976    0.98000002    2.69000006
   15.10500050  130.94900513    0.88000000    2.69000006
   15.10750008  132.71800232    0.88000000    2.69000006
   15.10833359  135.48699951    0.88000000    2.69000006
   15.11166668  132.80999756    0.83999997    2.69000006
   15.11500072  139.35200500    0.81999999    2.69000006
   15.11805534  140.64700317    0.80000001    2.69000006
   15.12138939  142.42100525    0.80000001    2.69000006
   15.12472248  133.38200378    0.79000002    2.69000006
   15.12777805  142.38699341    0.86000001    2.67000008
   15.13111115  130.79200745    0.88000000    2.69000006
   15.13416672  131.72000122    0.83999997    2.71000004
   15.13749981  130.07400513    0.81999999    2.69000006
   15.14361095  130.07400513    0.80000001    2.69000006
   15.14777756  138.80799866    0.79000002    2.69000006
   15.15083313  140.12800598    0.79000002    2.67000008
   15.15416622  141.13200378    0.79000002    2.67000008
   15.15749931  144.36500549    0.80000001    2.69000006
   15.16055489  137.53300476    0.81999999    2.69000006
   15.16388893  150.91700745    0.83999997    2.69000006
   15.16722298  148.41200256    0.81999999    2.67000008
   15.17027855  154.29200745    0.81999999    2.69000006
   15.17361164  138.32499695    0.81999999    2.69000006
   15.17444515  149.48699951    0.81999999    2.69000006
   15.17722225  142.75799561    0.81999999    2.69000006
   15.18027782  139.43800354    0.81999999    2.69000006
   15.18638897  139.43800354    0.80000001    2.69000006
   15.19055557  142.32600403    0.80000001    2.69000006
   15.19388866  134.70899963    0.80000001    2.69000006
   15.19694424  132.80799866    0.76999998    2.67000008
   15.20027733  141.28799438    0.79000002    2.69000006
   15.20333290  165.03100586    0.76999998    2.69000006
   15.20666695  153.22700500    0.76999998    2.69000006
   15.20777798  168.94999695    0.75000000    2.71000004
   15.21027756  152.18200684    0.75000000    2.69000006
   15.21333313  159.10200500    0.70999998    2.69000006
   15.21666622  153.77499390    0.69000000    2.69000006
   15.21999931  146.41299438    0.67000002    2.69000006
   15.22305489  140.28999329    0.67000002    2.69000006
   15.22916603  140.28999329    0.67000002    2.69000006
   15.23333359  138.22399902    0.67000002    2.69000006
   15.23666668  142.89199829    0.67000002    2.69000006
   15.23972225  141.03500366    0.70999998    2.69000006
   15.24138927  145.67199707    0.70999998    2.69000006
   15.24333382  140.26400757    0.70999998    2.69000006
   15.24666691  137.11799622    0.70999998    2.69000006
   15.25000000  135.88299561    0.70999998    2.71000004
   15.25305557  142.12199402    0.70999998    2.69000006
   15.25638866  151.50700378    0.70999998    2.69000006
   15.25972176  144.43699646    0.70999998    2.69000006
   15.26277733  158.67799377    0.70999998    2.69000006
   15.26611137  151.60000610    0.70999998    2.69000006
   15.27222157  151.60000610    0.69000000    2.69000006
   15.27611065  147.63699341    0.64999998    2.69000006
   15.27944374  133.00700378    0.63000000    2.69000006
   15.28277779  155.91400146    0.63000000    2.69000006
   15.28583336  140.93800354    0.61000001    2.69000006
   15.28916740  149.74600220    0.63000000    2.69000006
   15.29250050  153.70500183    0.63000000    2.69000006
   15.29555607  148.62100220    0.63000000    2.69000006
   15.29888916  137.12500000    0.63000000    2.69000006
   15.30194473  151.14999390    0.63000000    2.69000006
   15.30527782  155.45799255    0.63000000    2.69000006
   15.30805588  137.47900391    0.63000000    2.69000006
   15.30916691  153.45100403    0.63000000    2.67000008
   15.31500053  153.45100403    0.61000001    2.71000004
   15.31916618  143.60000610    0.63000000    2.71000004
   15.32222176  145.09300232    0.63000000    2.69000006
   15.32555580  137.08099365    0.63000000    2.69000006
   15.32888889  136.85000610    0.63000000    2.69000006
   15.33194447  139.33900452    0.63000000    2.69000006
   15.33527756  132.27400208    0.63000000    2.69000006
   15.33833313  144.22799683    0.63000000    2.69000006
   15.34138870  151.05900574    0.63000000    2.69000006
   15.34222221  139.24000549    0.64999998    2.69000006
   15.34527779  136.41799927    0.63000000    2.69000006
   15.34861088  127.79199982    0.64999998    2.69000006
   15.35166740  154.12800598    0.64999998    2.69000006
   15.35777855  154.12800598    0.69000000    2.71000004
   15.36194515  138.57699585    0.69000000    2.71000004
   15.36527824  138.33999634    0.70999998    2.69000006
   15.36833382  126.01300049    0.70999998    2.69000006
   15.37166691  129.82499695    0.70999998    2.69000006
   15.37472248  124.19100189    0.70999998    2.69000006
   15.37555599  142.45599365    0.70999998    2.69000006
   15.37861156  126.20300293    0.69000000    2.71000004
   15.38194466  136.50399780    0.64999998    2.69000006
   15.38527775  132.09100342    0.64999998    2.69000006
   15.38833332  130.99499512    0.61000001    2.69000006
   15.39166641  131.63000488    0.61000001    2.69000006
   15.39472198  131.13200378    0.63000000    2.69000006
   15.40055561  131.13200378    0.64999998    2.69000006
   15.40472221  144.23899841    0.67000002    2.69000006
   15.40805531  133.57200623    0.67000002    2.69000006
   15.40861034  133.27200317    0.67000002    2.69000006
   15.41166592  128.44799805    0.67000002    2.69000006
   15.41499996  145.85400391    0.67000002    2.69000006
   15.41805553  130.20199585    0.67000002    2.69000006
   15.42138958  130.95599365    0.67000002    2.69000006
   15.42472267  135.39900208    0.64999998    2.69000006
   15.42777824  140.99899292    0.64999998    2.69000006
   15.43111134  139.34599304    0.64999998    2.69000006
   15.43444443  132.69799805    0.64999998    2.69000006
   15.43750000  128.72900391    0.64999998    2.71000004
   15.44361115  128.72900391    0.63000000    2.69000006
   15.44750023  140.96200562    0.67000002    2.69000006
   15.45083332  134.28999329    0.75000000    2.69000006
   15.45416641  124.73999786    0.76999998    2.69000006
   15.45722198  136.08299255    0.76999998    2.69000006
   15.46055508  127.71600342    0.75000000    2.71000004
   15.46388912  137.85800171    0.63000000    2.71000004
   15.46694374  132.32099915    0.55000001    2.71000004
   15.47027779  130.46400452    0.56999999    2.71000004
   15.47361088  142.10299683    0.63000000    2.69000006
   15.47472191  143.91700745    0.63000000    2.71000004
   15.47722149  131.16400146    0.63000000    2.71000004
   15.48027706  133.85299683    0.64999998    2.71000004
   15.48638916  133.85299683    0.70999998    2.69000006
   15.49055576  146.48699951    0.73000002    2.69000006
   15.49361134  132.81100464    0.73000002    2.69000006
   15.49694443  142.30000305    0.70999998    2.69000006
   15.50027752  145.58399963    0.70999998    2.71000004
   15.50333309  134.77600098    0.70999998    2.69000006
   15.50666714  142.16099548    0.70999998    2.69000006
   15.50805569  128.39100647    0.70999998    2.69000006
   15.51027775  135.42999268    0.70999998    2.71000004
   15.51333332  153.29800415    0.70999998    2.71000004
   15.51666641  134.68400574    0.67000002    2.69000006
   15.51999950  135.09599304    0.63000000    2.71000004
   15.52305508  141.88800049    0.63000000    2.71000004
   15.52916622  141.88800049    0.61000001    2.71000004
   15.53333378  137.19999695    0.56999999    2.71000004
   15.53666687  127.32700348    0.56999999    2.71000004
   15.53972244  135.79200745    0.56999999    2.71000004
   15.54166698  127.07800293    0.55000001    2.69000006
   15.54333401  135.88999939    0.55000001    2.69000006
   15.54666710  136.11199951    0.52999997    2.71000004
   15.55000019  121.85199738    0.52999997    2.71000004
   15.55305576  122.47699738    0.55000001    2.71000004
   15.55638885  130.05700684    0.55000001    2.71000004
   15.55972195  123.27700043    0.55000001    2.71000004
   15.56277752  128.38000488    0.55000001    2.71000004
   15.56611156  136.98300171    0.55000001    2.73000002
   15.57194424  136.98300171    0.55000001    2.71000004
   15.57611084  131.97000122    0.55000001    2.71000004
   15.57944393  136.42500305    0.52999997    2.71000004
   15.58249950  139.96200562    0.52999997    2.69000006
   15.58583260  137.08799744    0.52999997    2.71000004
   15.58916664  132.71600342    0.52999997    2.71000004
   15.59222221  128.78599548    0.52999997    2.71000004
   15.59555531  133.63699341    0.52999997    2.71000004
   15.59888840  143.35600281    0.52999997    2.71000004
   15.60194492  132.67900085    0.52999997    2.71000004
   15.60527802  132.71400452    0.51999998    2.69000006
   15.60833359  130.89700317    0.51999998    2.71000004
   15.60861111  141.43200684    0.51999998    2.71000004
   15.61472225  141.43200684    0.51999998    2.71000004
   15.61888885  139.22999573    0.52999997    2.71000004
   15.62222195  126.75700378    0.51999998    2.71000004
   15.62555599  126.73000336    0.51999998    2.73000002
   15.62861156  126.64399719    0.50000000    2.71000004
   15.63194466  127.54199982    0.50000000    2.71000004
   15.63527775  132.50300598    0.47999999    2.71000004
   15.63833332  140.89999390    0.47999999    2.71000004
   15.64166641  140.91999817    0.47999999    2.71000004
   15.64194393  136.28100586    0.47999999    2.71000004
   15.64527798  144.96600342    0.47999999    2.71000004
   15.64861107  137.49600220    0.47999999    2.71000004
   15.65166664  139.74499512    0.47999999    2.71000004
   15.65777779  139.74499512    0.46000001    2.71000004
   15.66194439  135.09700012    0.47999999    2.71000004
   15.66499996  152.35200500    0.46000001    2.71000004
   15.66833401  133.14599609    0.47999999    2.71000004
   15.67166710  134.99099731    0.47999999    2.71000004
   15.67472267  141.06900024    0.47999999    2.71000004
   15.67527771  131.20100403    0.47999999    2.71000004
   15.67861176  148.70100403    0.50000000    2.71000004
   15.68166733  138.30299377    0.50000000    2.71000004
   15.68500042  127.63899994    0.50000000    2.71000004
   15.68833351  140.45500183    0.47999999    2.71000004
   15.69138908  137.81100464    0.47999999    2.71000004
   15.69472218  135.33900452    0.51999998    2.71000004
   15.70055580  135.33900452    0.50000000    2.73000002
   15.70472240  130.73199463    0.50000000    2.71000004
   15.70805550  132.98899841    0.50000000    2.71000004
   15.70861053  137.96600342    0.50000000    2.71000004
   15.71166611  134.30099487    0.50000000    2.71000004
   15.71472168  133.08999634    0.50000000    2.71000004
   15.71805477  137.45300293    0.51999998    2.73000002
   15.72138882  143.11799622    0.47999999    2.71000004
   15.72444439  133.04699707    0.47999999    2.71000004
   15.72777748  149.35099792    0.47999999    2.73000002
   15.73111057  133.78500366    0.47999999    2.73000002
   15.73416710  143.77900696    0.47999999    2.73000002
   15.73750019  139.70199585    0.47999999    2.73000002
   15.74333382  139.70199585    0.47999999    2.71000004
   15.74750042  133.92500305    0.46000001    2.71000004
   15.75083351  132.70899963    0.46000001    2.73000002
   15.75388908  141.91999817    0.46000001    2.71000004
   15.75722218  150.90899658    0.47999999    2.73000002
   15.76055527  131.52099609    0.47999999    2.73000002
   15.76361084  157.03199768    0.58999997    2.71000004
   15.76694393  145.77099609    0.61000001    2.73000002
   15.77027798  140.87100220    0.63000000    2.71000004
   15.77333355  152.92799377    0.64999998    2.71000004
   15.77527714  148.96499634    0.67000002    2.69000006
   15.77722168  145.22700500    0.67000002    2.71000004
   15.78027725  152.54899597    0.67000002    2.71000004
   15.78638935  152.54899597    0.67000002    2.71000004
   15.79027843  137.56100464    0.67000002    2.71000004
   15.79361153  139.65499878    0.64999998    2.71000004
   15.79694462  160.11399841    0.64999998    2.71000004
   15.80000019  148.70599365    0.64999998    2.71000004
   15.80333328  138.94200134    0.64999998    2.71000004
   15.80666733  145.12800598    0.64999998    2.71000004
   15.80861092  152.94200134    0.63000000    2.71000004
   15.81027794  134.70500183    0.63000000    2.71000004
   15.81361103  146.69700623    0.63000000    2.71000004
   15.81666660  149.12300110    0.63000000    2.73000002
   15.81999969  155.55999756    0.61000001    2.73000002
   15.82305527  147.44400024    0.58999997    2.71000004
   15.82916641  147.44400024    0.56999999    2.71000004
   15.83333302  153.36199951    0.56999999    2.71000004
   15.83638859  152.87600708    0.55000001    2.71000004
   15.83972168  129.33999634    0.56999999    2.71000004
   15.85666752  141.68899536    0.61000001    2.71000004
   15.85972214  152.02699280    0.61000001    2.71000004
   15.86277771  147.66400146    0.63000000    2.71000004
   15.86611176  127.40499878    0.63000000    2.71000004
   15.87222195  127.40499878    0.67000002    2.71000004
   15.87638855  152.84500122    0.67000002    2.71000004
   15.87944412  154.82600403    0.67000002    2.73000002
   15.88277817  163.27400208    0.67000002    2.71000004
   15.88611126  172.54899597    0.67000002    2.71000004
   15.88916683  153.10400391    0.67000002    2.71000004
   15.89000034  150.38999939    0.67000002    2.71000004
   15.89305496  140.90800476    0.67000002    2.71000004
   15.89611053  145.60200500    0.67000002    2.71000004
   15.89944458  145.04200745    0.67000002    2.71000004
   15.90277767  145.54899597    0.69000000    2.71000004
   15.90583324  144.10699463    0.69000000    2.71000004
   15.90916634  149.56199646    0.70999998    2.71000004
   15.91499996  149.56199646    0.70999998    2.71000004
   15.91916656  136.88400269    0.70999998    2.73000002
   15.92250061  140.66700745    0.70999998    2.71000004
   15.92333412  156.50000000    0.70999998    2.71000004
   15.92611122  131.72599792    0.70999998    2.73000002
   15.92916679  138.17700195    0.70999998    2.71000004
   15.93249989  138.75999451    0.69000000    2.71000004
   15.93555546  156.14199829    0.69000000    2.71000004
   15.93888855  151.71899414    0.69000000    2.71000004
   15.94222260  155.05599976    0.69000000    2.73000002
   15.94527817  161.20100403    0.67000002    2.73000002
   15.94861126  132.52799988    0.67000002    2.73000002
   15.95194435  141.37399292    0.69000000    2.73000002
   15.95777798  141.37399292    0.69000000    2.71000004
   15.96194458  139.71699524    0.69000000    2.71000004
   15.96527767  143.22599792    0.67000002    2.71000004
   15.96861076  146.48800659    0.69000000    2.71000004
   15.97166634  148.83399963    0.67000002    2.73000002
   15.97499943  149.90499878    0.67000002    2.71000004
   15.97805500  140.34800720    0.67000002    2.71000004
   15.98138809  139.13600159    0.67000002    2.71000004
   15.98472214  151.11099243    0.67000002    2.71000004
   15.98777771  130.71699524    0.73000002    2.73000002
   15.99000072  125.25900269    0.73000002    2.71000004
   15.99166679  145.47399902    0.73000002    2.73000002
   15.99472237  148.06799316    0.69000000    2.71000004
   16.00083351  148.06799316    0.69000000    2.71000004
   16.00472260  134.89399719    0.69000000    2.71000004
   16.00805473  131.73399353    0.70999998    2.73000002
   16.01138878  134.57499695    0.70999998    2.71000004
   16.01444435  134.65699768    0.70999998    2.71000004
   16.01777840  137.99499512    0.75000000    2.73000002
   16.02111053  137.99000549    0.75000000    2.71000004
   16.02333260  136.20899963    0.75000000    2.73000002
   16.02472115  144.15400696    0.73000002    2.73000002
   16.02777672  141.29200745    0.70999998    2.71000004
   16.03111076  138.95799255    0.70999998    2.71000004
   16.03416634  143.85299683    0.67000002    2.73000002
   16.03750038  143.11199951    0.67000002    2.73000002
   16.04361153  143.11199951    0.64999998    2.71000004
   16.04777718  144.71699524    0.64999998    2.73000002
   16.05083275  133.19999695    0.67000002    2.73000002
   16.05416679  137.56199646    0.67000002    2.73000002
   16.05666542  147.53300476    0.67000002    2.73000002
   16.05777740  144.25799561    0.67000002    2.73000002
   16.06083298  140.98300171    0.69000000    2.73000002
   16.06416512  139.12699890    0.69000000    2.71000004
   16.06750107  143.59899902    0.70999998    2.71000004
   16.07055664  130.14999390    0.70999998    2.71000004
   16.07389069  126.44300079    0.73000002    2.71000004
   16.07722282  145.35499573    0.70999998    2.71000004
   16.08027840  139.80200195    0.73000002    2.73000002
   16.08638954  139.80200195    0.75000000    2.71000004
   16.09055710  129.45100403    0.75000000    2.73000002
   16.09388924  134.00500488    0.75000000    2.71000004
   16.09694481  119.63300323    0.75000000    2.71000004
   16.10027885  141.11599731    0.70999998    2.73000002
   16.10333443  138.07099915    0.69000000    2.71000004
   16.10666656  131.21499634    0.69000000    2.71000004
   16.11000061  129.49800110    0.64999998    2.71000004
   16.11305618  130.91600037    0.64999998    2.73000002
   16.11638832  132.30000305    0.64999998    2.73000002
   16.11972237  138.74699402    0.63000000    2.73000002
   16.12277794  144.55999756    0.61000001    2.73000002
   16.12333298  129.48399353    0.61000001    2.71000004
   16.12916756  129.48399353    0.56999999    2.73000002
   16.13333321  146.21600342    0.56999999    2.73000002
   16.13666725  154.98599243    0.56999999    2.73000002
   16.13972282  140.54600525    0.56999999    2.73000002
   16.14305496  163.23199463    0.56999999    2.73000002
   16.14638901  138.23399353    0.56999999    2.71000004
   16.14944458  145.10400391    0.55000001    2.71000004
   16.15277672  135.62399292    0.55000001    2.73000002
   16.15611076  152.89199829    0.55000001    2.71000004
   16.15666580  162.54100037    0.55000001    2.71000004
   16.15972137  133.45199585    0.55000001    2.71000004
   16.16277695  139.65199280    0.55000001    2.73000002
   16.16611099  143.65499878    0.56999999    2.73000002
   16.17194366  143.65499878    0.55000001    2.71000004
   16.17611122  137.79299927    0.50000000    2.73000002
   16.17944336  141.13699341    0.52999997    2.75000000
   16.18277740  151.30099487    0.51999998    2.73000002
   16.18583298  144.83200073    0.51999998    2.73000002
   16.18916512  138.76100159    0.51999998    2.73000002
   16.18999863  145.61900330    0.51999998    2.73000002
   16.19277763  141.89700317    0.52999997    2.73000002
   16.19583321  138.47799683    0.52999997    2.73000002
   16.19916534  132.24099731    0.51999998    2.73000002
   16.20250130  142.56199646    0.51999998    2.73000002
   16.20555687  134.31199646    0.52999997    2.73000002
   16.20888901  136.04200745    0.51999998    2.71000004
   16.21500015  136.04200745    0.52999997    2.73000002
   16.21916771  141.13600159    0.51999998    2.73000002
   16.22222328  139.12199402    0.52999997    2.73000002
   16.22333336  141.02299500    0.52999997    2.73000002
   16.22611237  133.32600403    0.51999998    2.71000004
   16.22944450  145.23100281    0.51999998    2.75000000
   16.23250008  139.84899902    0.51999998    2.75000000
   16.23583412  148.47799683    0.50000000    2.75000000
   16.23888969  134.49200439    0.50000000    2.73000002
   16.24222183  136.26400757    0.50000000    2.73000002
   16.24555588  142.05700684    0.50000000    2.73000002
   16.24861145  145.72500610    0.50000000    2.73000002
   16.25194359  132.17799377    0.51999998    2.73000002
   16.25777817  132.17799377    0.51999998    2.73000002
   16.26194382  137.52299500    0.52999997    2.71000004
   16.26499939  138.97000122    0.52999997    2.73000002
   16.26833344  149.28300476    0.52999997    2.73000002
   16.27166557  133.46699524    0.51999998    2.73000002
   16.27472115  133.09399414    0.51999998    2.73000002
   16.27805519  137.38200378    0.51999998    2.73000002
   16.28111076  138.07099915    0.51999998    2.73000002
   16.28444481  149.14900208    0.51999998    2.75000000
   16.28777695  134.05499268    0.52999997    2.73000002
   16.28999901  134.88000488    0.52999997    2.73000002
   16.29138756  129.37899780    0.51999998    2.73000002
   16.29444313  140.89599609    0.52999997    2.73000002
   16.30055428  140.89599609    0.55000001    2.73000002
   16.30472183  136.56700134    0.56999999    2.73000002
   16.30805397  124.10199738    0.56999999    2.73000002
   16.31110954  133.60800171    0.55000001    2.73000002
   16.31444359  148.09599304    0.55000001    2.73000002
   16.31750107  134.47099304    0.55000001    2.73000002
   16.32083511  145.16900635    0.55000001    2.73000002
   16.32333374  132.50199890    0.55000001    2.73000002
   16.32444572  156.49800110    0.55000001    2.73000002
   16.32750130  143.75199890    0.58999997    2.73000002
   16.33083344  149.68299866    0.61000001    2.75000000
   16.33416748  149.30099487    0.61000001    2.73000002
   16.33750153  143.52799988    0.61000001    2.73000002
   16.34333420  143.52799988    0.61000001    2.73000002
   16.34749985  145.65899658    0.63000000    2.73000002
   16.35083389  135.10099792    0.64999998    2.73000002
   16.35416794  149.94999695    0.64999998    2.73000002
   16.35666656  148.42700195    0.64999998    2.73000002
   16.35777855  139.92700195    0.67000002    2.73000002
   16.36111069  139.70599365    0.64999998    2.73000002
   16.36444473  139.71499634    0.64999998    2.73000002
   16.36750031  134.56500244    0.63000000    2.73000002
   16.37083435  142.69999695    0.64999998    2.73000002
   16.37416649  141.75900269    0.64999998    2.73000002
   16.37722206  144.38699341    0.63000000    2.73000002
   16.38055611  149.65499878    0.61000001    2.73000002
   16.38638878  149.65499878    0.61000001    2.73000002
   16.39027786  131.43400574    0.61000001    2.73000002
   16.39361191  140.83900452    0.58999997    2.73000002
   16.39694405  141.33099365    0.58999997    2.73000002
   16.39999962  142.46499634    0.58999997    2.71000004
   16.40333366  129.96699524    0.58999997    2.71000004
   16.40666580  145.00100708    0.56999999    2.75000000
   16.40972137  133.20100403    0.56999999    2.73000002
   16.41305542  133.76699829    0.56999999    2.73000002
   16.41638756  138.17799377    0.56999999    2.73000002
   16.41944313  144.27400208    0.55000001    2.75000000
   16.42277718  144.55599976    0.56999999    2.73000002
   16.42333221  138.62199402    0.56999999    2.73000002
   16.42916679  138.62199402    0.56999999    2.73000002
   16.43333244  146.00900269    0.55000001    2.73000002
   16.43638802  145.32200623    0.56999999    2.73000002
   16.43972206  151.97000122    0.55000001    2.73000002
   16.44305420  143.34500122    0.56999999    2.73000002
   16.44610977  140.16700745    0.56999999    2.73000002
   16.44944382  148.25700378    0.58999997    2.73000002
   16.45250130  138.04899597    0.58999997    2.71000004
   16.45583344  160.27299500    0.58999997    2.73000002
   16.45666695  145.47399902    0.61000001    2.73000002
   16.45944595  149.24400330    0.61000001    2.73000002
   16.46250153  140.83399963    0.58999997    2.75000000
   16.46583366  126.48999786    0.58999997    2.73000002
   16.47194481  126.48999786    0.67000002    2.73000002
   16.47611237  142.62100220    0.64999998    2.73000002
   16.47944450  140.74200439    0.64999998    2.73000002
   16.48250008  136.35200500    0.64999998    2.73000002
   16.48583412  136.44200134    0.67000002    2.73000002
   16.48888969  142.47000122    0.67000002    2.73000002
   16.48999977  139.97500610    0.67000002    2.73000002
   16.49277878  143.05599976    0.67000002    2.73000002
   16.49583435  147.38999939    0.64999998    2.73000002
   16.49916649  147.08399963    0.67000002    2.73000002
   16.50250053  149.15600586    0.75000000    2.73000002
   16.50555611  142.97200012    0.75000000    2.73000002
   16.50888824  151.90100098    0.79000002    2.73000002
   16.51472282  151.90100098    0.73000002    2.73000002
   16.51888847  142.18200684    0.75000000    2.73000002
   16.52222252  151.51499939    0.79000002    2.73000002
   16.52333260  143.08000183    0.80000001    2.71000004
   16.52583313  147.72300720    0.83999997    2.73000002
   16.52888870  152.61099243    0.86000001    2.75000000
   16.53222275  145.64199829    0.88000000    2.73000002
   16.53555489  156.34300232    0.92000002    2.73000002
   16.53861046  152.33999634    0.92000002    2.73000002
   16.54194450  154.06900024    0.89999998    2.73000002
   16.54527664  153.54600525    0.79000002    2.71000004
   16.54833221  148.05900574    0.75000000    2.71000004
   16.55166626  152.04299927    0.73000002    2.73000002
   16.55777740  152.04299927    0.73000002    2.73000002
   16.56166649  140.32400513    0.70999998    2.73000002
   16.56499863  148.46899414    0.70999998    2.73000002
   16.56833458  150.30799866    0.70999998    2.73000002
   16.57139015  148.55099487    0.69000000    2.71000004
   16.57472229  154.94299316    0.67000002    2.71000004
   16.57805634  143.23800659    0.67000002    2.71000004
   16.58111191  136.25300598    0.67000002    2.73000002
   16.58444595  145.94500732    0.67000002    2.73000002
   16.58750153  157.79299927    0.67000002    2.73000002
   16.59000015  163.05200195    0.67000002    2.75000000
   16.59138870  149.29299927    0.67000002    2.75000000
   16.59472275  148.65199280    0.67000002    2.73000002
   16.60055542  148.65199280    0.67000002    2.73000002
   16.60472298  166.60400391    0.67000002    2.73000002
   16.60777855  146.85499573    0.67000002    2.71000004
   16.61111069  148.50900269    0.67000002    2.73000002
   16.61444473  161.98800659    0.64999998    2.73000002
   16.61750031  154.68200684    0.64999998    2.73000002
   16.62083435  161.18899536    0.64999998    2.73000002
   16.62333298  167.54200745    0.64999998    2.73000002
   16.62472153  135.23399353    0.64999998    2.73000002
   16.62805557  164.87300110    0.67000002    2.73000002
   16.63111115  151.21499634    0.67000002    2.71000004
   16.63444519  159.52400208    0.67000002    2.75000000
   16.63750076  150.12600708    0.67000002    2.73000002
   16.64333344  150.12600708    0.69000000    2.73000002
   16.64749908  143.32499695    0.70999998    2.73000002
   16.65083313  146.42599487    0.70999998    2.73000002
   16.65388870  142.12800598    0.70999998    2.73000002
   16.65666580  136.29699707    0.70999998    2.75000000
   16.65749931  162.70799255    0.70999998    2.75000000
   16.66055489  144.81300354    0.70999998    2.73000002
   16.66388893  145.78900146    0.70999998    2.73000002
   16.66722107  147.98899841    0.70999998    2.73000002
   16.67027664  150.28799438    0.70999998    2.71000004
   16.67361069  142.22599792    0.69000000    2.73000002
   16.67694473  146.07699585    0.69000000    2.73000002
   16.68000031  158.96899414    0.69000000    2.71000004
   16.68610954  158.96899414    0.67000002    2.73000002
   16.69027710  150.25500488    0.69000000    2.73000002
   16.69361115  153.65199280    0.73000002    2.73000002
   16.69666672  149.90100098    0.73000002    2.73000002
   16.70000076  150.40600586    0.73000002    2.73000002
   16.70333481  135.55499268    0.73000002    2.73000002
   16.70639038  149.87500000    0.73000002    2.75000000
   16.70972252  154.11799622    0.70999998    2.73000002
   16.71305656  143.87800598    0.73000002    2.73000002
   16.71611214  141.00599670    0.70999998    2.73000002
   16.71944427  161.32299805    0.70999998    2.75000000
   16.72249985  149.64399719    0.75000000    2.73000002
   16.72333336  154.34800720    0.75000000    2.73000002
   16.72916794  154.34800720    0.75000000    2.73000002
   16.73305511  136.27900696    0.75000000    2.71000004
   16.73638916  153.74000549    0.76999998    2.73000002
   16.73972321  126.53399658    0.76999998    2.73000002
   16.74277878  135.87100220    0.75000000    2.73000002
   16.74611092  147.10499573    0.76999998    2.73000002
   16.74944496  152.37600708    0.76999998    2.71000004
   16.75277710  146.99000549    0.76999998    2.73000002
   16.75583267  135.70199585    0.75000000    2.73000002
   16.75666618  134.29100037    0.75000000    2.73000002
   16.75944519  156.55400085    0.75000000    2.73000002
   16.76277733  149.80400085    0.73000002    2.73000002
   16.76583290  157.73800659    0.73000002    2.73000002
   16.77194405  157.73800659    0.75000000    2.73000002
   16.77611160  163.61300659    0.75000000    2.73000002
   16.77916718  162.92700195    0.75000000    2.73000002
   16.78249931  160.69400024    0.75000000    2.73000002
   16.78583336  160.30999756    0.75000000    2.75000000
   16.78888893  145.95599365    0.75000000    2.75000000
   16.78999901  145.85800171    0.75000000    2.75000000
   16.79249954  153.87699890    0.75000000    2.73000002
   16.79583359  127.70500183    0.75000000    2.73000002
   16.79888916  137.48599243    0.75000000    2.73000002
   16.80222130  140.57699585    0.73000002    2.73000002
   16.80527687  134.17399597    0.75000000    2.71000004
   16.80861092  133.16299438    0.73000002    2.75000000
   16.81472206  133.16299438    0.75000000    2.75000000
   16.81888962  131.60600281    0.75000000    2.73000002
   16.82222366  136.66900635    0.75000000    2.73000002
   16.82333374  132.12399292    0.75000000    2.71000004
   16.82583427  120.67600250    0.75000000    2.71000004
   16.82916832  128.18899536    0.75000000    2.73000002
   16.83222389  141.26800537    0.73000002    2.73000002
   16.83555603  141.04699707    0.73000002    2.71000004
   16.83889008  145.87399292    0.70999998    2.73000002
   16.84194565  137.54800415    0.70999998    2.73000002
   16.84527779  131.41499329    0.69000000    2.73000002
   16.84833336  132.95899963    0.69000000    2.75000000
   16.85166740  131.05700684    0.69000000    2.73000002
   16.87388992  125.77100372    0.69000000    2.73000002
   16.87444496  128.41499329    0.69000000    2.71000004
   16.87750053  127.22299957    0.69000000    2.73000002
   16.88083267  128.88800049    0.70999998    2.73000002
   16.88416672  130.81799316    0.73000002    2.75000000
   16.88722229  130.98599243    0.75000000    2.75000000
   16.89027786  132.91600037    0.79000002    2.73000002
   16.89111137  124.09500122    0.79000002    2.73000002
   16.89416695  133.34199524    0.69000000    2.73000002
   16.90055466  133.34199524    0.64999998    2.71000004
   16.90472221  128.35600281    0.63000000    2.73000002
   16.90777779  128.60899353    0.63000000    2.73000002
   16.91110992  126.71800232    0.63000000    2.73000002
   16.91416550  129.99600220    0.61000001    2.75000000
   16.91749954  134.47300720    0.63000000    2.73000002
   16.92083359  126.22200012    0.75000000    2.73000002
   16.92333221  137.88200378    0.80000001    2.73000002
   16.92444420  137.97500610    0.83999997    2.73000002
   16.92777634  135.69200134    1.03999996    2.71000004
   16.93083191  146.72799683    1.07000005    2.73000002
   16.93416595  144.47599792    0.88000000    2.73000002
   16.93750000  145.77099609    0.81999999    2.73000002
   16.94333267  145.77099609    0.86000001    2.73000002
   16.94749832  135.38400269    0.86000001    2.73000002
   16.95055580  130.20899963    1.21000004    2.71000004
   16.95388985  119.06900024    1.28999996    2.71000004
   16.95666695  121.32399750    1.53999996    2.67000008
   16.95750046  129.30099487    1.53999996    2.67000008
   16.96083450  134.28500366    1.94000006    2.73000002
   16.96389008  136.84700012    1.60000002    2.69000006
   16.96722221  143.23399353    1.34000003    2.69000006
   16.97055626  144.01400757    1.34000003    2.73000002
   16.97361183  137.44700623    1.38000000    2.71000004
   16.97694588  128.38299561    1.39999998    2.71000004
   16.98000145  148.07800293    1.39999998    2.71000004
   16.98611069  148.07800293    1.36000001    2.75000000
   16.99027824  133.72000122    0.98000002    2.73000002
   16.99361229  133.54499817    0.92000002    2.71000004
   16.99666786  135.69400024    1.21000004    2.69000006
   17.00000000  151.58700562    1.86000001    2.67000008
   17.00333405  135.19599915    2.34999990    2.64000010
   17.00638962  148.02900696    3.41000009    2.53999996
   17.00972176  146.46400452    4.90999985    2.51999998
   17.01277733  167.93299866    4.90999985    2.55999994
   17.01611137  145.24400330    4.90999985    2.42000008
   17.01944351  134.94900513    4.84999990    2.64000010
   17.02249908  145.16799927    3.43000007    2.71000004
   17.02333260  135.30599976    2.98000002    2.73000002
   17.02888870  135.30599976    1.34000003    2.73000002
   17.03305435  129.88699341    0.94000000    2.71000004
   17.03638840  136.52400208    0.80000001    2.73000002
   17.03972244  126.33599854    0.76999998    2.71000004
   17.04277802  135.93299866    0.86000001    2.73000002
   17.04611015  128.38699341    0.83999997    2.75000000
   17.04916573  124.64299774    0.89999998    2.73000002
   17.05249977  122.33100128    1.66999996    2.75000000
   17.05583191  119.60299683    2.86999989    2.75000000
   17.05666542  141.30200195    3.43000007    2.73000002
   17.05944443  125.07099915    3.73000002    2.71000004
   17.06277657  131.85200500    4.82999992    2.64000010
   17.06583214  264.62399292    4.90999985    2.48000002
   17.07194519  264.62399292    4.90999985    2.66000009
   17.07611275  126.96800232    4.90999985    2.53999996
   17.07916832  141.64799500    4.90999985    2.50000000
   17.08250046  152.14799500    4.90999985    2.40000010
   17.08555603  229.31700134    4.90999985    2.40000010
   17.08889008  167.23599243    4.90999985    2.30999994
   17.09027863  162.86900330    4.90999985    2.32999992
   17.09250069  424.00399780    4.90999985    2.28999996
   17.09472275   85.54070282    4.90999985    2.07999992
   17.09472275  131.85200500    4.82999992    2.64000010
   17.09472275  264.62399292    4.90999985    2.48000002
   17.09500122  126.96800232    4.90999985    2.53999996
   17.09500122  141.64799500    4.90999985    2.50000000
   17.09500122  152.14799500    4.90999985    2.40000010
   17.09527779  229.31700134    4.90999985    2.40000010
   17.09527779  167.23599243    4.90999985    2.30999994
   17.09527779  424.00399780    4.90999985    2.28999996
   17.09555626  125.07099915    3.73000002    2.71000004
   17.09722328  328.91299438    4.90999985    1.89999998
   17.10027885  193.13499451    4.90999985    2.07999992
   17.10361099   56.49860001    4.90999985    2.03999996
   17.10694504  195.42500305    4.90999985    1.71000004
   17.11000061   -1.00000000    4.90999985    1.94000006
   17.11555672   -1.00000000    4.90999985    1.78999996
   17.11944389  165.48500061    4.90999985    2.59999990
   17.12277794  143.59899902    4.90999985    2.57999992
   17.12611198  144.26899719    4.90999985    2.64000010
   17.12861061  143.08399963    4.90999985    2.61999989
   17.12972260  138.85800171    4.90999985    2.66000009
   17.13305473  131.33399963    4.90999985    2.69000006
   17.13638878  144.95799255    4.90999985    2.66000009
   17.13944435  129.84700012    4.90999985    2.59999990
   17.14277840  169.29699707    4.90999985    2.50000000
   17.14583397  168.76300049    4.90999985    2.39000010
   17.14916611  218.90800476    4.90999985    2.44000006
   17.15250015  221.03999329    4.90999985    2.30999994
   17.15833282  221.03999329    4.90999985    2.40000010
   17.16250038  164.98399353    3.68000007    2.71000004
   17.16555595  181.11599731    0.55000001    0.47999999
   17.16888809  185.04100037    0.28000000    0.23000000
   17.17222214  184.04899597    0.25000000    0.09000000
   17.17527771  196.80999756    0.25000000    0.09000000
   17.17860985  178.63200378    0.25000000    0.09000000
   17.18166542  176.73100281    0.25000000    0.09000000
   17.18499947  175.41999817    0.25000000    0.09000000
   17.18833160  191.64599609    0.25000000    0.09000000
   17.19138718  150.58900452    0.25000000    0.09000000
   17.19472122  150.47399902    0.25000000    0.09000000
   17.19527626  152.20599365    0.25000000    0.09000000
   17.20111275  152.20599365    0.25000000    0.09000000
   17.20527840  172.61199951    0.25000000    0.09000000
   17.20861244  151.58500671    0.25000000    0.09000000
   17.21166801  189.72700500    0.25000000    0.09000000
   17.21500015  173.97399902    0.25000000    0.09000000
   17.21805573  145.27200317    0.25000000    0.09000000
   17.22138977  253.10600281    0.25000000    0.09000000
   17.22472191  473.11700439    0.25000000    0.09000000
   17.22666740  257.25698853    0.25000000    0.09000000
   17.22666740  172.61199951    0.25000000    0.09000000
   17.22694588  151.58500671    0.25000000    0.09000000
   17.22694588  189.72700500    0.25000000    0.09000000
   17.22694588  173.97399902    0.25000000    0.09000000
   17.22722244  145.27200317    0.25000000    0.09000000
   17.22722244  253.10600281    0.25000000    0.09000000
   17.22722244  473.11700439    0.25000000    0.09000000
   17.22750092  150.58900452    0.25000000    0.09000000
   17.22750092  150.47399902    0.25000000    0.09000000
   17.22944450  165.39399719    0.25000000    0.09000000
   17.23277855  293.95901489    0.25000000    0.09000000
   17.23611069  200.72999573    0.25000000    0.09000000
   17.23916626  165.53799438    0.25000000    0.09000000
   17.24250031  170.03700256    0.25000000    0.09000000
   17.24749947  170.03700256    0.25000000    0.09000000
   17.25166702  151.38200378    0.25000000    0.09000000
   17.25472260  152.89300537    0.25000000    0.09000000
   17.25805473  138.79200745    0.25000000    0.09000000
   17.26055527  162.53999329    0.25000000    0.09000000
   17.26194382  136.17799377    0.25000000    0.09000000
   17.26499939  132.49000549    0.25000000    0.09000000
   17.26833344  145.35000610    0.25000000    0.09000000
   17.27138901  147.46800232    0.25000000    0.09000000
   17.27472115  139.19299316    0.25000000    0.09000000
   17.27805519  127.83899689    0.25000000    0.09000000
   17.28111076  146.78199768    0.25000000    0.09000000
   17.28444481  141.51400757    0.25000000    0.09000000
   17.29027748  141.51400757    0.25000000    0.09000000
   17.29444313  144.14999390    0.25000000    0.09000000
   17.29777718  139.89700317    0.25000000    0.09000000
   17.30083275  155.56799316    0.25000000    0.09000000
   17.30416679  142.83200073    0.25000000    0.09000000
   17.30749893  129.62399292    0.25000000    0.09000000
   17.31055450  142.66400146    0.25000000    0.09000000
   17.31388855  155.33999634    0.25000000    0.09000000
