    HOUR (UT)   FLARE FACTOR    SKY TESTER    SUN TESTER
   11.01416683   -1.00000000   -1.00000000   -1.00000000
   11.16111088  176.63800049    1.28999996    2.44000006
   11.16416645  185.58700562    1.33000004    2.44000006
   11.16750050  182.73300171    1.28999996    2.46000004
   11.17055607  176.42999268    1.26999998    2.46000004
   11.17388916  175.05099487    1.28999996    2.46000004
   11.17722225  185.24000549    1.28999996    2.46000004
   11.18138885  185.24000549    1.26999998    2.46000004
   11.18583298  149.55700684    1.26999998    2.46000004
   11.18888855  177.75799561    1.26999998    2.44000006
   11.19222260  164.04200745    1.26999998    2.46000004
   11.19416714  170.71699524    1.26999998    2.46000004
   11.19583321  186.94299316    1.28999996    2.48000002
   11.19916630  187.79400635    1.28999996    2.48000002
   11.20222187  170.54499817    1.26999998    2.46000004
   11.20555496  174.85499573    1.26999998    2.46000004
   11.20861053  182.66200256    1.25000000    2.46000004
   11.21194458  162.83200073    1.25000000    2.48000002
   11.21527767  158.88900757    1.25000000    2.46000004
   11.21833324  177.36900330    1.25000000    2.46000004
   11.22416592  177.36900330    1.25000000    2.46000004
   11.22833252  175.96000671    1.25000000    2.46000004
   11.23138809  165.39700317    1.23000002    2.48000002
   11.23472214  166.47300720    1.25000000    2.46000004
   11.23777771  162.43299866    1.23000002    2.48000002
   11.24111176  165.97300720    1.23000002    2.48000002
   11.24444485  164.10600281    1.23000002    2.48000002
   11.24750042  164.07200623    1.23000002    2.48000002
   11.25083351  170.51100159    1.23000002    2.48000002
   11.25388908  159.92999268    1.23000002    2.48000002
   11.25722218  164.67900085    1.23000002    2.48000002
   11.26055527  162.58999634    1.23000002    2.48000002
   11.26083374  147.38400269    1.23000002    2.48000002
   11.26694393  147.38400269    1.23000002    2.48000002
   11.27111053  165.75300598    1.23000002    2.50000000
   11.27444458  144.45500183    1.23000002    2.48000002
   11.27750015  165.58000183    1.23000002    2.48000002
   11.28083324  159.89199829    1.21000004    2.50000000
   11.28388977  157.33999634    1.21000004    2.50000000
   11.28722286  163.17199707    1.21000004    2.50000000
   11.29027843  165.35400391    1.21000004    2.50000000
   11.29361153  170.28599548    1.21000004    2.50000000
   11.29472256  167.06199646    1.21000004    2.50000000
   11.29750061  165.07299805    1.21000004    2.50000000
   11.30083370  154.28100586    1.21000004    2.50000000
   11.30388927  156.82299805    1.21000004    2.50000000
   11.30972195  156.82299805    1.21000004    2.48000002
   11.31388950  155.52099609    1.19000006    2.50000000
   11.31722260  154.65899658    1.19000006    2.50000000
   11.32055569  179.95100403    1.19000006    2.48000002
   11.32361126  196.41200256    1.19000006    2.51999998
   11.32694435  217.71899414    1.19000006    2.50000000
   11.32777786  208.60000610    1.19000006    2.50000000
   11.33055592  229.24600220    1.19000006    2.50000000
   11.33388901  255.28300476    1.19000006    2.51999998
   11.33694458  327.40399170    1.19000006    2.51999998
   11.34027767  232.66700745    1.19000006    2.50000000
   11.34361076  290.73699951    1.19000006    2.51999998
   11.34666634  305.33599854    1.19000006    2.50000000
   11.35277843  305.33599854    1.19000006    2.50000000
   11.35666752  379.95199585    1.19000006    2.51999998
   11.36000061  355.81600952    1.19000006    2.50000000
   11.36083412  346.43600464    1.19000006    2.50000000
   11.36361122  356.52700806    1.19000006    2.50000000
   11.36694431  301.69100952    1.16999996    2.51999998
   11.36999989  270.71301270    1.19000006    2.51999998
   11.37333393  319.30200195    1.16999996    2.50000000
   11.37666702  321.61499023    1.16999996    2.51999998
   11.37972260  291.39801025    1.16999996    2.51999998
   11.38305569  273.05200195    1.16999996    2.51999998
   11.38611126  283.72900391    1.16999996    2.53999996
   11.38944435  299.30200195    1.16999996    2.51999998
   11.39555550  299.30200195    1.16999996    2.51999998
   11.39972210  265.61300659    1.16999996    2.53999996
   11.40277767  284.38198853    1.16999996    2.51999998
   11.40611076  267.11999512    1.16999996    2.51999998
   11.40916634  229.08500671    1.14999998    2.51999998
   11.41249943  265.19299316    1.14999998    2.53999996
   11.41611099  220.32400513    1.14999998    2.51999998
   11.41916656  325.67999268    1.13000000    2.51999998
   11.42250061  304.40399170    1.13000000    2.53999996
   11.42583370  256.44601440    1.14999998    2.53999996
   11.42750072  255.05599976    1.14999998    2.53999996
   11.42944431  245.54899597    1.13000000    2.53999996
   11.43277836  260.37500000    1.13000000    2.53999996
   11.43833351  260.37500000    1.13000000    2.53999996
   11.44250011  240.29899597    1.13000000    2.53999996
   11.44555569  235.09700012    1.13000000    2.53999996
   11.44888878  242.63400269    1.14999998    2.53999996
   11.45222187  219.55700684    1.13000000    2.55999994
   11.45527744  218.94200134    1.13000000    2.55999994
   11.45861053  193.34399414    1.13000000    2.53999996
   11.46083355  234.62699890    1.13000000    2.53999996
   11.46222210  235.41099548    1.13000000    2.53999996
   11.46555519  263.37100220    1.13000000    2.55999994
   11.46861076  185.56700134    1.13000000    2.53999996
   11.47194386  208.59599304    1.13000000    2.53999996
   11.47527695  233.44400024    1.11000001    2.53999996
   11.48111057  233.44400024    1.13000000    2.55999994
   11.48527813  192.24600220    1.11000001    2.53999996
   11.48861122  184.99699402    1.11000001    2.55999994
   11.49166679  203.95799255    1.11000001    2.55999994
   11.49416733  142.42399597    1.11000001    2.55999994
   11.49527836  149.79600525    1.11000001    2.55999994
   11.49861145  212.38600159    1.11000001    2.55999994
   11.50166702  174.61500549    1.11000001    2.53999996
   11.50500011  245.02999878    1.11000001    2.55999994
   11.50833321  197.14999390    1.11000001    2.55999994
   11.51166630  149.31700134    1.11000001    2.55999994
   11.51472187  166.62199402    1.11000001    2.55999994
   11.51805496  200.90800476    1.11000001    2.55999994
   11.52388859  200.90800476    1.11000001    2.55999994
   11.52805519  170.26499939    1.11000001    2.55999994
   11.53138828  128.57600403    1.11000001    2.55999994
   11.53472233  138.19999695    1.11000001    2.55999994
   11.53777790  183.88400269    1.11000001    2.55999994
   11.54111195  157.18899536    1.11000001    2.55999994
   11.54444504  169.89199829    1.09000003    2.57999992
   11.54750061  163.00900269    1.09000003    2.55999994
   11.55083370  156.97000122    1.09000003    2.55999994
   11.55388927  170.94999695    1.09000003    2.57999992
   11.55722237  227.77099609    1.09000003    2.57999992
   11.56055546  137.98599243    1.09000003    2.57999992
   11.56111145  147.33799744    1.09000003    2.57999992
   11.56694412  147.33799744    1.09000003    2.55999994
   11.57111073  136.03199768    1.09000003    2.57999992
   11.57444477  140.21499634    1.09000003    2.57999992
   11.57750034  149.85400391    1.07000005    2.57999992
   11.58083344  136.90899658    1.07000005    2.57999992
   11.58388901  141.30200195    1.07000005    2.55999994
   11.58722210  136.25399780    1.07000005    2.55999994
   11.59055519  142.86500549    1.09000003    2.57999992
   11.59361076  135.35000610    1.09000003    2.57999992
   11.59444427  147.93899536    1.09000003    2.57999992
   11.59722233  140.04400635    1.07000005    2.57999992
   11.60055637  143.36900330    1.07000005    2.59999990
   11.60388947  140.42300415    1.07000005    2.59999990
   11.60972214  140.42300415    1.07000005    2.55999994
   11.61388969  128.57299805    1.05999994    2.57999992
   11.61694431  126.20999908    1.07000005    2.57999992
   11.62027836  135.95799255    1.05999994    2.59999990
   11.62361145  129.56500244    1.05999994    2.57999992
   11.62666702  136.38600159    1.05999994    2.57999992
   11.62777805  125.00499725    1.05999994    2.59999990
   11.63027763  125.39800262    1.05999994    2.59999990
   11.63361073  137.68699646    1.05999994    2.59999990
   11.63694477  135.14900208    1.05999994    2.59999990
   11.64000034  133.83099365    1.05999994    2.59999990
   11.64333344  130.02000427    1.05999994    2.59999990
   11.64638901  124.45999908    1.05999994    2.59999990
   11.65249920  124.45999908    1.05999994    2.59999990
   11.65666676  145.33500671    1.05999994    2.57999992
   11.65999985  141.84199524    1.05999994    2.57999992
   11.66111088  133.25900269    1.05999994    2.57999992
   11.66361046  154.74699402    1.05999994    2.61999989
   11.66694450  136.11399841    1.05999994    2.59999990
   11.67027855  137.96200562    1.03999996    2.59999990
   11.67333412  138.68600464    1.03999996    2.59999990
   11.67666721  128.13099670    1.03999996    2.59999990
   11.67972279  140.11599731    1.03999996    2.59999990
   11.68305588  144.81799316    1.03999996    2.61999989
   11.68638897  151.53599548    1.03999996    2.61999989
   11.68944454  132.43899536    1.01999998    2.61999989
   11.69527817  132.43899536    1.01999998    2.57999992
   11.69944477  133.89300537    1.01999998    2.61999989
   11.70277786  154.05499268    1.01999998    2.61999989
   11.70611095  121.43099976    1.01999998    2.59999990
   11.70916653  143.60099792    1.01999998    2.61999989
   11.71249962  137.59800720    1.00000000    2.61999989
   11.71583271  136.27499390    1.00000000    2.64000010
   11.71888828  152.18600464    1.01999998    2.59999990
   11.72222137  129.79400635    1.01999998    2.59999990
   11.72527695  145.62199402    1.00000000    2.61999989
   11.72777748  145.09399414    1.00000000    2.61999989
   11.72888851  154.66200256    1.00000000    2.61999989
   11.73222160  134.16400146    1.00000000    2.61999989
   11.73833370  134.16400146    1.00000000    2.59999990
   11.74250031  164.24400330    1.00000000    2.61999989
   11.74555588  150.43899536    0.98000002    2.61999989
   11.74888897  159.98800659    0.98000002    2.61999989
   11.75194454  142.22799683    0.98000002    2.61999989
   11.75527763  155.13000488    1.00000000    2.64000010
   11.75861073  172.48300171    1.00000000    2.61999989
   11.76111126  147.72000122    0.98000002    2.61999989
   11.76222229  145.31799316    0.98000002    2.61999989
   11.76555538  140.14500427    0.98000002    2.61999989
   11.76888847  154.12199402    0.98000002    2.61999989
   11.77194405  135.38400269    0.98000002    2.64000010
   11.77527714  145.55900574    0.95999998    2.64000010
   11.78111076  145.55900574    0.95999998    2.61999989
   11.78527832  141.15800476    0.95999998    2.64000010
   11.78833389  152.44000244    0.95999998    2.64000010
   11.79166698  157.21899414    0.95999998    2.64000010
   11.79444504  136.50999451    0.95999998    2.64000010
   11.79527855  154.99299622    0.95999998    2.61999989
   11.79861164  144.48100281    0.95999998    2.61999989
   11.80194473  140.47799683    0.95999998    2.64000010
   11.80500031  146.27900696    0.95999998    2.64000010
   11.80833340  153.70700073    0.95999998    2.64000010
   11.81138897  137.95599365    0.95999998    2.64000010
   11.81472206  129.94599915    0.94000000    2.64000010
   11.81805515  133.57699585    0.94000000    2.64000010
   11.82388878  133.57699585    0.94000000    2.64000010
   11.82805538  134.04499817    0.94000000    2.64000010
   11.83138847  140.26100159    0.92000002    2.64000010
   11.83444405  144.83200073    0.94000000    2.64000010
   11.83777714  138.94599915    0.94000000    2.64000010
   11.84111118  139.46200562    0.92000002    2.64000010
   11.84416676  144.43699646    0.92000002    2.66000009
   11.84749985  142.32699585    0.92000002    2.64000010
   11.85083389  149.60400391    0.92000002    2.66000009
   11.85388947  140.95100403    0.92000002    2.64000010
   11.85722256  145.17199707    0.92000002    2.64000010
   11.86027813  136.46800232    0.92000002    2.66000009
   11.86111164  136.23699951    0.92000002    2.66000009
   11.86666679  136.23699951    0.89999998    2.64000010
   11.87083340  141.48599243    0.92000002    2.64000010
   11.87416649  147.36000061    0.89999998    2.64000010
   11.87750053  113.87899780    0.89999998    2.64000010
   11.88055611  149.58599854    0.89999998    2.66000009
   11.88388920  123.37899780    0.89999998    2.66000009
   11.88694477  137.26100159    0.89999998    2.66000009
   11.89027786  141.62699890    0.89999998    2.66000009
   11.89361095  140.38699341    0.89999998    2.66000009
   11.89444447  135.52600098    0.89999998    2.66000009
   11.89694405  137.08599854    0.89999998    2.66000009
   11.90027714  127.89099884    0.89999998    2.64000010
   11.90361118  165.35800171    0.89999998    2.66000009
   11.90972137  165.35800171    0.88000000    2.66000009
   11.91361046  137.93899536    0.88000000    2.66000009
   11.91694450  138.71699524    0.89999998    2.66000009
   11.92027855  142.64100647    0.89999998    2.67000008
   11.92333412  143.83700562    0.88000000    2.66000009
   11.92666721  132.49299622    0.88000000    2.67000008
   11.92777824  138.43899536    0.88000000    2.67000008
   11.93027782  143.19700623    0.88000000    2.66000009
   11.93361092  140.43099976    0.88000000    2.66000009
   11.93694496  136.67300415    0.88000000    2.66000009
   11.94000053  131.17700195    0.88000000    2.66000009
   11.94333363  152.12600708    0.88000000    2.66000009
   11.94666672  135.94700623    0.88000000    2.66000009
   11.95249939  135.94700623    0.88000000    2.67000008
   11.95666695  144.37600708    0.88000000    2.69000006
   11.95972157  144.60200500    0.88000000    2.67000008
   11.96111107  141.25199890    0.88000000    2.67000008
   11.96333313  146.48899841    0.88000000    2.67000008
   11.96666622  134.02099609    0.88000000    2.66000009
   11.96999931  123.48300171    0.88000000    2.66000009
   11.97305489  127.36799622    0.88000000    2.67000008
   11.97638798  139.92399597    0.88000000    2.67000008
   11.97972202  123.01300049    0.86000001    2.67000008
   11.98277760  124.33300018    0.86000001    2.69000006
   11.98611164  120.58000183    0.86000001    2.69000006
   11.98916721  134.21400452    0.88000000    2.67000008
   11.99527836  134.21400452    0.86000001    2.69000006
   11.99944496  147.30499268    0.86000001    2.69000006
   12.00277805  122.57199860    0.86000001    2.67000008
   12.00583363  119.86000061    0.86000001    2.67000008
   12.00916672  130.81799316    0.86000001    2.67000008
   12.01249981  121.98600006    0.86000001    2.67000008
   12.01555538  124.37699890    0.86000001    2.67000008
   12.01888847  121.46800232    0.86000001    2.69000006
   12.02194405  124.51100159    0.86000001    2.67000008
   12.02527714  129.07099915    0.86000001    2.69000006
   12.02777767  118.91899872    0.86000001    2.69000006
   12.02888870  129.15699768    0.86000001    2.69000006
   12.03222179  126.15699768    0.86000001    2.66000009
   12.03805637  126.15699768    0.86000001    2.67000008
   12.04222298  122.71399689    0.86000001    2.69000006
   12.04555607  132.73800659    0.86000001    2.67000008
   12.04888916  127.75499725    0.86000001    2.67000008
   12.05194473  135.74499512    0.86000001    2.69000006
   12.05527782  128.42399597    0.83999997    2.67000008
   12.05833340  112.54799652    0.83999997    2.67000008
   12.06111145  122.32299805    0.83999997    2.67000008
   12.06194496  126.23799896    0.83999997    2.67000008
   12.06527805  128.39199829    0.83999997    2.71000004
   12.06861115  123.47499847    0.83999997    2.69000006
   12.07166672  125.48500061    0.83999997    2.71000004
   12.07499981  135.91299438    0.83999997    2.69000006
   12.08111095  135.91299438    0.83999997    2.69000006
   12.08500004  123.99800110    0.83999997    2.69000006
   12.08833313  130.28999329    0.83999997    2.69000006
   12.09166622  133.72799683    0.83999997    2.69000006
   12.09444427  131.32000732    0.83999997    2.69000006
   12.09527779  130.95899963    0.83999997    2.69000006
   12.09833336  132.18299866    0.83999997    2.69000006
   12.10166740  139.02699280    0.81999999    2.71000004
   12.10472298  128.01400757    0.81999999    2.69000006
   12.10805607  128.16299438    0.81999999    2.69000006
   12.11138916  131.76300049    0.83999997    2.69000006
   12.11444473  133.73100281    0.83999997    2.69000006
   12.11777782  133.27000427    0.83999997    2.71000004
   12.12388897  133.27000427    0.83999997    2.69000006
   12.12805557  130.95300293    0.83999997    2.69000006
   12.13111115  139.00700378    0.83999997    2.69000006
   12.13444424  126.34100342    0.83999997    2.69000006
   12.13777733  127.68499756    0.83999997    2.69000006
   12.14083290  130.84599304    0.83999997    2.71000004
   12.14416695  124.21299744    0.83999997    2.69000006
   12.14750004  131.01600647    0.83999997    2.69000006
   12.15055561  118.09600067    0.83999997    2.69000006
   12.15388870  129.07400513    0.83999997    2.69000006
   12.15694427  127.82299805    0.83999997    2.69000006
   12.16027737  130.17399597    0.83999997    2.69000006
   12.16111088  133.07099915    0.83999997    2.69000006
   12.18194485  133.07099915    0.83999997    2.71000004
   12.18583298  122.20999908    0.83999997    2.69000006
   12.18916702  113.39199829    0.83999997    2.71000004
   12.19250011  120.93499756    0.81999999    2.69000006
   12.19444466  123.45999908    0.83999997    2.71000004
   12.19611073  130.88699341    0.83999997    2.71000004
   12.19916630  127.91799927    0.81999999    2.71000004
   12.20249939  133.45700073    0.81999999    2.71000004
   12.20555496  132.57000732    0.81999999    2.71000004
   12.20888901  147.90400696    0.81999999    2.71000004
   12.21222210  172.09800720    0.81999999    2.71000004
   12.21527767  147.43800354    0.83999997    2.69000006
   12.21861076  154.60000610    0.81999999    2.71000004
   12.22444439  154.60000610    0.81999999    2.71000004
   12.22861099  110.76399994    0.81999999    2.71000004
   12.23194408  130.19099426    0.81999999    2.73000002
   12.23527813  124.54000092    0.81999999    2.73000002
   12.23833370  130.66900635    0.81999999    2.71000004
   12.24166679  131.07499695    0.81999999    2.73000002
   12.24472237  128.91099548    0.81999999    2.71000004
   12.24805546  117.80999756    0.81999999    2.71000004
   12.25138855  121.76100159    0.80000001    2.71000004
   12.25444412  119.65200043    0.80000001    2.71000004
   12.25777817  124.86699677    0.80000001    2.71000004
   12.26111126  128.54600525    0.80000001    2.71000004
   12.26138878  131.17199707    0.80000001    2.71000004
   12.26749992  131.17199707    0.80000001    2.71000004
   12.27138901  132.41000366    0.80000001    2.73000002
   12.27472210  136.85699463    0.80000001    2.73000002
   12.27805519  136.58000183    0.79000002    2.73000002
   12.28111076  115.46499634    0.80000001    2.71000004
   12.28444481  141.37399292    0.79000002    2.71000004
   12.28777790  133.38499451    0.79000002    2.73000002
   12.29083347  129.28599548    0.80000001    2.71000004
   12.29416752  132.06900024    0.79000002    2.73000002
   12.29472256  127.05999756    0.79000002    2.73000002
   12.29777813  126.10199738    0.79000002    2.75000000
   12.30111122  127.38200378    0.79000002    2.71000004
   12.30416679  130.74699402    0.79000002    2.71000004
   12.31027794  130.74699402    0.79000002    2.73000002
   12.31444454  127.73000336    0.79000002    2.73000002
   12.31750011  127.13800049    0.79000002    2.73000002
   12.32083321  125.50700378    0.79000002    2.73000002
   12.32416630  127.59100342    0.79000002    2.73000002
   12.32722187  128.84700012    0.79000002    2.73000002
   12.32805538  128.66000366    0.79000002    2.73000002
   12.33083344  121.75700378    0.79000002    2.73000002
   12.33416653  123.89900208    0.76999998    2.71000004
   12.33722210  130.74800110    0.76999998    2.73000002
   12.34055519  125.01499939    0.76999998    2.73000002
   12.34388828  124.18499756    0.76999998    2.73000002
   12.34694386  130.57299805    0.76999998    2.73000002
   12.35305595  130.57299805    0.76999998    2.73000002
   12.35722256  122.87200165    0.76999998    2.73000002
   12.36055565  122.19400024    0.76999998    2.73000002
   12.36166668  122.10199738    0.76999998    2.73000002
   12.36388969  130.13000488    0.76999998    2.73000002
   12.36722279  131.98399353    0.76999998    2.71000004
   12.37027836  126.00900269    0.76999998    2.75000000
   12.37361145  125.60800171    0.76999998    2.75000000
   12.37694454  125.29000092    0.76999998    2.73000002
   12.38000011  123.69699860    0.76999998    2.73000002
   12.38333321  132.02699280    0.75000000    2.73000002
   12.38666630  118.66999817    0.75000000    2.73000002
   12.38972187  129.24699402    0.75000000    2.75000000
   12.39583302  129.24699402    0.76999998    2.75000000
   12.39999962  125.34500122    0.76999998    2.75000000
   12.40333271  103.15499878    0.76999998    2.75000000
   12.40666676  119.81400299    0.76999998    2.75000000
   12.40972137  116.98100281    0.76999998    2.75000000
   12.41305542  124.10099792    0.76999998    2.73000002
   12.41611099  117.46700287    0.76999998    2.73000002
   12.41944504  117.90399933    0.75000000    2.75000000
   12.42277813  127.22200012    0.75000000    2.75000000
   12.42583370  114.30300140    0.75000000    2.75000000
   12.42833328  129.13699341    0.75000000    2.75000000
   12.42944431  117.17199707    0.75000000    2.75000000
   12.43277836  133.71800232    0.75000000    2.73000002
   12.43888855  133.71800232    0.75000000    2.75000000
   12.44277763  125.92700195    0.75000000    2.73000002
   12.44611073  126.88200378    0.75000000    2.75000000
   12.44944477  124.67800140    0.75000000    2.75000000
   12.45249939  120.81600189    0.73000002    2.75000000
   12.45583344  118.27100372    0.73000002    2.75000000
   12.45916653  136.08599854    0.73000002    2.75000000
   12.46166611  127.99600220    0.73000002    2.75000000
   12.46249962  126.46600342    0.73000002    2.75000000
   12.46583271  133.81700134    0.73000002    2.75000000
   12.46888828  128.72599792    0.73000002    2.75000000
   12.47222137  133.58200073    0.73000002    2.75000000
   12.47555542  128.66700745    0.73000002    2.75000000
   12.48166656  128.66700745    0.73000002    2.75000000
   12.48583317  130.91600037    0.73000002    2.75000000
   12.48888874  127.90499878    0.73000002    2.73000002
   12.49222279  125.11699677    0.73000002    2.73000002
   12.49499989  118.27600098    0.73000002    2.75000000
   12.49583340  130.30799866    0.73000002    2.78999996
   12.49916649  125.85700226    0.73000002    2.75000000
   12.50222206  122.82299805    0.73000002    2.75000000
   12.50555515  135.89100647    0.73000002    2.75000000
   12.50888920  127.54900360    0.73000002    2.75000000
   12.51194477  130.70899963    0.73000002    2.75000000
   12.51527786  127.78500366    0.73000002    2.76999998
   12.51861095  139.31799316    0.73000002    2.73000002
   12.52444458  139.31799316    0.73000002    2.75000000
   12.52861118  112.71600342    0.73000002    2.75000000
   12.53194427  121.92600250    0.73000002    2.75000000
   12.53500080  127.49199677    0.75000000    2.75000000
   12.53833389  125.71800232    0.75000000    2.75000000
   12.54166698  131.09700012    0.75000000    2.75000000
   12.54472256  128.72200012    0.75000000    2.75000000
   12.54805565  134.43699646    0.76999998    2.76999998
   12.55111122  131.10200500    0.76999998    2.75000000
   12.55444431  135.54600525    0.76999998    2.76999998
   12.55777836  132.79400635    0.79000002    2.75000000
   12.56083393  133.81900024    0.76999998    2.75000000
   12.56166649  137.60499573    0.79000002    2.76999998
   12.56722260  137.60499573    0.75000000    2.75000000
   12.57138920  126.91000366    0.75000000    2.75000000
   12.57472229  130.34100342    0.75000000    2.75000000
   12.57777786  132.97999573    0.75000000    2.75000000
   12.58111095  132.33099365    0.75000000    2.76999998
   12.58444405  128.50300598    0.75000000    2.78999996
   12.58749962  124.16200256    0.75000000    2.75000000
   12.59083271  130.11500549    0.75000000    2.75000000
   12.59416676  125.89600372    0.75000000    2.76999998
   12.59499931  123.90499878    0.75000000    2.76999998
   12.59749985  131.88800049    0.75000000    2.76999998
   12.60083389  132.41299438    0.75000000    2.76999998
   12.60416698  130.72099304    0.75000000    2.75000000
   12.61027813  130.72099304    0.73000002    2.75000000
   12.61416721  128.42399597    0.73000002    2.73000002
   12.61750031  120.42900085    0.75000000    2.76999998
   12.62083340  125.70899963    0.75000000    2.76999998
   12.62388897  119.01300049    0.75000000    2.76999998
   12.62722206  121.05699921    0.75000000    2.75000000
   12.62833309  123.18499756    0.73000002    2.75000000
   12.63083363  130.87699890    0.73000002    2.75000000
   12.63416672  121.74099731    0.73000002    2.76999998
   12.63749981  128.92700195    0.73000002    2.76999998
   12.64055538  123.00499725    0.73000002    2.76999998
   12.64388847  126.94899750    0.73000002    2.78999996
   12.64694405  118.30699921    0.73000002    2.76999998
   12.65305519  118.30699921    0.70999998    2.76999998
   12.65722179  139.02999878    0.70999998    2.76999998
   12.66027737  123.80000305    0.70999998    2.76999998
   12.66166592  128.57200623    0.70999998    2.76999998
   12.66388893  135.59500122    0.70999998    2.76999998
   12.66722298  122.60900116    0.69000000    2.76999998
   12.67055607  132.56500244    0.69000000    2.76999998
   12.67361164  130.03700256    0.69000000    2.76999998
   12.67694473  121.72100067    0.69000000    2.76999998
   12.68000031  136.19999695    0.69000000    2.76999998
   12.68333340  128.72399902    0.67000002    2.78999996
   12.68666649  139.88699341    0.67000002    2.75000000
   12.68972206  142.90400696    0.67000002    2.75000000
   12.69583321  142.90400696    0.67000002    2.78999996
   12.69999981  117.76999664    0.67000002    2.76999998
   12.70333290  134.96600342    0.67000002    2.76999998
   12.70638847  140.37600708    0.67000002    2.78999996
   12.70972157  137.43600464    0.67000002    2.76999998
   12.71277714  127.72200012    0.67000002    2.78999996
   12.71611118  130.13400269    0.67000002    2.76999998
   12.71944427  135.33799744    0.69000000    2.76999998
   12.72249985  127.29799652    0.67000002    2.78999996
   12.72583294  132.76400757    0.69000000    2.78999996
   12.72833252  132.74000549    0.69000000    2.78999996
   12.72944355  125.71399689    0.67000002    2.78999996
   12.73277760  121.72499847    0.67000002    2.78999996
   12.73861122  121.72499847    0.69000000    2.76999998
   12.74277782  133.71600342    0.67000002    2.78999996
   12.74611092  137.49099731    0.67000002    2.76999998
   12.74916649  122.38300323    0.67000002    2.76999998
   12.75249958  116.10600281    0.67000002    2.76999998
   12.75583363  126.52600098    0.67000002    2.78999996
   12.75888920  131.75500488    0.67000002    2.78999996
   12.76166630  133.85699463    0.67000002    2.78999996
   12.76249981  129.64900208    0.67000002    2.76999998
   12.76583290  126.44499969    0.67000002    2.76999998
   12.76916599  130.30499268    0.67000002    2.78999996
   12.77222157  118.88999939    0.67000002    2.78999996
   12.77555561  118.37000275    0.69000000    2.76999998
   12.78166676  118.37000275    0.67000002    2.78999996
   12.78555584  126.74400330    0.67000002    2.80999994
   12.78888893  132.17399597    0.67000002    2.78999996
   12.79222298  128.17700195    0.67000002    2.78999996
   12.79500008  124.16300201    0.67000002    2.76999998
   12.79555607  127.88999939    0.67000002    2.76999998
   12.79888916  120.12200165    0.67000002    2.78999996
   12.80222225  125.26000214    0.67000002    2.78999996
   12.80527782  113.20200348    0.67000002    2.78999996
   12.80861092  134.32200623    0.67000002    2.80999994
   12.81166649  121.33000183    0.67000002    2.78999996
   12.81500053  116.29100037    0.64999998    2.78999996
   12.81833363  145.66600037    0.64999998    2.78999996
   12.82444477  145.66600037    0.64999998    2.76999998
   12.82861137  136.45199585    0.63000000    2.78999996
   12.83166695  113.05899811    0.63000000    2.78999996
   12.83500004  131.53199768    0.64999998    2.78999996
   12.83833313  123.27500153    0.63000000    2.78999996
   12.84138870  130.91700745    0.63000000    2.76999998
   12.84472179  127.63500214    0.64999998    2.78999996
   12.84777737  121.17500305    0.64999998    2.76999998
   12.85111141  123.15399933    0.64999998    2.76999998
   12.85444450  120.95999908    0.63000000    2.78999996
   12.85750008  125.29299927    0.63000000    2.80999994
   12.86083412  120.94000244    0.63000000    2.80999994
   12.86166668  122.64399719    0.63000000    2.80999994
   12.86722279  122.64399719    0.64999998    2.78999996
   12.87138939  123.34700012    0.63000000    2.78999996
   12.87472248  113.00599670    0.63000000    2.80999994
   12.87777805  123.68499756    0.63000000    2.80999994
   12.88111115  116.48600006    0.63000000    2.78999996
   12.88416672  122.53900146    0.63000000    2.78999996
   12.88749981  123.64399719    0.63000000    2.78999996
   12.89083290  119.35900116    0.63000000    2.78999996
   12.89388847  120.22000122    0.63000000    2.80999994
   12.89499950  125.27899933    0.63000000    2.80999994
   12.89750004  114.67500305    0.63000000    2.80999994
   12.90083313  113.61599731    0.63000000    2.78999996
   12.90416622  117.11399841    0.63000000    2.78999996
   12.90999985  117.11399841    0.64999998    2.78999996
   12.91416645  118.61799622    0.64999998    2.78999996
   12.91750050  114.40299988    0.64999998    2.78999996
   12.92055607  119.56199646    0.64999998    2.80999994
   12.92388916  107.52600098    0.64999998    2.80999994
   12.92722225  106.36000061    0.64999998    2.80999994
   12.92833328  113.70999908    0.64999998    2.80999994
   12.93055630  120.55300140    0.64999998    2.80999994
   12.93388939  117.54599762    0.64999998    2.78999996
   12.93722248  122.26000214    0.67000002    2.80999994
   12.94027805  115.71099854    0.64999998    2.78999996
   12.94361115  116.13999939    0.63000000    2.80999994
   12.94694424  116.47499847    0.63000000    2.80999994
   12.95305538  116.47499847    0.63000000    2.80999994
   12.95694447  110.27100372    0.63000000    2.82999992
   12.96027756  122.23500061    0.63000000    2.80999994
   12.96166611  119.18000031    0.63000000    2.80999994
   12.96388912  115.30699921    0.61000001    2.82999992
   12.96722221  129.75399780    0.61000001    2.80999994
   12.97055531  114.20500183    0.61000001    2.80999994
   12.97361088  112.18099976    0.61000001    2.80999994
   12.97694397  114.95099640    0.58999997    2.78999996
   12.97999954  112.66500092    0.58999997    2.80999994
   12.98333359  115.56500244    0.58999997    2.80999994
   12.98666668  125.34400177    0.58999997    2.82999992
   12.98972225  121.06999969    0.58999997    2.80999994
   12.99583340  121.06999969    0.58999997    2.80999994
   13.00000000  115.20899963    0.56999999    2.78999996
   13.00305557  127.32900238    0.58999997    2.78999996
   13.00638866  114.04199982    0.58999997    2.82999992
   13.00944424  121.80100250    0.58999997    2.82999992
   13.01277733  114.12400055    0.58999997    2.80999994
   13.01611137  113.41899872    0.58999997    2.78999996
   13.01916599  109.95999908    0.58999997    2.82999992
   13.02250004  113.23699951    0.58999997    2.82999992
   13.02583313  121.76100159    0.58999997    2.80999994
   13.02833271  115.01100159    0.58999997    2.80999994
   13.02916622  116.59500122    0.58999997    2.80999994
   13.03249931  106.98500061    0.56999999    2.82999992
   13.03861141  106.98500061    0.56999999    2.80999994
   13.04277802  105.45899963    0.56999999    2.78999996
   13.04583359  101.44699860    0.56999999    2.82999992
   13.04916668  114.94699860    0.56999999    2.82999992
   13.05249977  114.56999969    0.56999999    2.80999994
   13.05555534  111.29599762    0.56999999    2.82999992
   13.05888939  110.87799835    0.56999999    2.82999992
   13.06166649  107.84799957    0.56999999    2.80999994
   13.06250000  107.21299744    0.56999999    2.80999994
   13.06583309  100.80599976    0.56999999    2.80999994
   13.06916618  113.37400055    0.56999999    2.82999992
   13.07222176  117.86799622    0.56999999    2.80999994
   13.07555580  124.86799622    0.56999999    2.82999992
   13.08138847  124.86799622    0.56999999    2.78999996
   13.08555508  129.39100647    0.55000001    2.82999992
   13.08888817  104.06800079    0.55000001    2.80999994
   13.09194374  116.10500336    0.52999997    2.82999992
   13.09499931  116.82800293    0.52999997    2.80999994
   13.09555531  113.97599792    0.52999997    2.82999992
   13.09888840  106.13600159    0.52999997    2.84999990
   13.10222244  111.56999969    0.52999997    2.80999994
   13.10527802  115.70200348    0.52999997    2.82999992
   13.10861111  108.21299744    0.52999997    2.78999996
   13.11194515  105.84999847    0.52999997    2.82999992
   13.11500072  115.84899902    0.55000001    2.82999992
   13.11833382  102.69799805    0.55000001    2.82999992
   13.12444496  102.69799805    0.55000001    2.82999992
   13.12833309  110.35399628    0.52999997    2.82999992
   13.13166714  112.21299744    0.55000001    2.82999992
   13.13472176  112.46299744    0.52999997    2.82999992
   13.13805580  123.58300018    0.52999997    2.82999992
   13.14138889  115.63500214    0.55000001    2.82999992
   13.14444447  117.13700104    0.52999997    2.82999992
   13.14777756  107.12200165    0.52999997    2.82999992
   13.15111065  115.14499664    0.52999997    2.84999990
   13.15416622  125.29799652    0.52999997    2.82999992
   13.15749931  118.45400238    0.52999997    2.84999990
   13.16083336  109.61900330    0.52999997    2.82999992
   13.16166592  108.67900085    0.52999997    2.82999992
   13.16722298  108.67900085    0.55000001    2.80999994
   13.17138958  112.06400299    0.55000001    2.82999992
   13.17444515  125.44699860    0.52999997    2.82999992
   13.17777824  119.22599792    0.52999997    2.82999992
   13.19527817  113.03199768    0.55000001    2.86999989
   13.19777775  112.36000061    0.55000001    2.84999990
   13.20111084  115.57800293    0.56999999    2.84999990
   13.20416641  112.30500031    0.56999999    2.84999990
   13.21027756  112.30500031    0.55000001    2.82999992
   13.21416664  115.20700073    0.56999999    2.84999990
   13.21749973  111.38400269    0.55000001    2.84999990
   13.22083282  108.27100372    0.52999997    2.80999994
   13.22388840  109.10399628    0.52999997    2.84999990
   13.22722149  117.55999756    0.55000001    2.82999992
   13.22861099  111.14600372    0.52999997    2.84999990
   13.23083305  108.33599854    0.52999997    2.84999990
   13.23388958  112.52200317    0.52999997    2.86999989
   13.23722267  119.88800049    0.52999997    2.84999990
   13.24027824  102.15499878    0.52999997    2.84999990
   13.24361134  132.64100647    0.52999997    2.84999990
   13.24694443  128.03900146    0.52999997    2.84999990
   13.25305557  128.03900146    0.51999998    2.82999992
   13.25722218  111.22799683    0.52999997    2.82999992
   13.26027775  121.97699738    0.51999998    2.84999990
   13.26194477  116.41999817    0.51999998    2.84999990
   13.26416683  126.54499817    0.51999998    2.82999992
   13.26722240  117.86699677    0.51999998    2.84999990
   13.27055550  126.95999908    0.51999998    2.84999990
   13.27388859  123.95500183    0.51999998    2.84999990
   13.27694416  118.48799896    0.51999998    2.84999990
   13.28027725  130.54200745    0.51999998    2.82999992
   13.28333378  115.47000122    0.50000000    2.84999990
   13.28666687  123.42600250    0.50000000    2.84999990
   13.29000092  116.09100342    0.50000000    2.82999992
   13.29583359  116.09100342    0.51999998    2.82999992
   13.30000019  126.85600281    0.50000000    2.84999990
   13.30333328  117.40399933    0.51999998    2.84999990
   13.30638885  123.30999756    0.50000000    2.86999989
   13.30972195  116.27500153    0.50000000    2.84999990
   13.31277752  126.69699860    0.50000000    2.84999990
   13.31611156  124.25800323    0.50000000    2.84999990
   13.31944466  115.17400360    0.50000000    2.84999990
   13.32250023  126.60399628    0.50000000    2.82999992
   13.32583332  123.26699829    0.50000000    2.84999990
   13.32861137  117.58200073    0.50000000    2.84999990
   13.32972240  124.48799896    0.50000000    2.84999990
   13.33277798  117.95099640    0.50000000    2.84999990
   13.33861065  117.95099640    0.50000000    2.84999990
   13.34277725  118.29199982    0.50000000    2.84999990
   13.34611034  124.08899689    0.50000000    2.84999990
   13.34916592  123.89900208    0.50000000    2.84999990
   13.35249996  121.54299927    0.50000000    2.84999990
   13.35583401  140.79200745    0.50000000    2.82999992
   13.35888958  120.78399658    0.50000000    2.84999990
   13.36194515  121.80300140    0.50000000    2.84999990
   13.36277771  123.72599792    0.50000000    2.84999990
   13.36583328  122.65200043    0.50000000    2.84999990
   13.36916637  126.83699799    0.50000000    2.84999990
   13.37250042  121.21800232    0.50000000    2.84999990
   13.37555599  121.13800049    0.50000000    2.86999989
   13.38166714  121.13800049    0.51999998    2.86999989
   13.38555527  118.13899994    0.50000000    2.84999990
   13.38888836  121.35800171    0.50000000    2.84999990
   13.39222240  114.09799957    0.51999998    2.86999989
   13.39527798  124.56500244    0.51999998    2.86999989
   13.39583302  124.20500183    0.51999998    2.86999989
   13.39888859  117.00900269    0.50000000    2.84999990
   13.40222168  121.81700134    0.50000000    2.89000010
   13.40527725  118.87200165    0.50000000    2.84999990
   13.40861034  120.61799622    0.50000000    2.84999990
   13.41194439  123.00299835    0.50000000    2.86999989
   13.41499996  105.20600128    0.50000000    2.86999989
   13.41833401  116.31400299    0.50000000    2.84999990
   13.42444515  116.31400299    0.50000000    2.89000010
   13.42861176  120.03399658    0.50000000    2.84999990
   13.42916679  119.04199982    0.50000000    2.84999990
   13.43222237  109.98799896    0.47999999    2.86999989
   13.43555546  119.25499725    0.50000000    2.84999990
   13.43861103  111.44400024    0.50000000    2.84999990
   13.44194412  114.25800323    0.50000000    2.86999989
   13.44527817  113.54900360    0.50000000    2.86999989
   13.44833374  115.99800110    0.50000000    2.86999989
   13.45166683  114.01000214    0.50000000    2.86999989
   13.45499992  109.51300049    0.47999999    2.86999989
   13.45805550  116.20999908    0.47999999    2.84999990
   13.46138859  118.61299896    0.47999999    2.86999989
   13.46194458  111.63500214    0.47999999    2.86999989
   13.46722221  111.63500214    0.47999999    2.84999990
   13.47138882  103.90399933    0.47999999    2.86999989
   13.47444439  107.71299744    0.47999999    2.86999989
   13.47777748  120.86299896    0.47999999    2.86999989
   13.48111057  122.29100037    0.50000000    2.86999989
   13.48416710  116.71199799    0.47999999    2.84999990
   13.48750019  127.19599915    0.47999999    2.86999989
   13.49083328  123.21099854    0.47999999    2.86999989
   13.49388885  118.77999878    0.47999999    2.86999989
   13.49527836  109.81099701    0.47999999    2.86999989
   13.49777794  108.36900330    0.47999999    2.86999989
   13.50083351  116.08100128    0.47999999    2.86999989
   13.50416660  119.87000275    0.47999999    2.86999989
   13.51000023  119.87000275    0.47999999    2.86999989
   13.51416683  118.40699768    0.47999999    2.86999989
   13.51749992  121.59100342    0.47999999    2.86999989
   13.52055550  121.32499695    0.47999999    2.86999989
   13.52388859  123.65200043    0.50000000    2.84999990
   13.52722168  123.66000366    0.47999999    2.86999989
   13.52861118  115.29599762    0.47999999    2.89000010
   13.53083324  112.37699890    0.47999999    2.89000010
   13.53388977  112.33499908    0.47999999    2.86999989
   13.53722286  113.13200378    0.47999999    2.86999989
   13.54027843  119.70899963    0.47999999    2.84999990
   13.54361153  110.02100372    0.47999999    2.84999990
   13.54694462  113.42500305    0.47999999    2.86999989
   13.55305576  113.42500305    0.47999999    2.86999989
   13.55694485  125.89399719    0.47999999    2.86999989
   13.56027794  120.97799683    0.47999999    2.86999989
   13.56194496  118.92500305    0.47999999    2.86999989
   13.56388950  121.98799896    0.47999999    2.86999989
   13.56694412  121.77200317    0.47999999    2.86999989
   13.57027817  119.93000031    0.47999999    2.86999989
   13.57333374  115.05899811    0.47999999    2.86999989
   13.57666683  129.31100464    0.47999999    2.84999990
   13.57999992  125.02300262    0.47999999    2.84999990
   13.58305550  121.42099762    0.47999999    2.86999989
   13.58638859  118.75399780    0.47999999    2.84999990
   13.58972168  122.56900024    0.47999999    2.84999990
   13.59583282  122.56900024    0.47999999    2.84999990
   13.60000038  120.39399719    0.47999999    2.86999989
   13.60305595  128.83599854    0.47999999    2.84999990
   13.60638905  125.18099976    0.47999999    2.86999989
   13.60944462  118.86599731    0.47999999    2.86999989
   13.61277771  119.36199951    0.47999999    2.86999989
   13.61611176  123.73200226    0.47999999    2.86999989
   13.61916637  113.61399841    0.47999999    2.86999989
   13.62250042  128.05099487    0.47999999    2.89000010
   13.62583351  128.89900208    0.47999999    2.86999989
   13.62861156  123.38400269    0.47999999    2.86999989
   13.62944412  111.67199707    0.47999999    2.86999989
   13.63249969  121.34200287    0.47999999    2.86999989
   13.63861084  121.34200287    0.47999999    2.86999989
   13.64277744  117.25199890    0.47999999    2.86999989
   13.64583302  134.90800476    0.47999999    2.86999989
   13.64916611  123.74500275    0.47999999    2.86999989
   13.65249920  132.46600342    0.47999999    2.89000010
   13.65555477  130.95100403    0.47999999    2.86999989
   13.65888882  124.70500183    0.47999999    2.86999989
   13.66194439  133.68699646    0.47999999    2.86999989
   13.66249943  115.59999847    0.47999999    2.86999989
   13.66555500  126.46700287    0.47999999    2.86999989
   13.66888905  132.24699402    0.47999999    2.86999989
   13.67222214  126.18299866    0.47999999    2.86999989
   13.67527771  130.28399658    0.47999999    2.86999989
   13.68138885  130.28399658    0.47999999    2.86999989
   13.68555546  129.90100098    0.47999999    2.86999989
   13.68888855  116.80200195    0.47999999    2.89000010
   13.69194412  124.72599792    0.47999999    2.86999989
   13.69555569  126.47499847    0.47999999    2.86999989
   13.69583321  117.71600342    0.47999999    2.86999989
   13.69916630  130.12899780    0.47999999    2.86999989
   13.70249939  124.12200165    0.47999999    2.86999989
   13.70555496  115.17099762    0.46000001    2.86999989
   13.70888901  109.65299988    0.47999999    2.86999989
   13.71222210  115.12200165    0.47999999    2.86999989
   13.71527767  125.25299835    0.46000001    2.86999989
   13.71861076  119.80200195    0.47999999    2.89000010
   13.72444439  119.80200195    0.47999999    2.89000010
   13.72833252  119.88600159    0.47999999    2.89000010
   13.72888851  113.02200317    0.47999999    2.89000010
   13.73222160  122.58699799    0.47999999    2.86999989
   13.73527813  121.17400360    0.47999999    2.86999989
   13.73861122  125.54199982    0.47999999    2.89000010
   13.74194431  134.15299988    0.47999999    2.86999989
   13.74527836  114.75700378    0.47999999    2.86999989
   13.74861145  122.67400360    0.47999999    2.86999989
   13.75166702  107.39600372    0.47999999    2.89000010
   13.75500011  130.09100342    0.47999999    2.84999990
   13.75805569  116.13700104    0.47999999    2.86999989
   13.76138878  116.49500275    0.47999999    2.86999989
   13.76222229  122.96900177    0.47999999    2.86999989
   13.76722240  122.96900177    0.47999999    2.86999989
   13.77138901  120.01200104    0.47999999    2.89000010
   13.77444458  116.91100311    0.47999999    2.89000010
   13.77777767  117.45700073    0.47999999    2.86999989
   13.78111076  118.97599792    0.47999999    2.86999989
   13.78416729  121.84200287    0.47999999    2.84999990
   13.78750038  111.51000214    0.47999999    2.86999989
   13.79083347  122.04900360    0.47999999    2.86999989
   13.79388905  113.85700226    0.47999999    2.89000010
   13.79555607  120.15599823    0.47999999    2.89000010
   13.79750061  111.05100250    0.47999999    2.89000010
   13.80083370  117.00700378    0.47999999    2.89000010
   13.80388927  125.60299683    0.47999999    2.89000010
   13.81000042  125.60299683    0.47999999    2.89000010
   13.81416702  114.53800201    0.47999999    2.89000010
   13.81750011  118.29599762    0.47999999    2.89000010
   13.82055569  124.21900177    0.47999999    2.89000010
   13.82388878  120.44499969    0.47999999    2.86999989
   13.82694435  126.33899689    0.47999999    2.89000010
   13.82888889  119.52100372    0.47999999    2.89000010
   13.83055592  111.04299927    0.46000001    2.89000010
   13.83388901  114.18699646    0.46000001    2.86999989
   13.83694458  116.26399994    0.46000001    2.89000010
   13.84027767  122.78099823    0.47999999    2.86999989
   13.84361076  118.33000183    0.47999999    2.86999989
   13.84666634  119.67199707    0.46000001    2.89000010
   13.85277843  119.67199707    0.47999999    2.86999989
   13.85694504  116.66300201    0.46000001    2.89000010
   13.86027813  117.80100250    0.46000001    2.86999989
   13.86222267  121.42299652    0.46000001    2.86999989
   13.86388969  125.44499969    0.47999999    2.89000010
   13.86722279  122.76100159    0.47999999    2.89000010
   13.87027836  134.68699646    0.47999999    2.86999989
   13.87361145  133.09899902    0.47999999    2.89000010
   13.87666702  115.65200043    0.47999999    2.89000010
   13.88000011  126.92199707    0.47999999    2.89000010
   13.88333321  122.30999756    0.47999999    2.84999990
   13.88638878  118.07299805    0.47999999    2.86999989
   13.88972187  123.07299805    0.47999999    2.86999989
   13.89583302  123.07299805    0.46000001    2.86999989
   13.89972210  119.70500183    0.47999999    2.89000010
   13.90305519  126.39800262    0.47999999    2.89000010
   13.90638828  122.17099762    0.47999999    2.89000010
   13.90944386  126.63899994    0.47999999    2.89000010
   13.91277695  128.66099548    0.47999999    2.91000009
   13.91611099  120.79100037    0.46000001    2.89000010
   13.91916656  125.54499817    0.46000001    2.89000010
   13.92250061  122.31700134    0.46000001    2.89000010
   13.92555618  116.87799835    0.46000001    2.89000010
   13.92888927  123.06500244    0.46000001    2.89000010
   13.92944431  115.92600250    0.46000001    2.89000010
   13.93277836  112.37699890    0.46000001    2.89000010
   13.93861103  112.37699890    0.47999999    2.89000010
   13.94277763  120.30599976    0.46000001    2.91000009
   13.94583321  119.48000336    0.46000001    2.89000010
   13.94916630  119.99099731    0.46000001    2.91000009
   13.95249939  116.71499634    0.46000001    2.89000010
   13.95555496  128.68600464    0.46000001    2.89000010
   13.95888901  122.91999817    0.46000001    2.89000010
   13.96194458  120.19100189    0.46000001    2.89000010
   13.96277714  114.19699860    0.46000001    2.89000010
   13.96583271  122.43399811    0.46000001    2.89000010
   13.96888828  124.58300018    0.46000001    2.89000010
   13.97222137  119.36599731    0.46000001    2.91000009
   13.97527695  126.08899689    0.44000000    2.91000009
   13.98138809  126.08899689    0.44000000    2.89000010
   13.98555565  115.75099945    0.44000000    2.89000010
   13.98888874  126.37599945    0.44000000    2.89000010
   13.99194431  129.98199463    0.44000000    2.89000010
   13.99527836  115.18000031    0.44000000    2.89000010
   13.99611092  113.56800079    0.44000000    2.89000010
   13.99888897  114.84500122    0.44000000    2.89000010
   14.00194454  125.61900330    0.44000000    2.89000010
   14.00527763  115.70300293    0.44000000    2.89000010
   14.00833321  123.76399994    0.44000000    2.91000009
   14.01166630  131.10299683    0.44000000    2.89000010
   14.01500034  126.99900055    0.44000000    2.91000009
   14.01805496  125.42099762    0.41999999    2.91000009
   14.02416611  125.42099762    0.41999999    2.89000010
   14.02833271  130.21899414    0.41999999    2.89000010
   14.02944374  116.18499756    0.41999999    2.89000010
   14.03222179  123.93199921    0.41999999    2.89000010
   14.03527832  128.96699524    0.41999999    2.89000010
   14.03861141  123.26200104    0.44000000    2.89000010
   14.04166698  119.28299713    0.44000000    2.91000009
   14.04500008  125.76599884    0.41999999    2.91000009
   14.04833412  122.41999817    0.41999999    2.91000009
   14.05138874  123.73799896    0.41999999    2.89000010
   14.05472279  124.19200134    0.41999999    2.91000009
   14.05805588  127.26100159    0.41999999    2.89000010
   14.06111145  121.79299927    0.41999999    2.89000010
   14.06277752  118.77600098    0.41999999    2.89000010
   14.06722260  118.77600098    0.41999999    2.86999989
   14.07111073  119.58999634    0.40000001    2.89000010
   14.07444477  122.21499634    0.40000001    2.89000010
   14.07777786  125.27300262    0.40000001    2.89000010
   14.08083344  114.24600220    0.40000001    2.89000010
   14.08416653  126.72799683    0.40000001    2.86999989
   14.08722210  114.61699677    0.40000001    2.89000010
   14.09055519  125.36900330    0.40000001    2.89000010
   14.09388828  117.43599701    0.40000001    2.91000009
   14.09611034  113.32299805    0.40000001    2.89000010
   14.09749985  120.44400024    0.40000001    2.89000010
   14.10055637  120.56199646    0.40000001    2.86999989
   14.10388947  128.13999939    0.40000001    2.86999989
   14.11000061  128.13999939    0.40000001    2.89000010
   14.11416721  125.08100128    0.41999999    2.89000010
   14.11722279  114.05200195    0.40000001    2.91000009
   14.12055588  119.27600098    0.40000001    2.89000010
   14.12388897  124.53199768    0.40000001    2.89000010
   14.12694454  115.19499969    0.40000001    2.89000010
   14.12944412  125.33999634    0.40000001    2.89000010
   14.13083363  109.40499878    0.40000001    2.89000010
   14.13388920  125.87599945    0.40000001    2.91000009
   14.13722229  121.75800323    0.38000000    2.89000010
   14.14027786  120.77100372    0.40000001    2.89000010
   14.14361095  119.47599792    0.40000001    2.89000010
   14.14694405  114.49900055    0.40000001    2.89000010
   14.15277767  114.49900055    0.40000001    2.91000009
   14.15694427  127.29000092    0.40000001    2.91000009
   14.15999985  131.94799805    0.40000001    2.89000010
   14.16277695  119.08599854    0.40000001    2.89000010
   14.16388893  118.62999725    0.40000001    2.89000010
   14.16694450  121.96499634    0.40000001    2.91000009
   14.17027855  124.85500336    0.40000001    2.89000010
   14.17333412  118.85500336    0.40000001    2.91000009
   14.17666721  124.96700287    0.40000001    2.91000009
   14.18000031  120.66699982    0.40000001    2.89000010
   14.18305588  118.90499878    0.40000001    2.89000010
   14.18638897  115.73300171    0.40000001    2.91000009
   14.18972206  121.17400360    0.40000001    2.91000009
   14.19555569  121.17400360    0.40000001    2.91000009
   14.21388912  119.82399750    0.38000000    2.91000009
   14.21722221  122.57599640    0.38000000    2.89000010
   14.22055531  125.71499634    0.38000000    2.89000010
   14.22361088  119.58999634    0.38000000    2.91000009
   14.22694397  118.20200348    0.40000001    2.91000009
   14.23027706  119.37999725    0.40000001    2.91000009
   14.23333359  126.82099915    0.40000001    2.89000010
   14.23861122  126.82099915    0.40000001    2.91000009
   14.24277782  115.49700165    0.38000000    2.89000010
   14.24611092  122.59200287    0.38000000    2.91000009
   14.24694443  121.27600098    0.38000000    2.91000009
   14.24972248  123.72699738    0.36000001    2.91000009
   14.25305557  122.22499847    0.36000001    2.91000009
   14.25611115  125.51300049    0.36000001    2.91000009
   14.25944424  118.87400055    0.63000000    2.93000007
   14.26277733  112.48899841    0.73000002    2.89000010
   14.26583290  117.23400116    0.73000002    2.89000010
   14.26916599  116.29100037    0.76999998    2.91000009
   14.27222157  118.30200195    4.90999985    2.94000006
   14.27555561  112.12300110    4.90999985    2.94000006
   14.28166676  112.12300110    1.98000002    2.94000006
   14.28555584  119.72799683    0.47999999    2.93000007
   14.28888893  116.55400085    0.36000001    2.91000009
   14.29222298  125.79000092    0.34000000    2.91000009
   14.29527855  126.80500031    0.34000000    2.91000009
   14.29861164  125.09400177    0.34000000    2.91000009
   14.30194473  119.05400085    0.36000001    2.91000009
   14.30500031  118.27799988    0.36000001    2.89000010
   14.30833340  122.26999664    0.36000001    2.91000009
   14.31138897  119.16300201    0.36000001    2.91000009
   14.31388950  123.41899872    0.34000000    2.91000009
   14.31500053  117.97699738    0.34000000    2.91000009
   14.31833363  122.15599823    0.34000000    2.91000009
   14.32444477  122.15599823    0.34000000    2.91000009
   14.32861137  125.54799652    0.34000000    2.91000009
   14.33166695  117.31600189    0.34000000    2.91000009
   14.33500004  112.34799957    0.34000000    2.91000009
   14.33833313  117.22799683    0.36000001    2.91000009
   14.34138870  118.48400116    0.34000000    2.89000010
   14.34472179  114.21700287    0.36000001    2.89000010
   14.34722233  111.76100159    0.36000001    2.89000010
   14.34833336  116.38700104    0.34000000    2.89000010
   14.35166740  118.06099701    0.34000000    2.91000009
   14.35472298  117.63800049    0.36000001    2.91000009
   14.35805607  122.21199799    0.36000001    2.91000009
   14.36138916  127.70099640    0.38000000    2.91000009
   14.36722279  127.70099640    0.36000001    2.91000009
   14.37138939  119.42700195    0.36000001    2.91000009
   14.37472248  119.45099640    0.38000000    2.91000009
   14.37777805  126.62100220    0.38000000    2.93000007
   14.38027763  116.83100128    0.38000000    2.93000007
   14.38138866  120.37500000    0.36000001    2.93000007
   14.38472176  121.22699738    0.36000001    2.91000009
   14.38805580  123.81199646    0.36000001    2.91000009
   14.39111137  120.59999847    0.36000001    2.91000009
   14.39444447  127.16000366    0.36000001    2.89000010
   14.39750004  129.82699585    0.36000001    2.91000009
   14.40083313  125.13800049    0.36000001    2.91000009
   14.40416622  117.56099701    0.34000000    2.91000009
   14.40999985  117.56099701    0.36000001    2.91000009
   14.41416645  116.07399750    0.36000001    2.91000009
   14.41750050  115.73400116    0.36000001    2.91000009
   14.42055607  126.31099701    0.36000001    2.91000009
   14.42388916  124.55999756    0.36000001    2.91000009
   14.42722225  119.04100037    0.36000001    2.91000009
   14.43027782  124.70099640    0.36000001    2.91000009
   14.43361092  116.35600281    0.36000001    2.91000009
   14.43694496  120.89800262    0.36000001    2.91000009
   14.44000053  126.27300262    0.36000001    2.91000009
   14.44333363  126.32299805    0.36000001    2.91000009
   14.44638920  131.59399414    0.36000001    2.91000009
   14.44722271  122.58599854    0.36000001    2.91000009
   14.45305538  122.58599854    0.36000001    2.91000009
   14.45694447  111.19100189    0.36000001    2.91000009
   14.46027756  122.02300262    0.36000001    2.91000009
   14.46361065  122.73400116    0.36000001    2.91000009
   14.46694374  129.12899780    0.36000001    2.91000009
   14.46999931  120.90899658    0.36000001    2.91000009
   14.47333336  116.83799744    0.36000001    2.91000009
   14.47666645  128.08299255    0.36000001    2.91000009
   14.47972202  135.41499329    0.36000001    2.91000009
   14.48055553  125.30599976    0.36000001    2.91000009
   14.48333359  128.45300293    0.36000001    2.91000009
   14.48666668  126.12999725    0.36000001    2.91000009
   14.48972225  129.64399719    0.36000001    2.93000007
   14.49583340  129.64399719    0.36000001    2.91000009
   14.50000000  132.11799622    0.34000000    2.93000007
   14.50305557  115.17299652    0.36000001    2.91000009
   14.50638866  118.73999786    0.36000001    2.91000009
   14.50972176  129.66000366    0.36000001    2.91000009
   14.51277733  121.61299896    0.34000000    2.91000009
   14.51388931  128.90800476    0.34000000    2.93000007
   14.51638889  127.79399872    0.34000000    2.93000007
   14.51972198  118.80799866    0.34000000    2.93000007
   14.52277756  130.07499695    0.36000001    2.91000009
   14.52611065  116.52200317    0.34000000    2.93000007
   14.52944374  117.70200348    0.36000001    2.91000009
   14.53249931  131.23899841    0.36000001    2.91000009
   14.53861141  131.23899841    0.36000001    2.91000009
   14.54305553  133.91400146    0.36000001    2.91000009
   14.54611111  122.51699829    0.36000001    2.91000009
   14.54722309  131.61599731    0.36000001    2.91000009
   14.54972267  121.58899689    0.36000001    2.91000009
   14.55305576  131.60000610    0.36000001    2.93000007
   14.55611134  127.09600067    0.36000001    2.93000007
   14.55944443  127.36000061    0.36000001    2.91000009
   14.56277752  129.50900269    0.36000001    2.91000009
   14.56583309  124.29699707    0.38000000    2.93000007
   14.56916618  119.22200012    0.36000001    2.93000007
   14.57250023  144.63600159    0.38000000    2.94000006
   14.57555580  115.09500122    0.38000000    2.93000007
   14.58138847  115.09500122    0.36000001    2.93000007
   14.58555508  131.08000183    0.38000000    2.91000009
   14.58888817  119.65899658    0.38000000    2.91000009
   14.59222221  116.86900330    0.36000001    2.91000009
   14.59527779  125.83799744    0.36000001    2.91000009
   14.59861088  123.35399628    0.36000001    2.91000009
   14.60166740  115.51599884    0.36000001    2.91000009
   14.60500050  122.68699646    0.36000001    2.91000009
   14.60833359  122.06199646    0.36000001    2.93000007
   14.61138916  109.79699707    0.36000001    2.89000010
   14.61388969  124.92800140    0.36000001    2.93000007
   14.61500072  114.94699860    0.36000001    2.93000007
   14.61833382  114.11000061    0.36000001    2.94000006
   14.62444496  114.11000061    0.36000001    2.93000007
   14.62833309  121.28500366    0.36000001    2.91000009
   14.63194466  119.98999786    0.36000001    2.93000007
   14.63500023  120.90200043    0.36000001    2.91000009
   14.63833332  126.22000122    0.36000001    2.91000009
   14.64166641  126.47599792    0.36000001    2.91000009
   14.64472198  118.78399658    0.36000001    2.91000009
   14.64722252  124.17900085    0.36000001    2.93000007
   14.64833355  111.26000214    0.36000001    2.93000007
   14.65166664  118.25900269    0.36000001    2.93000007
   14.65472221  114.69300079    0.36000001    2.91000009
   14.65805531  114.35700226    0.34000000    2.91000009
   14.66138840  114.56600189    0.34000000    2.93000007
   14.66722298  114.56600189    0.34000000    2.91000009
   14.67138958  124.15399933    0.36000001    2.91000009
   14.67444515  111.61299896    0.36000001    2.93000007
   14.67777824  123.48300171    0.36000001    2.91000009
   14.68055630  113.22000122    0.36000001    2.91000009
   14.68138885  115.12100220    0.36000001    2.91000009
   14.68472195  114.13600159    0.36000001    2.93000007
   14.68777752  122.24700165    0.34000000    2.93000007
   14.69111156  108.90100098    0.34000000    2.93000007
   14.69444466  117.50700378    0.36000001    2.91000009
   14.69750023  118.51899719    0.36000001    2.91000009
   14.70083332  123.50000000    0.34000000    2.93000007
   14.70416641  129.62500000    0.36000001    2.91000009
   14.71000004  129.62500000    0.36000001    2.91000009
   14.71416664  118.82700348    0.36000001    2.93000007
   14.71749973  119.29199982    0.36000001    2.93000007
   14.72055531  117.44699860    0.36000001    2.93000007
   14.72388840  114.98699951    0.36000001    2.91000009
   14.72694397  116.28299713    0.36000001    2.93000007
   14.73027706  118.35900116    0.38000000    2.93000007
   14.73361111  123.62400055    0.36000001    2.93000007
   14.73666668  123.89499664    0.36000001    2.93000007
   14.74000072  116.78500366    0.36000001    2.93000007
   14.74333382  125.11199951    0.38000000    2.93000007
   14.74638939  116.73500061    0.38000000    2.93000007
   14.74722290  126.68399811    0.38000000    2.93000007
   14.75277805  126.68399811    0.36000001    2.91000009
   14.75694466  119.11100006    0.36000001    2.91000009
   14.76027775  116.36100006    0.36000001    2.91000009
   14.76361084  117.87100220    0.38000000    2.93000007
   14.76666641  119.57900238    0.38000000    2.93000007
   14.76999950  119.53199768    0.36000001    2.91000009
   14.77305508  118.06999969    0.36000001    2.93000007
   14.77638817  112.70500183    0.36000001    2.91000009
   14.77972221  126.24700165    0.36000001    2.93000007
   14.78055573  127.40000153    0.36000001    2.93000007
   14.78305531  124.63200378    0.36000001    2.93000007
   14.78638935  123.69000244    0.36000001    2.93000007
   14.78972244  117.12899780    0.36000001    2.93000007
   14.79583359  117.12899780    0.36000001    2.93000007
   14.79972267  118.49500275    0.36000001    2.93000007
   14.80305576  133.68899536    0.36000001    2.93000007
   14.80638885  123.79499817    0.36000001    2.93000007
   14.80944443  122.18900299    0.36000001    2.93000007
   14.81277752  118.43299866    0.36000001    2.91000009
   14.81388950  125.31400299    0.36000001    2.91000009
   14.81638908  134.02400208    0.36000001    2.93000007
   14.81972218  122.31300354    0.36000001    2.93000007
   14.82305527  118.74600220    0.36000001    2.93000007
   14.82611084  136.00700378    0.36000001    2.93000007
   14.82944393  105.29699707    0.36000001    2.93000007
   14.83249950  122.53500366    0.36000001    2.91000009
   14.83861065  122.53500366    0.38000000    2.93000007
   14.84277725  117.66200256    0.36000001    2.93000007
   14.84583282  119.64499664    0.38000000    2.93000007
   14.84722233  107.81400299    0.38000000    2.93000007
   14.84944439  129.11399841    0.36000001    2.93000007
   14.85277843  121.34600067    0.36000001    2.93000007
   14.85611153  118.11599731    0.36000001    2.93000007
   14.85916710  124.98600006    0.36000001    2.93000007
   14.86250019  119.33300018    0.36000001    2.93000007
   14.86555576  131.70500183    0.36000001    2.91000009
   14.86888885  138.97399902    0.36000001    2.93000007
   14.87222195  121.88899994    0.36000001    2.93000007
   14.87527752  133.44099426    0.36000001    2.93000007
   14.88138866  133.44099426    0.36000001    2.93000007
   14.88555527  118.13600159    0.36000001    2.93000007
   14.88888836  117.25299835    0.38000000    2.94000006
   14.89194393  128.59800720    0.40000001    2.93000007
   14.89527798  118.72000122    0.40000001    2.93000007
   14.89833355  123.22699738    0.40000001    2.93000007
   14.90166664  130.02999878    0.40000001    2.93000007
   14.90499973  113.47599792    0.40000001    2.93000007
   14.90805531  133.10600281    0.40000001    2.93000007
   14.91138840  122.07499695    0.40000001    2.93000007
   14.91388893  120.23500061    0.40000001    2.93000007
   14.91499996  125.67600250    0.40000001    2.93000007
   14.91833401  116.10099792    0.40000001    2.93000007
   14.92416668  116.10099792    0.40000001    2.93000007
   14.92833328  128.00300598    0.40000001    2.93000007
   14.93166733  125.38899994    0.40000001    2.93000007
   14.93472195  125.79799652    0.38000000    2.93000007
   14.93805599  118.83799744    0.38000000    2.93000007
   14.94138908  121.36499786    0.38000000    2.93000007
   14.94444466  120.98699951    0.40000001    2.93000007
   14.94722271  127.46800232    0.38000000    2.93000007
   14.94805527  122.33599854    0.38000000    2.93000007
   14.95138836  130.55900574    0.38000000    2.93000007
   14.95472240  129.86999512    0.38000000    2.93000007
   14.95777798  133.02099609    0.36000001    2.93000007
   14.96111107  126.62400055    0.38000000    2.93000007
   14.96722221  126.62400055    0.38000000    2.93000007
   14.97111034  138.71499634    0.38000000    2.93000007
   14.97444439  125.21099854    0.38000000    2.93000007
   14.97777748  137.13000488    0.36000001    2.94000006
   14.98055553  133.61599731    0.36000001    2.93000007
   14.98111057  131.63999939    0.36000001    2.93000007
   14.98444462  123.82499695    0.36000001    2.93000007
   14.98777771  139.59800720    0.38000000    2.93000007
   14.99083328  127.92400360    0.38000000    2.94000006
   14.99416733  116.76499939    0.38000000    2.93000007
   14.99722290  121.81800079    0.38000000    2.93000007
   15.00055599  126.75599670    0.38000000    2.94000006
   15.00388908  112.16000366    0.38000000    2.93000007
   15.01000023  112.16000366    0.40000001    2.93000007
   15.01416683  123.98300171    0.38000000    2.93000007
   15.01722240  113.67500305    0.38000000    2.93000007
   15.02055550  128.01400757    0.40000001    2.93000007
   15.02388859  122.43399811    0.38000000    2.93000007
   15.02694416  116.26300049    0.40000001    2.93000007
   15.03027725  117.12500000    0.40000001    2.93000007
   15.03333378  116.65799713    0.41999999    2.93000007
   15.03666687  114.02700043    0.40000001    2.93000007
   15.04000092  122.52500153    0.40000001    2.93000007
   15.04305553  118.50700378    0.40000001    2.94000006
   15.04638958  121.19200134    0.40000001    2.93000007
   15.04722309  120.52100372    0.40000001    2.94000006
   15.05277824  120.52100372    0.40000001    2.93000007
   15.05694485  135.20899963    0.40000001    2.93000007
   15.06027794  123.00599670    0.40000001    2.93000007
   15.06333351  110.82299805    0.38000000    2.93000007
   15.06666660  125.74199677    0.38000000    2.93000007
   15.06999969  123.52100372    0.40000001    2.93000007
   15.07305527  124.03600311    0.38000000    2.93000007
   15.07638836  128.89999390    0.38000000    2.93000007
   15.07972240  120.83100128    0.40000001    2.93000007
   15.08055592  116.89399719    0.38000000    2.93000007
   15.08305550  132.68699646    0.38000000    2.93000007
   15.08638859  127.56600189    0.38000000    2.93000007
   15.08972168  120.69599915    0.38000000    2.91000009
   15.09555531  120.69599915    0.38000000    2.93000007
   15.09972191  126.81999969    0.38000000    2.93000007
   15.10305595  116.54599762    0.38000000    2.93000007
   15.10638905  117.80100250    0.44000000    2.93000007
   15.10944462  127.13400269    0.41999999    2.91000009
   15.11277771  120.36699677    0.44000000    2.91000009
   15.11388969  111.59799957    0.44000000    2.91000009
   15.11611176  114.88600159    0.44000000    2.91000009
   15.11944485  121.83899689    0.40000001    2.93000007
   15.12277794  121.82599640    0.40000001    2.93000007
   15.12583351  120.57700348    0.40000001    2.93000007
   15.12916660  118.19000244    0.40000001    2.93000007
   15.13249969  124.79599762    0.40000001    2.94000006
   15.13861084  124.79599762    0.38000000    2.93000007
   15.14249992  120.77999878    0.38000000    2.91000009
   15.14583302  120.66400146    0.40000001    2.93000007
   15.14722252  122.61799622    0.40000001    2.93000007
   15.14944458  111.40499878    0.40000001    2.93000007
   15.15277767  118.68199921    0.38000000    2.93000007
   15.15611076  119.75000000    0.38000000    2.91000009
   15.15916634  117.40899658    0.38000000    2.94000006
   15.16249943  120.10299683    0.38000000    2.93000007
   15.16583252  120.17700195    0.40000001    2.93000007
   15.16888905  111.43000031    0.38000000    2.93000007
   15.17222214  124.78399658    0.38000000    2.93000007
   15.17527771  122.41699982    0.38000000    2.91000009
   15.18138885  122.41699982    0.38000000    2.94000006
   15.18555546  129.28500366    0.38000000    2.93000007
   15.18861103  127.22100067    0.40000001    2.93000007
   15.19194412  117.95600128    0.38000000    2.93000007
   15.19527817  122.13999939    0.40000001    2.93000007
   15.19833374  129.14599609    0.40000001    2.93000007
   15.20166683  137.81199646    0.40000001    2.94000006
   15.20472240  131.40100098    0.40000001    2.94000006
   15.20805550  121.88300323    0.40000001    2.93000007
   15.21138859  135.20300293    0.40000001    2.93000007
   15.21388912  120.57499695    0.40000001    2.93000007
   15.23444462  120.57499695    0.40000001    2.93000007
   15.23861122  117.48200226    0.38000000    2.93000007
   15.24194431  113.62599945    0.38000000    2.94000006
   15.24499989  114.94300079    0.38000000    2.94000006
   15.24722290  121.90000153    0.38000000    2.94000006
   15.24888897  124.76899719    0.38000000    2.94000006
   15.25194454  121.39399719    0.38000000    2.93000007
   15.25527763  123.29299927    0.38000000    2.93000007
   15.25861073  122.11199951    0.40000001    2.93000007
   15.26166630  133.78500366    0.38000000    2.93000007
   15.26500034  124.72799683    0.40000001    2.93000007
   15.26833344  119.59300232    0.40000001    2.93000007
   15.27138901  114.99500275    0.40000001    2.94000006
   15.27722168  114.99500275    0.38000000    2.93000007
   15.28138828  116.05599976    0.40000001    2.93000007
   15.28472233  119.29100037    0.38000000    2.93000007
   15.28777790  121.77500153    0.38000000    2.93000007
   15.29111195  120.00399780    0.38000000    2.93000007
   15.29416752  130.46899414    0.38000000    2.93000007
   15.29750061  123.23200226    0.38000000    2.93000007
   15.30083370  128.20899963    0.38000000    2.93000007
   15.30388927  129.28799438    0.38000000    2.94000006
   15.30722237  123.22699738    0.38000000    2.93000007
   15.31055546  132.11199951    0.40000001    2.93000007
   15.31361103  127.81199646    0.40000001    2.93000007
   15.31416702  122.86399841    0.40000001    2.93000007
   15.31999969  122.86399841    0.40000001    2.93000007
   15.32416630  130.95100403    0.38000000    2.93000007
   15.32750034  128.83200073    0.40000001    2.94000006
   15.33055592  123.16799927    0.40000001    2.93000007
   15.33388901  132.39100647    0.38000000    2.93000007
   15.33722210  128.33799744    0.38000000    2.93000007
   15.34027767  142.35499573    0.40000001    2.94000006
   15.34361076  122.19100189    0.40000001    2.93000007
   15.34694386  120.15200043    0.38000000    2.93000007
   15.34749985  124.04799652    0.38000000    2.93000007
   15.35055637  126.65499878    0.40000001    2.93000007
   15.35388947  125.39199829    0.38000000    2.93000007
   15.45861053   -1.00000000   -1.00000000   -1.00000000
   15.56000042   -1.00000000   -1.00000000   -1.00000000
   15.71249962   -1.00000000   -1.00000000   -1.00000000
   15.79388905  116.35299683    0.40000001    2.93000007
   15.79722309  116.45899963    0.40000001    2.93000007
   15.80055618  123.48799896    0.40000001    2.93000007
   15.80361176  118.08699799    0.40000001    2.93000007
   15.80694485  119.44999695    0.40000001    2.94000006
   15.81000042  121.41300201    0.40000001    2.94000006
   15.81416702  121.41300201    0.40000001    2.94000006
   15.81833363  121.11900330    0.40000001    2.94000006
   15.82166672  115.16600037    0.40000001    2.93000007
   15.82472229  119.51699829    0.40000001    2.93000007
   15.82722187  117.06999969    0.40000001    2.93000007
   15.82861137  115.94699860    0.40000001    2.94000006
   15.83166695  112.40200043    0.40000001    2.94000006
   15.83500004  126.77200317    0.40000001    2.94000006
   15.83805561  115.80500031    0.40000001    2.93000007
   15.84138870  109.86000061    0.40000001    2.94000006
   15.84472179  119.40399933    0.40000001    2.93000007
   15.84777737  125.05599976    0.40000001    2.93000007
   15.85111141  119.39700317    0.40000001    2.93000007
   15.85722256  119.39700317    0.40000001    2.93000007
   15.86111164  122.58000183    0.40000001    2.93000007
   15.86444473  113.23000336    0.40000001    2.94000006
   15.86777782  131.32400513    0.40000001    2.94000006
   15.87083340  118.30699921    0.40000001    2.93000007
   15.87416649  120.45700073    0.41999999    2.93000007
   15.87750053  123.15699768    0.41999999    2.93000007
   15.88055611  116.72599792    0.41999999    2.93000007
   15.88388920  128.74200439    0.40000001    2.93000007
   15.88694477  122.12000275    0.40000001    2.93000007
   15.89027786  120.17199707    0.40000001    2.94000006
   15.89361095  112.24099731    0.41999999    2.91000009
   15.89416695  124.83999634    0.40000001    2.94000006
   15.89999962  124.83999634    0.41999999    2.94000006
   15.90416622  113.74800110    0.40000001    2.93000007
   15.90722179  111.23300171    0.41999999    2.94000006
   15.91055489  113.23100281    0.40000001    2.93000007
   15.91388893  112.37500000    0.40000001    2.93000007
   15.91694450  113.27600098    0.40000001    2.93000007
   15.92027855  123.81300354    0.40000001    2.94000006
   15.92333412  117.98899841    0.40000001    2.93000007
   15.92666721  110.83300018    0.40000001    2.94000006
   15.92750072  108.34899902    0.40000001    2.94000006
   15.93027782  112.31500244    0.38000000    2.93000007
   15.93361092  120.65100098    0.38000000    2.93000007
   15.93666649  116.67199707    0.40000001    2.94000006
   15.94277763  116.67199707    0.40000001    2.94000006
   15.94694424  128.19000244    0.40000001    2.93000007
   15.95027733  125.30699921    0.40000001    2.93000007
   15.95333290  114.97899628    0.40000001    2.93000007
   15.95666695  120.83699799    0.40000001    2.93000007
   15.96000004  125.84500122    0.40000001    2.94000006
   15.96083355  133.76899719    0.40000001    2.94000006
   15.96361065  132.74200439    0.40000001    2.93000007
   15.96694374  126.66999817    0.40000001    2.93000007
   15.97027779  108.51399994    0.40000001    2.93000007
   15.97333336  127.30799866    0.40000001    2.93000007
   15.97666645  125.05100250    0.40000001    2.94000006
   15.97972202  124.28099823    0.40000001    2.93000007
   15.98555565  124.28099823    0.40000001    2.94000006
   15.98972225  133.63400269    0.40000001    2.94000006
   15.99305534  114.57599640    0.40000001    2.93000007
   15.99416733  122.98400116    0.40000001    2.93000007
   15.99666691  126.44300079    0.40000001    2.93000007
   16.00000000  131.87699890    0.40000001    2.93000007
   16.00333405  111.83499908    0.40000001    2.93000007
   16.00638962  125.17900085    0.38000000    2.94000006
   16.00972176  123.13200378    0.40000001    2.94000006
   16.01277733  121.65000153    0.40000001    2.94000006
   16.01611137  121.70099640    0.40000001    2.94000006
   16.01944351  128.72700500    0.40000001    2.94000006
   16.02249908  114.93399811    0.40000001    2.94000006
   16.02861023  114.93399811    0.40000001    2.94000006
   16.03249931  115.01999664    0.40000001    2.94000006
   16.03583336  120.04299927    0.40000001    2.94000006
   16.03916550  122.95099640    0.40000001    2.93000007
   16.04222107  114.07199860    0.41999999    2.93000007
   16.04555511  116.68099976    0.40000001    2.94000006
   16.04888916  119.58100128    0.40000001    2.94000006
   16.05194283  113.60700226    0.41999999    2.94000006
   16.05527687  114.28900146    0.41999999    2.93000007
   16.05833244  122.10800171    0.41999999    2.93000007
   16.06083298  125.63800049    0.41999999    2.94000006
   16.06194305  112.14700317    0.41999999    2.94000006
   16.06527710  120.87100220    0.41999999    2.93000007
   16.07139015  120.87100220    0.41999999    2.94000006
   16.07555580  124.63899994    0.41999999    2.94000006
   16.07861137  130.20199585    0.41999999    2.93000007
   16.08194542  130.76899719    0.41999999    2.94000006
   16.08527756  122.56099701    0.41999999    2.93000007
   16.08833313  110.92099762    0.41999999    2.94000006
   16.09166718  116.84799957    0.41999999    2.94000006
   16.09416771  116.23200226    0.41999999    2.94000006
   16.09527779  121.07399750    0.41999999    2.94000006
   16.09861183  117.97499847    0.44000000    2.93000007
   16.10194397  116.06099701    0.44000000    2.93000007
   16.10499954  123.49500275    0.41999999    2.93000007
   16.10833359  116.16500092    0.41999999    2.93000007
   16.11416626  116.16500092    0.41999999    2.94000006
   16.11833382  128.84899902    0.41999999    2.93000007
   16.12166595  123.74900055    0.41999999    2.93000007
   16.12472153  119.79599762    0.40000001    2.94000006
   16.12750053  116.42299652    0.40000001    2.94000006
   16.12833405  141.87500000    0.40000001    2.94000006
   16.13166618  127.00800323    0.41999999    2.94000006
   16.13500023  110.48799896    0.41999999    2.94000006
   16.13805580  131.34300232    0.41999999    2.94000006
   16.14138794  132.37600708    0.41999999    2.93000007
   16.14444351  112.66500092    0.41999999    2.93000007
   16.14777756  115.62799835    0.41999999    2.93000007
   16.15111160  125.51100159    0.41999999    2.93000007
   16.15694427  125.51100159    0.41999999    2.94000006
   16.16110992  118.26799774    0.41999999    2.93000007
   16.16444397  125.31999969    0.41999999    2.94000006
   16.16749954  153.04899597    0.41999999    2.94000006
   16.17083359  122.47000122    0.41999999    2.94000006
   16.17416573  120.21700287    0.41999999    2.94000006
   16.17722130  123.25099945    0.41999999    2.94000006
   16.18055534  118.10900116    0.40000001    2.94000006
   16.18388748  135.35200500    0.40000001    2.94000006
   16.18694305  117.84300232    0.40000001    2.94000006
   16.19027710  120.92400360    0.40000001    2.93000007
   16.19333267  122.46499634    0.40000001    2.93000007
   16.19416618  125.46299744    0.40000001    2.93000007
   16.20000076  125.46299744    0.40000001    2.94000006
   16.20388985  120.07700348    0.40000001    2.94000006
   16.20722389  117.36000061    0.40000001    2.94000006
   16.21055603  119.54699707    0.40000001    2.94000006
   16.21361160  108.48400116    0.38000000    2.94000006
   16.21694565  110.59999847    0.38000000    2.94000006
   16.22000122  113.19699860    0.38000000    2.94000006
   16.22333336  111.83499908    0.38000000    2.94000006
   16.22666740  118.54000092    0.38000000    2.94000006
   16.22750092  108.18399811    0.38000000    2.94000006
   16.23000145  112.05999756    0.38000000    2.94000006
   16.23333359  113.07499695    0.38000000    2.94000006
   16.23666763  112.60900116    0.38000000    2.94000006
   16.24277878  112.60900116    0.38000000    2.94000006
   16.24694443  112.73699951    0.38000000    2.94000006
   16.25000000  111.85099792    0.38000000    2.94000006
   16.25333405  111.81900024    0.40000001    2.94000006
   16.25666618  112.58999634    0.40000001    2.93000007
   16.25972176  118.89399719    0.40000001    2.94000006
   16.26083374  127.38400269    0.40000001    2.94000006
   16.26333427  116.13500214    0.40000001    2.94000006
   16.26666641  106.49099731    0.41999999    2.93000007
   16.27000046  115.02999878    0.41999999    2.93000007
   16.27305603  108.80999756    0.41999999    2.94000006
   16.27638817  109.45200348    0.41999999    2.94000006
   16.27972221  114.94400024    0.44000000    2.93000007
   16.28555489  114.94400024    0.51999998    2.94000006
   16.28972244  109.38500214    0.46000001    2.94000006
   16.29305458  111.90899658    0.46000001    2.94000006
   16.29416656  113.44000244    0.44000000    2.94000006
   16.29666710  124.83000183    0.41999999    2.94000006
   16.29972076  114.59600067    0.41999999    2.94000006
   16.30305481  107.95700073    0.41999999    2.94000006
   16.30638885  112.81900024    0.41999999    2.94000006
   16.30944443  110.45400238    0.44000000    2.94000006
   16.31277657  122.11599731    0.41999999    2.94000006
   16.31583214  103.60199738    0.41999999    2.94000006
   16.31916809  125.40299988    0.44000000    2.94000006
   16.32250023  106.15200043    0.44000000    2.94000006
   16.32833481  106.15200043    0.44000000    2.94000006
   16.33250046  114.64700317    0.44000000    2.94000006
   16.33583450  129.60400391    0.44000000    2.94000006
   16.33889008  117.25700378    0.44000000    2.93000007
   16.34222221  116.00399780    0.44000000    2.94000006
   16.34555626  120.50499725    0.56999999    2.94000006
   16.34861183  117.46199799    0.56999999    2.94000006
   16.35194397  113.70999908    0.44000000    2.94000006
   16.35527802  117.52799988    0.44000000    2.94000006
   16.35833359  109.92900085    0.44000000    2.94000006
   16.36083412  110.91799927    0.44000000    2.94000006
   16.36194420  114.99600220    0.44000000    2.94000006
   16.36527824  108.56300354    0.44000000    2.93000007
   16.37138939  108.56300354    0.44000000    2.94000006
   16.37527847  116.04499817    0.41999999    2.94000006
   16.37861061  117.09700012    0.44000000    2.93000007
   16.38194466  122.95600128    0.44000000    2.93000007
   16.38500023  107.98000336    0.41999999    2.94000006
   16.38833237  115.58999634    0.44000000    2.94000006
   16.39138794  104.91500092    0.41999999    2.94000006
   16.39416695  122.95099640    0.41999999    2.93000007
   16.39500046  134.25999451    0.41999999    2.93000007
   16.39833260  128.78799438    0.41999999    2.93000007
   16.40166664  138.10800171    0.44000000    2.94000006
   16.40472221  130.08099365    0.44000000    2.94000006
   16.40805435  121.58000183    0.44000000    2.94000006
   16.41416550  121.58000183    0.44000000    2.94000006
   16.41833305  123.81099701    0.40000001    2.94000006
   16.42138863  138.89700317    0.41999999    2.94000006
   16.42472076  144.27299500    0.41999999    2.96000004
   16.42749977  146.44099426    0.41999999    2.96000004
   16.42833328  136.59899902    0.41999999    2.94000006
   16.43166542  153.34700012    0.41999999    2.93000007
   16.43499947  171.30499268    0.40000001    2.94000006
   16.43805504  156.18699646    0.41999999    2.94000006
   16.44138718  159.94099426    0.41999999    2.94000006
   16.44472122  140.97599792    0.41999999    2.94000006
   16.44777679  171.34599304    0.41999999    2.94000006
   16.45111275  166.13299561    0.41999999    2.94000006
   16.45694542  166.13299561    0.41999999    2.94000006
   16.46111107  160.08000183    0.40000001    2.94000006
   16.46444511  164.45300293    0.41999999    2.94000006
   16.46750069  172.52600098    0.41999999    2.94000006
   16.47083473  182.46800232    0.41999999    2.94000006
   16.47389030  174.32299805    0.41999999    2.96000004
   16.47722244  158.93899536    0.41999999    2.94000006
   16.48055649  187.44900513    0.41999999    2.94000006
   16.48361206  188.36799622    0.41999999    2.93000007
   16.48694420  172.87100220    0.41999999    2.94000006
   16.49027824  174.94500732    0.41999999    2.94000006
   16.49333382  202.44900513    0.41999999    2.94000006
   16.49416733  174.11399841    0.40000001    2.94000006
   16.49972153  174.11399841    0.41999999    2.93000007
   16.50388908  191.08299255    0.41999999    2.94000006
   16.50722313  179.80999756    0.41999999    2.93000007
   16.51027870  153.56799316    0.41999999    2.94000006
   16.51361084  174.57000732    0.41999999    2.94000006
   16.51694489  167.15899658    0.41999999    2.94000006
   16.52000046  167.45700073    0.41999999    2.94000006
   16.52333260  176.80000305    0.41999999    2.94000006
   16.52666664  189.59899902    0.41999999    2.94000006
   16.52750015  191.05599976    0.41999999    2.94000006
   16.53027725  163.23300171    0.41999999    2.94000006
   16.53333282  171.28799438    0.41999999    2.94000006
   16.53666687  177.72200012    0.41999999    2.94000006
   16.54277802  177.72200012    0.41999999    2.94000006
   16.54666710  192.97599792    0.44000000    2.94000006
   16.54999924  197.50599670    0.41999999    2.93000007
   16.55333328  204.19299316    0.41999999    2.94000006
   16.55638885  195.98899841    0.41999999    2.94000006
   16.55972099  198.17599487    0.41999999    2.94000006
   16.56083298  178.66900635    0.41999999    2.94000006
   16.56333351  185.59899902    0.41999999    2.94000006
   16.56638718  201.68400574    0.41999999    2.94000006
   16.56972313  187.21600342    0.41999999    2.94000006
   16.57277870  173.59100342    0.41999999    2.94000006
   16.57611275  191.17700195    0.41999999    2.94000006
   16.57944489  145.08799744    0.41999999    2.94000006
   16.58555603  145.08799744    0.44000000    2.93000007
   16.58972359  186.20599365    0.44000000    2.93000007
   16.59277916  157.52900696    0.46000001    2.94000006
   16.59416771  181.53700256    0.46000001    2.94000006
   16.59666824  171.77999878    0.46000001    2.94000006
   16.59972191  165.11099243    0.44000000    2.93000007
   16.60305595  155.85899353    0.46000001    2.93000007
   16.60611153  141.34399414    0.46000001    2.94000006
   16.60944557  184.40899658    0.44000000    2.94000006
   16.61277771  197.80799866    0.44000000    2.93000007
   16.61583328  184.52799988    0.44000000    2.94000006
   16.61916733  183.83000183    0.44000000    2.94000006
   16.62249947  192.99899292    0.44000000    2.94000006
   16.62833405  192.99899292    0.44000000    2.94000006
   16.63249969  164.31100464    0.44000000    2.94000006
   16.63583374  165.55299377    0.44000000    2.94000006
   16.63888931  169.81500244    0.44000000    2.94000006
   16.64222145  147.41499329    0.44000000    2.93000007
   16.64527702  146.54699707    0.44000000    2.94000006
   16.64861107  147.49299622    0.46000001    2.93000007
   16.65194321  149.04200745    0.46000001    2.94000006
   16.65499878  146.83599854    0.46000001    2.93000007
   16.65833282  185.64100647    0.46000001    2.93000007
   16.66083336  170.86700439    0.46000001    2.94000006
   16.66194344  171.63299561    0.46000001    2.93000007
   16.66499901  173.29299927    0.46000001    2.94000006
   16.67111015  173.29299927    0.46000001    2.93000007
   16.67527771  183.23199463    0.47999999    2.93000007
   16.67860985  185.30000305    0.47999999    2.93000007
   16.68194389  163.78500366    0.47999999    2.93000007
   16.68499947  185.72399902    0.47999999    2.94000006
   16.68833160  175.71099854    0.47999999    2.93000007
   16.69138718  172.50000000    0.47999999    2.93000007
   16.69416618  182.39999390    0.47999999    2.93000007
   16.69527626  175.17500305    0.47999999    2.93000007
   16.69833183  178.53999329    0.47999999    2.93000007
   16.70166779  177.90100098    0.47999999    2.93000007
   16.70472336  168.96400452    0.47999999    2.93000007
   16.70805550  176.59100342    0.47999999    2.94000006
   16.71416664  176.59100342    0.47999999    2.94000006
   16.71833420  188.36099243    0.47999999    2.94000006
   16.72138977  162.08000183    0.46000001    2.94000006
   16.72472191  201.81900024    0.47999999    2.94000006
   16.72750092  155.18899536    0.47999999    2.94000006
   16.72833443  170.34399414    0.47999999    2.94000006
   16.73139000  181.30599976    0.47999999    2.94000006
   16.73472214  182.41499329    0.47999999    2.94000006
   16.73777771  156.95599365    0.50000000    2.94000006
   16.74111176  188.49099731    0.50000000    2.93000007
   16.74444389  191.10499573    0.50000000    2.94000006
   16.74749947  177.55400085    0.50000000    2.94000006
   16.75083351  180.69299316    0.50000000    2.93000007
   16.75694466  180.69299316    0.50000000    2.93000007
   16.76111031  164.56199646    0.50000000    2.94000006
   16.76416588  148.58200073    0.50000000    2.93000007
   16.76749992  180.41700745    0.50000000    2.94000006
   16.77083397  152.34399414    0.50000000    2.94000006
   16.77388954  161.72200012    0.50000000    2.94000006
   16.77722168  171.39100647    0.51999998    2.93000007
   16.78055573  156.05900574    0.51999998    2.94000006
   16.78361130  140.85000610    0.51999998    2.94000006
   16.78694344  120.37999725    0.51999998    2.94000006
   16.78999901  145.59899902    0.51999998    2.94000006
   16.79333305  161.94799805    0.51999998    2.93000007
   16.79416656  157.25999451    0.51999998    2.93000007
   16.81499863  157.25999451    0.51999998    2.94000006
   16.81916809  173.76699829    0.51999998    2.93000007
   16.82222366  173.71600342    0.50000000    2.94000006
   16.82555580  166.22999573    0.50000000    2.93000007
   16.82750130  165.44400024    0.50000000    2.93000007
   16.82916832  174.06599426    0.50000000    2.93000007
   16.83222389  162.71000671    0.50000000    2.94000006
   16.83555603  170.06900024    0.50000000    2.94000006
   16.83861160  151.16299438    0.50000000    2.93000007
   16.84194565  152.83599854    0.50000000    2.94000006
   16.84527779  162.60200500    0.50000000    2.93000007
   16.84833336  175.09100342    0.50000000    2.94000006
   16.85166740  144.43099976    0.50000000    2.94000006
   16.85750008  144.43099976    0.50000000    2.94000006
   16.86166763  152.09800720    0.50000000    2.93000007
   16.86499977  167.76800537    0.50000000    2.93000007
   16.86833382  152.69999695    0.50000000    2.94000006
   16.87138939  158.11300659    0.50000000    2.93000007
   16.87472153  165.36900330    0.50000000    2.93000007
   16.87777710  167.24800110    0.50000000    2.93000007
   16.88111115  147.42900085    0.50000000    2.94000006
   16.88444519  138.14700317    0.50000000    2.93000007
   16.88750076  138.98699951    0.47999999    2.94000006
   16.89083290  170.31199646    0.47999999    2.94000006
   16.89416695  150.13299561    0.47999999    2.94000006
   16.89444351  163.08200073    0.47999999    2.94000006
   16.90055466  163.08200073    0.47999999    2.93000007
   16.90472221  145.80999756    0.47999999    2.94000006
   16.90777779  157.11599731    0.46000001    2.94000006
   16.91110992  138.95700073    0.46000001    2.94000006
   16.91416550  146.00999451    0.46000001    2.94000006
   16.91749954  150.65299988    0.46000001    2.94000006
   16.92083359  143.78700256    0.47999999    2.93000007
   16.92388916  162.53300476    0.46000001    2.94000006
   16.92722130  165.00999451    0.46000001    2.94000006
   16.92805481  159.38800049    0.46000001    2.94000006
   16.93083191  166.61700439    0.46000001    2.94000006
   16.93416595  141.11799622    0.47999999    2.94000006
   16.93750000  160.91499329    0.47999999    2.93000007
   16.94333267  160.91499329    0.47999999    2.94000006
   16.94749832  142.59300232    0.47999999    2.94000006
   16.95083427  150.29400635    0.47999999    2.94000006
   16.95388985  149.36999512    0.47999999    2.94000006
   16.95722389  150.85800171    0.50000000    2.94000006
   16.96027946  157.12399292    0.50000000    2.94000006
   16.96138954  146.95199585    0.50000000    2.94000006
   16.96389008  137.03599548    0.50000000    2.94000006
   16.96722221  156.78399658    0.50000000    2.94000006
   16.97027779  119.32499695    0.50000000    2.93000007
   16.97361183  145.34500122    0.50000000    2.93000007
   16.97694588  142.21800232    0.50000000    2.93000007
   16.98000145  150.83299255    0.51999998    2.93000007
   16.98611069  150.83299255    0.51999998    2.94000006
   16.99027824  147.03700256    0.51999998    2.93000007
   16.99361229  128.43200684    0.51999998    2.93000007
   16.99472237  144.34599304    0.52999997    2.94000006
   16.99722290  131.79299927    0.51999998    2.93000007
   17.00055504  130.11199951    0.51999998    2.93000007
   17.00388908  133.95199585    0.52999997    2.94000006
   17.00722313  148.20100403    0.52999997    2.94000006
   17.01027870  151.68099976    0.52999997    2.93000007
   17.01361084  134.12899780    0.52999997    2.94000006
   17.01694489  141.37500000    0.51999998    2.94000006
   17.02000046  133.89199829    0.52999997    2.93000007
   17.02333260  137.77900696    0.52999997    2.93000007
   17.02916718  137.77900696    0.55000001    2.93000007
   17.03333282  142.24099731    0.52999997    2.93000007
   17.03666687  130.08299255    0.52999997    2.93000007
   17.03972244  138.64799500    0.55000001    2.93000007
   17.04305458  131.32400513    0.55000001    2.93000007
   17.04611015  132.24299622    0.55000001    2.93000007
   17.04944420  125.36100006    0.55000001    2.93000007
   17.05277634  118.13899994    0.55000001    2.94000006
   17.05583191  132.83599854    0.52999997    2.93000007
   17.05916595  125.74400330    0.52999997    2.93000007
   17.06138802  123.00599670    0.52999997    2.93000007
   17.06277657  117.86699677    0.52999997    2.93000007
   17.06611061  123.35299683    0.52999997    2.93000007
   17.07194519  123.35299683    0.51999998    2.93000007
   17.07611275  139.66799927    0.51999998    2.93000007
   17.07916832  133.08399963    0.51999998    2.93000007
   17.08250046  138.13699341    0.51999998    2.93000007
   17.08583450  136.23599243    0.51999998    2.93000007
   17.08889008  123.93499756    0.51999998    2.93000007
   17.09222221  132.02200317    0.51999998    2.93000007
   17.09472275  139.62600708    0.51999998    2.93000007
   17.09583473  130.10000610    0.51999998    2.93000007
   17.09916687  131.57200623    0.51999998    2.93000007
   17.10222244  129.94599915    0.51999998    2.93000007
   17.10555649  123.75199890    0.51999998    2.93000007
   17.10888863  132.84100342    0.51999998    2.93000007
   17.11472321  132.84100342    0.51999998    2.93000007
   17.11888885  134.47799683    0.51999998    2.93000007
   17.12222290  125.00800323    0.51999998    2.94000006
   17.12527847  136.66400146    0.51999998    2.94000006
   17.12805557  120.97699738    0.51999998    2.94000006
   17.12888908  109.59799957    0.51999998    2.93000007
   17.13222313  124.93099976    0.51999998    2.93000007
   17.13527679  131.24099731    0.51999998    2.93000007
   17.13861084  118.90200043    0.51999998    2.93000007
   17.14194489  123.86299896    0.51999998    2.93000007
   17.14500046  125.08799744    0.51999998    2.93000007
   17.14833260  124.76300049    0.51999998    2.93000007
   17.15166664  116.30599976    0.50000000    2.93000007
   17.15749931  116.30599976    0.50000000    2.93000007
   17.16166687  109.68800354    0.51999998    2.93000007
   17.16499901  135.00300598    0.51999998    2.93000007
   17.16805458  124.78399658    0.50000000    2.93000007
   17.17138863  125.40299988    0.50000000    2.93000007
   17.17472076  126.21099854    0.50000000    2.93000007
   17.17805481  119.58899689    0.50000000    2.93000007
   17.18111038  126.98899841    0.50000000    2.93000007
   17.18444443  142.82299805    0.50000000    2.93000007
   17.18777657  122.31800079    0.50000000    2.94000006
   17.19083214  121.18499756    0.47999999    2.93000007
   17.19416618  115.05799866    0.47999999    2.93000007
   17.19472122  113.06300354    0.47999999    2.93000007
   17.20027924  113.06300354    0.47999999    2.93000007
   17.20444489  119.54100037    0.47999999    2.94000006
   17.20777893  133.91299438    0.47999999    2.93000007
   17.21111107  127.63300323    0.47999999    2.93000007
   17.21416664  141.36900330    0.47999999    2.93000007
   17.21750069  122.92900085    0.47999999    2.94000006
   17.22055626  121.10399628    0.47999999    2.93000007
   17.22389030  117.32599640    0.46000001    2.93000007
   17.22722244  117.39199829    0.46000001    2.94000006
   17.22805595  115.58899689    0.47999999    2.94000006
   17.23055649  113.39600372    0.47999999    2.94000006
   17.23388863  129.27299500    0.47999999    2.93000007
   17.23722267  115.86799622    0.47999999    2.93000007
   17.24333382  115.86799622    0.47999999    2.94000006
   17.24749947  118.64900208    0.46000001    2.93000007
   17.25055504  123.03299713    0.47999999    2.93000007
   17.25388908  111.79900360    0.46000001    2.93000007
   17.25694466  118.06300354    0.47999999    2.93000007
   17.26027870  114.63300323    0.47999999    2.93000007
   17.26138878  114.69100189    0.47999999    2.93000007
   17.26388931  120.66899872    0.47999999    2.94000006
   17.26722145  122.03700256    0.47999999    2.94000006
   17.27055550  118.05599976    0.47999999    2.94000006
   17.27361107  123.89299774    0.47999999    2.93000007
   17.27694511  118.95899963    0.47999999    2.93000007
   17.28027725  121.12000275    0.47999999    2.93000007
   17.28610992  121.12000275    0.47999999    2.94000006
   17.29027748  118.05100250    0.47999999    2.93000007
   17.29333305  114.33399963    0.47999999    2.94000006
   17.29472160  118.01200104    0.47999999    2.94000006
   17.29722214  121.79599762    0.47999999    2.94000006
   17.30027771  118.35800171    0.47999999    2.94000006
   17.30360985  121.88300323    0.47999999    2.94000006
   17.30666542  116.95800018    0.47999999    2.94000006
   17.30999947  116.89199829    0.47999999    2.94000006
   17.31333351  121.47799683    0.47999999    2.94000006
   17.31638718  123.79599762    0.47999999    2.93000007
   17.31972313  120.16500092    0.47999999    2.94000006
   17.32305717  117.26000214    0.47999999    2.94000006
   17.32888985  117.26000214    0.47999999    2.93000007
   17.33305550  108.98500061    0.47999999    2.93000007
   17.33638954  114.36000061    0.47999999    2.94000006
   17.33944511  118.90100098    0.47999999    2.94000006
   17.34277916  120.51200104    0.47999999    2.94000006
   17.34611130  120.20700073    0.47999999    2.94000006
   17.34916687  116.82800293    0.47999999    2.93000007
   17.35250092  124.34700012    0.50000000    2.93000007
   17.35555649  115.28399658    0.47999999    2.93000007
   17.35888863  120.98600006    0.50000000    2.94000006
   17.36138916  114.43699646    0.55000001    2.93000007
   17.36250114  118.70600128    0.55000001    2.93000007
   17.36583328  116.99199677    0.52999997    2.93000007
   17.37166595  116.99199677    0.63000000    2.94000006
   17.37583351  118.79399872    1.28999996    2.93000007
   17.37916756  116.10099792    1.28999996    2.93000007
   17.38249969  125.11599731    0.75000000    2.94000006
   17.38555527  117.89499664    0.64999998    2.93000007
   17.38888931  123.98000336    0.56999999    2.93000007
   17.39194489  121.27500153    0.50000000    2.93000007
   17.39472198  115.79399872    0.50000000    2.93000007
   17.39583397  121.82800293    0.50000000    2.93000007
   17.39888954  117.73999786    0.47999999    2.93000007
   17.40222168  113.07700348    0.47999999    2.93000007
   17.40555573  112.39199829    0.50000000    2.93000007
   17.40861130  122.48899841    0.50000000    2.93000007
   17.41472244  122.48899841    0.50000000    2.93000007
   17.41888809  119.21099854    0.50000000    2.94000006
   17.42194366  110.97599792    0.50000000    2.94000006
   17.42527771  122.62599945    0.50000000    2.94000006
   17.42805481  121.87799835    0.50000000    2.94000006
   17.42860985  119.91300201    0.50000000    2.94000006
   17.43194389  120.67800140    0.50000000    2.94000006
   17.43527603  116.10900116    0.50000000    2.93000007
   17.43833160  113.70200348    0.47999999    2.93000007
   17.44166565  113.15699768    0.47999999    2.94000006
   17.44472122  127.20099640    0.47999999    2.94000006
   17.44805527  120.78600311    0.47999999    2.94000006
   17.45138931  123.92900085    0.50000000    2.93000007
   17.45750046  123.92900085    0.50000000    2.93000007
   17.46166801  118.70099640    0.50000000    2.94000006
   17.46472359  119.38800049    0.50000000    2.93000007
   17.46805573  115.05300140    0.50000000    2.94000006
   17.47138977  136.01499939    0.51999998    2.94000006
   17.47444534  127.71199799    0.51999998    2.94000006
   17.47777748  124.75800323    0.50000000    2.93000007
   17.48111153  124.76599884    0.51999998    2.94000006
   17.48416710  120.58200073    0.51999998    2.94000006
   17.48750114  116.93800354    0.51999998    2.94000006
   17.49083328  122.42600250    0.52999997    2.94000006
   17.49388885  129.16200256    0.52999997    2.93000007
   17.49472237  127.40100098    0.52999997    2.93000007
   17.50027847  127.40100098    0.51999998    2.93000007
   17.50444412  133.74899292    0.51999998    2.93000007
   17.50777817  132.90299988    0.51999998    2.94000006
   17.51083374  129.48800659    0.51999998    2.94000006
   17.51416588  135.26100159    0.51999998    2.94000006
   17.51749992  122.64900208    0.51999998    2.94000006
   17.52055550  143.01300049    0.50000000    2.93000007
   17.52388954  123.19400024    0.50000000    2.94000006
   17.52722168  126.01300049    0.50000000    2.94000006
   17.52805519  122.27600098    0.50000000    2.94000006
   17.53083229  118.77200317    0.50000000    2.94000006
   17.53388786  121.05300140    0.50000000    2.94000006
   17.53722191  126.42299652    0.50000000    2.94000006
   17.54305458  126.42299652    0.47999999    2.93000007
   17.54722214  133.08799744    0.47999999    2.93000007
   17.55083275  119.19000244    0.47999999    2.93000007
   17.55416679  121.10399628    0.50000000    2.94000006
   17.55749893  117.87899780    0.50000000    2.93000007
   17.56055450  129.47500610    0.51999998    2.93000007
   17.56138802  115.42800140    0.51999998    2.93000007
   17.56444359  123.85800171    0.51999998    2.93000007
   17.56750107  129.63000488    0.51999998    2.93000007
   17.57083511  120.28399658    0.51999998    2.93000007
   17.57416725  118.21199799    0.51999998    2.93000007
   17.57722282  123.93099976    0.52999997    2.94000006
   17.58055687  113.43800354    0.51999998    2.93000007
   17.58611107  113.43800354    0.52999997    2.93000007
   17.59027863  121.42500305    0.52999997    2.93000007
   17.59333420  111.22799683    0.55000001    2.93000007
   17.59472275  105.52999878    0.55000001    2.93000007
   17.59722328  108.54100037    0.52999997    2.93000007
   17.60027885  117.36699677    0.52999997    2.93000007
   17.60361099  120.52100372    0.52999997    2.93000007
   17.60694504  121.08000183    0.52999997    2.93000007
   17.61000061  112.93000031    0.52999997    2.93000007
   17.61333466  118.92900085    0.55000001    2.93000007
   17.61638832  111.91999817    0.55000001    2.93000007
   17.61972237  119.86699677    0.55000001    2.93000007
   17.62305641  118.07099915    0.55000001    2.93000007
   17.62888908  118.07099915    0.55000001    2.94000006
   17.63305473  117.80699921    0.56999999    2.93000007
   17.63611031  123.71399689    0.56999999    2.93000007
   17.63944435  115.98799896    0.56999999    2.93000007
   17.64277840  109.52200317    0.55000001    2.93000007
   17.64583397  141.05299377    0.55000001    2.94000006
   17.64916611  137.62399292    0.55000001    2.93000007
   17.65250015  128.28900146    0.55000001    2.94000006
   17.65555573   86.04519653    0.55000001    2.93000007
   17.65888786  114.11100006    0.55000001    2.91000009
   17.66138840  125.06199646    0.52999997    2.93000007
   17.66250038  132.68800354    0.52999997    2.93000007
   17.66555595  120.91699982    0.52999997    2.93000007
   17.67166519  120.91699982    0.52999997    2.91000009
   17.67583275  128.21499634    0.52999997    2.93000007
   17.67916679  111.70099640    0.51999998    2.93000007
   17.68222237  134.49699402    0.51999998    2.93000007
   17.68555450  110.27899933    0.52999997    2.93000007
   17.68888855  120.95300293    0.52999997    2.93000007
   17.69194412  118.30300140    0.51999998    2.93000007
   17.69472122  120.87300110    0.51999998    2.93000007
   17.69583321  123.11399841    0.52999997    2.93000007
   17.69888878  127.20700073    0.52999997    2.93000007
   17.70222282  116.86599731    0.51999998    2.93000007
   17.70555687  121.74800110    0.51999998    2.93000007
   17.70861244  126.16699982    0.51999998    2.93000007
   17.71444511  126.16699982    0.50000000    2.93000007
   17.71861076  112.98999786    0.51999998    2.93000007
   17.72194481  105.66899872    0.51999998    2.94000006
   17.72527885  112.05599976    0.51999998    2.93000007
   17.72805595  129.56100464    0.51999998    2.94000006
   17.72888947  124.99299622    0.51999998    2.94000006
   17.73194504  124.03199768    0.51999998    2.94000006
   17.73527718  111.91999817    0.51999998    2.93000007
   17.73861122  126.90200043    0.51999998    2.94000006
   17.74166679  118.89900208    0.51999998    2.94000006
   17.74500084  131.91200256    0.51999998    2.94000006
   17.74805641  115.27300262    0.51999998    2.93000007
   17.75138855  114.79000092    0.51999998    2.94000006
   17.75749969  114.79000092    0.52999997    2.91000009
   17.76166725  126.57800293    0.52999997    2.94000006
   17.76472282  123.72000122    0.52999997    2.94000006
   17.76805496  122.24199677    0.52999997    2.93000007
   17.77111053  130.44299316    0.52999997    2.93000007
   17.77444458  123.91000366    0.52999997    2.93000007
   17.77777672  119.74500275    0.56999999    2.93000007
   17.78083229  108.62400055    0.56999999    2.93000007
   17.78416634  128.78199768    0.56999999    2.93000007
   17.78750038  120.79000092    0.56999999    2.91000009
   17.79055595  119.45899963    0.56999999    2.91000009
   17.79388809  122.64700317    0.56999999    2.93000007
   17.79472160  119.53399658    0.56999999    2.91000009
   17.80027771  119.53399658    0.56999999    2.93000007
   17.80444336  113.52799988    0.56999999    2.93000007
   17.80749893  117.74400330    0.55000001    2.93000007
   17.81083298  115.39900208    0.56999999    2.93000007
   17.82833481  114.84500122    0.56999999    2.91000009
   17.83083344  115.53199768    0.56999999    2.91000009
   17.83416748  124.14199829    0.56999999    2.93000007
   17.83722305  116.82099915    0.58999997    2.93000007
   17.84333420  116.82099915    0.58999997    2.93000007
   17.84749985  121.00000000    0.61000001    2.91000009
   17.85055542  123.70899963    0.61000001    2.91000009
   17.85388947  126.22100067    0.61000001    2.91000009
   17.85722351  117.40499878    0.61000001    2.91000009
   17.86027908  108.07299805    0.61000001    2.93000007
   17.86166763  101.97499847    0.61000001    2.93000007
   17.86416626  124.70600128    0.61000001    2.93000007
   17.86722183  123.49199677    0.61000001    2.93000007
   17.87055588  117.41699982    0.63000000    2.89000010
   17.87388992  126.65200043    0.63000000    2.93000007
   17.87694550  115.69200134    0.63000000    2.93000007
   17.88027763  120.97699738    0.63000000    2.93000007
   17.88611031  120.97699738    0.63000000    2.91000009
   17.89027786  108.91000366    0.63000000    2.93000007
   17.89333344  126.11499786    0.63000000    2.93000007
   17.89500046  120.18699646    0.63000000    2.93000007
   17.89722252  129.79800415    0.63000000    2.93000007
   17.90027809  123.76799774    0.63000000    2.93000007
   17.90361023  141.36900330    0.63000000    2.93000007
   17.90694427  125.50299835    0.61000001    2.91000009
   17.90999985  111.70700073    0.61000001    2.91000009
   17.91333389  120.70400238    0.61000001    2.91000009
   17.91666603  115.64800262    0.63000000    2.91000009
   17.91972160  120.16699982    0.61000001    2.93000007
   17.92305565  125.47699738    0.61000001    2.91000009
   17.92888832  125.47699738    0.63000000    2.91000009
   17.93305397  120.87899780    0.63000000    2.93000007
   17.93638802  119.66000366    0.63000000    2.91000009
   17.93944359  121.88200378    0.63000000    2.91000009
   17.94277763  126.48799896    0.63000000    2.91000009
   17.94610977  130.07000732    0.63000000    2.93000007
   17.94916534  132.14199829    0.63000000    2.91000009
   17.95250130  133.63299561    0.63000000    2.91000009
   17.95583344  117.39499664    0.63000000    2.93000007
   17.95888901  123.68699646    0.63000000    2.93000007
   17.96166801  125.18099976    0.63000000    2.93000007
   17.96277809  120.15399933    0.63000000    2.93000007
   17.96583366  116.46099854    0.63000000    2.91000009
   17.97166634  116.46099854    0.63000000    2.91000009
   17.97583389  117.97200012    0.63000000    2.91000009
   17.97916794  124.61299896    0.63000000    2.93000007
   17.98250008  121.60399628    0.63000000    2.91000009
   17.98555565  126.34100342    0.63000000    2.91000009
   17.98888969  118.20400238    0.63000000    2.91000009
   17.99222183  126.41100311    0.63000000    2.91000009
   17.99500084  105.54699707    0.63000000    2.91000009
   17.99583435  121.37500000    0.63000000    2.91000009
   17.99916649  120.45600128    0.63000000    2.91000009
   18.00222206  125.89299774    0.63000000    2.91000009
   18.00555611  119.10900116    0.63000000    2.91000009
   18.00888824  114.09200287    0.63000000    2.91000009
   18.01472282  114.09200287    0.64999998    2.91000009
   18.01888847  127.64900208    0.63000000    2.93000007
   18.02194405  120.31500244    0.63000000    2.89000010
   18.02527809  126.97799683    0.63000000    2.91000009
   18.02833366  121.05899811    0.63000000    2.91000009
   18.02888870  113.19100189    0.63000000    2.91000009
   18.03194427  124.34400177    0.63000000    2.91000009
   18.03527641  131.18200684    0.63000000    2.91000009
   18.03833199  127.95999908    0.63000000    2.91000009
   18.04166603  126.55300140    0.61000001    2.91000009
   18.04500008  126.61900330    0.63000000    2.91000009
   18.04805565  122.64800262    0.61000001    2.91000009
   18.05138779  136.24299622    0.61000001    2.93000007
   18.05749893  136.24299622    0.61000001    2.91000009
   18.06166649  110.54699707    0.61000001    2.91000009
   18.06222153  112.26000214    0.61000001    2.91000009
   18.06527710  120.28399658    0.61000001    2.91000009
   18.06861115  115.23899841    0.61000001    2.91000009
   18.07194519  127.24900055    0.61000001    2.93000007
   18.07500076  132.27999878    0.61000001    2.91000009
   18.07833481  134.44799805    0.63000000    2.89000010
   18.08166695  123.55100250    0.63000000    2.91000009
   18.08472252  134.16799927    0.63000000    2.91000009
   18.08805656  117.90000153    0.63000000    2.91000009
   18.09111214  135.18699646    0.61000001    2.91000009
   18.09444427  131.98500061    0.63000000    2.91000009
   18.09500122  137.68899536    0.61000001    2.91000009
   18.10027885  137.68899536    0.63000000    2.91000009
   18.10444450  150.09500122    0.63000000    2.91000009
   18.10777855  161.75100708    0.63000000    2.91000009
   18.11111069  153.23199463    0.63000000    2.91000009
   18.11416626  146.08000183    0.63000000    2.91000009
   18.11750031  144.64300537    0.64999998    2.91000009
   18.12055588  152.83599854    0.64999998    2.91000009
   18.12388992  131.84500122    0.64999998    2.91000009
   18.12722206  128.74299622    0.64999998    2.91000009
   18.12833405  136.74499512    0.64999998    2.91000009
   18.13083267  127.73400116    0.64999998    2.91000009
   18.13388824  124.01899719    0.64999998    2.91000009
   18.13722229  122.11100006    0.64999998    2.91000009
   18.14333344  122.11100006    0.64999998    2.91000009
   18.14722252  114.97899628    0.64999998    2.91000009
   18.15055466  117.56800079    0.64999998    2.91000009
   18.15388870  117.58699799    0.67000002    2.91000009
   18.15694427  121.44899750    0.67000002    2.89000010
   18.16027832  129.49499512    0.67000002    2.91000009
   18.16166687  120.73899841    0.69000000    2.93000007
   18.16388893  119.96399689    0.69000000    2.93000007
   18.16722107  124.69599915    0.67000002    2.89000010
   18.17027664  130.17900085    0.67000002    2.89000010
   18.17361069  119.39099884    0.70999998    2.91000009
   18.17666626  122.30999756    0.70999998    2.91000009
   18.18000031  138.98899841    0.70999998    2.91000009
   18.18610954  138.98899841    0.73000002    2.91000009
   18.19027710  156.12300110    0.73000002    2.89000010
   18.19333267  152.54200745    0.81999999    2.89000010
   18.19499969  135.28700256    0.67000002    2.89000010
   18.19722176  143.10000610    0.67000002    2.89000010
   18.20027924  111.06999969    0.67000002    2.91000009
   18.20361137  133.98800659    0.67000002    2.89000010
   18.20694542  157.69299316    0.67000002    2.91000009
   18.21000099  141.99099731    0.67000002    2.91000009
   18.21333504  146.66099548    0.67000002    2.91000009
   18.21666718  143.48599243    0.67000002    2.89000010
   18.21972275  128.92100525    0.63000000    2.91000009
   18.22305679  121.76799774    0.63000000    2.89000010
   18.22888947  121.76799774    0.63000000    2.91000009
   18.23305511  134.21400452    0.61000001    2.91000009
   18.23638916  137.84899902    0.61000001    2.91000009
   18.23944473  137.95100403    0.58999997    2.91000009
   18.24277878  148.87199402    0.61000001    2.91000009
   18.24583435  159.37199402    0.58999997    2.91000009
   18.24916649  169.63299561    0.58999997    2.91000009
   18.25250053  149.74099731    0.58999997    2.91000009
   18.25555611  179.44200134    0.58999997    2.91000009
   18.25888824  138.42700195    0.58999997    2.91000009
   18.26166725  163.44299316    0.58999997    2.91000009
   18.26250076  171.79400635    0.58999997    2.91000009
   18.26555634  162.97799683    0.58999997    2.91000009
   18.27166557  162.97799683    0.58999997    2.91000009
   18.27583313  140.21000671    0.58999997    2.91000009
   18.27916718  123.16799927    0.58999997    2.91000009
   18.28222275  123.62999725    0.61000001    2.91000009
   18.28555489  121.89399719    0.58999997    2.91000009
   18.28888893  137.18499756    0.61000001    2.89000010
   18.29194450  132.27600098    0.61000001    2.89000010
   18.29500008  124.10800171    0.61000001    2.89000010
   18.29583359  128.40800476    0.61000001    2.89000010
   18.29916573  125.13999939    0.61000001    2.91000009
   18.30222130  137.24400330    0.61000001    2.91000009
   18.30555534  136.90699768    0.63000000    2.91000009
   18.30861092  156.13800049    0.63000000    2.91000009
   18.31472206  156.13800049    0.64999998    2.91000009
   18.31861115  125.76499939    0.64999998    2.91000009
   18.32194519  143.93899536    0.67000002    2.91000009
   18.32527924  140.19599915    0.67000002    2.89000010
   18.32833481  126.54299927    0.67000002    2.89000010
   18.32888985  131.30299377    0.67000002    2.89000010
   18.33194542  119.12899780    0.69000000    2.89000010
   18.33527756  133.34700012    0.69000000    2.89000010
   18.33861160  119.42700195    0.69000000    2.89000010
   18.34166718  122.18599701    0.70999998    2.89000010
   18.34500122  118.98100281    0.70999998    2.89000010
   18.34833336  118.20300293    0.70999998    2.89000010
   18.35138893  118.00199890    0.70999998    2.91000009
   18.35750008  118.00199890    0.70999998    2.89000010
   18.36166763  116.62100220    0.70999998    2.89000010
   18.36222267  111.09300232    0.70999998    2.89000010
   18.36527824  123.68399811    0.70999998    2.89000010
   18.36861038  114.44400024    0.70999998    2.89000010
   18.37166595  127.25900269    0.73000002    2.89000010
   18.37500000  122.66300201    0.70999998    2.91000009
   18.37833405  127.71900177    0.70999998    2.89000010
   18.38138962  120.48300171    0.70999998    2.89000010
   18.38472176  117.98300171    0.73000002    2.91000009
   18.38805580  121.91000366    0.73000002    2.89000010
   18.39111137  121.56800079    0.73000002    2.89000010
   18.39444351  124.91899872    0.73000002    2.89000010
   18.39555550  124.56800079    0.73000002    2.89000010
   18.40027809  124.56800079    0.70999998    2.89000010
   18.40444374  111.60099792    0.70999998    2.89000010
   18.40777779  123.39700317    0.73000002    2.89000010
   18.41083336  124.58100128    0.73000002    2.89000010
   18.41416550  115.81199646    0.70999998    2.89000010
   18.41749954  116.30899811    0.70999998    2.89000010
   18.42055511  122.11799622    0.70999998    2.89000010
   18.42388916  129.52900696    0.70999998    2.89000010
   18.42694473  127.33100128    0.70999998    2.89000010
   18.42888832  106.98200226    0.70999998    2.89000010
   18.43055534  115.35500336    0.70999998    2.89000010
   18.43388748  123.97299957    0.70999998    2.89000010
   18.43722153   99.24469757    0.70999998    2.89000010
   18.44305420   99.24469757    0.70999998    2.89000010
   18.44722176  132.27099609    0.70999998    2.89000010
   18.45055580  132.18299866    0.70999998    2.89000010
   18.45361137  129.64500427    0.70999998    2.89000010
   18.45694542  124.13300323    0.70999998    2.91000009
   18.46027946  120.26100159    0.70999998    2.89000010
   18.46222305  136.20899963    0.70999998    2.89000010
   18.46389008  132.53700256    0.70999998    2.89000010
   18.46722221  128.85000610    0.70999998    2.89000010
   18.47055626  124.99199677    0.69000000    2.89000010
   18.47361183  121.95700073    0.69000000    2.89000010
   18.47694588  119.21099854    0.70999998    2.89000010
   18.48000145  127.03700256    0.70999998    2.89000010
   18.48583412  127.03700256    0.69000000    2.91000009
   18.48999977  121.32199860    0.69000000    2.89000010
   18.49333382  131.85499573    0.69000000    2.89000010
   18.49555588  125.20800018    0.69000000    2.89000010
   18.49694443  107.92600250    0.70999998    2.89000010
   18.50027847  122.65100098    0.70999998    2.89000010
   18.50361061  124.26399994    0.70999998    2.89000010
   18.50666618  121.51699829    0.70999998    2.86999989
   18.51000023  119.40899658    0.70999998    2.89000010
   18.51305580  124.55400085    0.70999998    2.89000010
   18.51638794  129.48300171    0.70999998    2.89000010
   18.51972198  118.60199738    0.70999998    2.91000009
   18.52277756  135.78900146    0.70999998    2.89000010
   18.52888870  135.78900146    0.70999998    2.89000010
   18.53305435  124.88600159    0.70999998    2.89000010
   18.53610992  134.77099609    0.70999998    2.89000010
   18.53944397  128.24099731    0.70999998    2.89000010
   18.54249954  133.49600220    0.70999998    2.89000010
   18.54583359  139.16999817    0.70999998    2.89000010
   18.54916573  131.86399841    0.70999998    2.89000010
   18.55222130  126.56700134    0.70999998    2.89000010
   18.55555534  127.99199677    0.70999998    2.91000009
   18.55888748  134.96499634    0.70999998    2.91000009
   18.56194305  128.24200439    0.70999998    2.86999989
   18.56250000  133.23399353    0.70999998    2.89000010
   18.56583214  135.24899292    0.70999998    2.89000010
   18.57166672  135.24899292    0.70999998    2.89000010
   18.57583427  120.89399719    0.70999998    2.89000010
   18.57916832  133.58599854    0.70999998    2.86999989
   18.58222389  114.17299652    0.70999998    2.89000010
   18.58555603  121.28099823    0.70999998    2.89000010
   18.58861160  117.95899963    0.70999998    2.89000010
   18.59194565  118.59600067    0.70999998    2.89000010
   18.59527779  125.77100372    0.73000002    2.89000010
   18.59583473  124.72000122    0.73000002    2.89000010
   18.59889030  126.26799774    0.73000002    2.89000010
   18.60194397  122.63700104    0.73000002    2.89000010
   18.60527802  128.98699951    0.73000002    2.89000010
   18.60861206  115.35900116    0.75000000    2.89000010
   18.61444473  115.35900116    0.73000002    2.89000010
   18.61861038  119.76899719    0.73000002    2.86999989
   18.62194443  118.46199799    0.73000002    2.89000010
   18.62500000  115.19000244    0.73000002    2.86999989
   18.62833405  115.06500244    0.73000002    2.89000010
   18.62916756  111.39099884    0.73000002    2.89000010
   18.63194466  128.83700562    0.73000002    2.91000009
   18.63500023  117.27100372    0.73000002    2.89000010
   18.63833237  115.40599823    0.73000002    2.91000009
   18.64166641  116.45200348    0.73000002    2.89000010
   18.64472198  119.66600037    0.73000002    2.89000010
   18.64805603  118.41699982    0.73000002    2.86999989
   18.65111160  123.89800262    0.75000000    2.86999989
   18.65722275  123.89800262    0.75000000    2.89000010
   18.66138840  119.08000183    0.73000002    2.89000010
   18.66250038  118.82499695    0.73000002    2.89000010
   18.66527748  118.86299896    0.75000000    2.89000010
   18.66833305  125.67299652    0.75000000    2.89000010
   18.67166519  111.91600037    0.75000000    2.89000010
   18.67499924  127.00599670    0.75000000    2.89000010
   18.67805481  121.58599854    0.75000000    2.89000010
   18.68138885  132.36799622    0.75000000    2.89000010
   18.68444443  122.05300140    0.75000000    2.89000010
   18.68777657  116.32599640    0.73000002    2.86999989
   18.69111061  121.90799713    0.75000000    2.89000010
   18.69416618  121.84400177    0.73000002    2.89000010
   18.69583321  118.10700226    0.73000002    2.89000010
   18.70027924  118.10700226    0.73000002    2.89000010
   18.70444489  130.18699646    0.73000002    2.89000010
   18.70750046  124.23500061    0.73000002    2.89000010
   18.71083450  116.92199707    0.73000002    2.89000010
   18.71389008  127.03299713    0.75000000    2.89000010
   18.71722221  133.45100403    0.75000000    2.89000010
   18.72055626  124.68099976    0.75000000    2.86999989
   18.72361183  133.55299377    0.75000000    2.89000010
   18.72694588  129.93499756    0.75000000    2.89000010
   18.72916794  124.41999817    0.75000000    2.89000010
   18.73055649  125.51499939    0.75000000    2.86999989
   18.73361206  126.36799622    0.75000000    2.86999989
   18.73694420  121.09899902    0.75000000    2.89000010
   18.74305534  121.09899902    0.75000000    2.89000010
   18.74722290  118.88500214    0.73000002    2.89000010
   18.75055504  120.25800323    0.75000000    2.86999989
   18.75361061  119.86799622    0.75000000    2.86999989
   18.75694466  130.96600342    0.75000000    2.89000010
   18.76027870  125.71099854    0.73000002    2.89000010
   18.76250076  127.60299683    0.73000002    2.89000010
   18.76388931  125.06300354    0.75000000    2.86999989
   18.76694489  119.61799622    0.75000000    2.86999989
   18.77027702  118.85299683    0.75000000    2.89000010
   18.77361107  122.61799622    0.75000000    2.89000010
   18.77666664  135.04800415    0.75000000    2.89000010
   18.78000069  132.61500549    0.75000000    2.89000010
   18.78583336  132.61500549    0.75000000    2.86999989
   18.78999901  125.06800079    0.76999998    2.86999989
   18.79333305  123.31900024    0.76999998    2.86999989
   18.79583359  140.50300598    0.76999998    2.86999989
   18.79694366  127.69899750    0.76999998    2.86999989
   18.79999924  124.97399902    0.76999998    2.89000010
   18.80333328  127.72499847    0.76999998    2.86999989
   18.80666542  126.86799622    0.76999998    2.86999989
   18.80972099  123.60700226    0.76999998    2.89000010
   18.81305504  125.46800232    0.76999998    2.86999989
   18.81611061  131.64300537    4.90999985    2.96000004
   18.81944466  132.50000000    4.90999985    2.96000004
   18.82277870  134.85600281    4.90999985    2.94000006
   18.82861137  134.85600281    4.90999985    2.94000006
   18.84722328  108.37699890    4.90999985    2.94000006
   18.85027885  120.39099884    4.90999985    2.94000006
   18.85361099  129.56799316    4.90999985    2.94000006
   18.85666656  133.54699707    4.90999985    2.93000007
   18.86000061  118.01000214    4.90999985    2.93000007
   18.86333466  122.08599854    4.90999985    2.94000006
   18.86638832  130.29100037    4.90999985    2.94000006
   18.87194443  130.29100037    4.90999985    2.94000006
   18.87611198  126.58799744    4.90999985    2.94000006
   18.87916756  129.64700317    4.90999985    2.94000006
   18.88027763  129.10899353    4.90999985    2.94000006
   18.88277817  122.58499908    4.90999985    2.94000006
   18.88611031  118.11799622    4.90999985    2.93000007
   18.88916588  124.94000244    4.90999985    2.94000006
   18.89249992  121.65000153    4.90999985    2.93000007
   18.89583397  129.38900757    4.90999985    2.93000007
   18.89888954  110.74099731    4.90999985    2.94000006
   18.90222168  114.43699646    4.90999985    2.93000007
   18.90555573  111.25099945    4.90999985    2.94000006
   18.90861130  119.41200256    4.90999985    2.94000006
   18.91472244  119.41200256    4.90999985    2.94000006
   18.91888809  127.16100311    4.90999985    2.93000007
   18.92194366  118.68599701    4.90999985    2.93000007
   18.92527771  121.40100098    4.90999985    2.94000006
   18.92833328  122.45099640    4.90999985    2.94000006
   18.93166542  114.41999817    4.90999985    2.93000007
   18.93499947  111.57299805    4.90999985    2.93000007
   18.93805504  107.68299866    4.90999985    2.93000007
   18.94138718  117.95800018    4.90999985    2.91000009
   18.94472122  122.15499878    4.90999985    2.93000007
   18.94694328  119.83200073    4.90999985    2.93000007
   18.94805527  123.38099670    4.90999985    2.93000007
   18.95138931  123.86100006    4.90999985    2.93000007
   18.95750046  123.86100006    4.90999985    2.93000007
   18.96166801  120.55300140    4.90999985    2.93000007
   18.96500015  131.61199951    4.90999985    2.93000007
   18.96805573  123.94100189    4.90999985    2.93000007
   18.97138977  118.19499969    4.90999985    2.93000007
   18.97444534  126.05699921    4.90999985    2.93000007
   18.97777748  123.87100220    4.90999985    2.93000007
   18.98027802  126.44300079    4.90999985    2.93000007
   18.98139000  125.70700073    4.90999985    2.93000007
   18.98472214  122.33200073    4.90999985    2.93000007
   18.98805618  133.47000122    4.90999985    2.93000007
   18.99111176  126.50099945    4.90999985    2.93000007
   18.99444389  131.22900391    4.90999985    2.91000009
   19.00027847  131.22900391    4.90999985    2.93000007
   19.00444412  125.33000183    4.90999985    2.93000007
   19.00777817  112.30799866    4.90999985    2.93000007
   19.01083374  112.52999878    4.90999985    2.91000009
   19.01361084  114.27899933    4.90999985    2.91000009
   19.01444435  132.35800171    4.90999985    2.91000009
   19.01777840  141.95199585    4.90999985    2.91000009
   19.02111053  132.95799255    4.90999985    2.91000009
   19.02416611  125.41600037    4.90999985    2.91000009
   19.02750015  113.67800140    4.90999985    2.93000007
   19.03083229  132.82200623    4.90999985    2.91000009
   19.03388786  135.88000488    4.90999985    2.91000009
   19.03722191  140.28999329    4.90999985    2.91000009
   19.04333305  140.28999329    4.90999985    2.91000009
   19.04722214  132.03999329    4.90999985    2.91000009
   19.05055428  125.99099731    4.90999985    2.91000009
   19.05388832  141.87699890    4.90999985    2.91000009
   19.05694389  130.19999695    4.90999985    2.91000009
   19.06027794  125.96199799    4.90999985    2.91000009
   19.06361008  142.01400757    4.90999985    2.89000010
   19.06666756  122.95700073    4.90999985    2.89000010
   19.07000160  122.04199982    4.90999985    2.89000010
   19.07305717  139.72000122    4.90999985    2.89000010
   19.07638931  128.69000244    4.90999985    2.89000010
   19.07972336  129.81300354    4.90999985    2.89000010
   19.08027840  120.49600220    4.90999985    2.89000010
   19.08611107  120.49600220    4.90999985    2.89000010
   19.09027863  136.79800415    4.90999985    2.89000010
   19.09333420  125.88200378    4.90999985    2.89000010
   19.09666824  127.66000366    4.90999985    2.86999989
   19.10000038  128.77099609    4.90999985    2.89000010
   19.10305595  125.95999908    4.90999985    2.86999989
   19.10639000  114.56999969    4.90999985    2.86999989
   19.10972214  138.29899597    4.90999985    2.86999989
   19.11277771  118.88099670    4.90999985    2.86999989
   19.11361122  127.33699799    4.90999985    2.86999989
   19.11638832  134.45399475    4.90999985    2.86999989
   19.11972237  121.52400208    4.90999985    2.86999989
   19.12305641  126.22399902    4.90999985    2.86999989
   19.12888908  126.22399902    4.90999985    2.89000010
   19.13305473  122.61399841    4.90999985    2.86999989
   19.13638878  112.14900208    4.90999985    2.86999989
   19.13944435  124.09500122    4.90999985    2.86999989
   19.14277840  120.42400360    4.90999985    2.86999989
   19.14583397  140.83099365    4.90999985    2.86999989
   19.14694405  131.39500427    4.90999985    2.86999989
   19.14944458  124.58399963    4.90999985    2.89000010
   19.15277672  126.44699860    4.90999985    2.86999989
   19.15611076  127.55400085    4.90999985    2.86999989
   19.15916634  135.85400391    4.90999985    2.86999989
   19.16250038  141.36300659    4.90999985    2.86999989
   19.16555595  129.72500610    4.90999985    2.86999989
   19.17166519  129.72500610    4.90999985    2.86999989
   19.17583275  123.07599640    4.90999985    2.86999989
   19.17916679  117.25099945    4.90999985    2.86999989
   19.18027687  126.76000214    4.90999985    2.86999989
   19.18277740  123.60700226    4.90999985    2.86999989
   19.18610954  129.04899597    4.90999985    2.86999989
   19.18944359  116.55599976    4.90999985    2.86999989
   19.19249916  125.41400146    4.90999985    2.86999989
   19.19583321  128.96000671    4.90999985    2.86999989
   19.19888878  132.23500061    4.90999985    2.86999989
   19.20222282  128.75199890    4.90999985    2.86999989
   19.20555687  126.01799774    4.90999985    2.86999989
   19.20861244  131.86300659    4.90999985    2.86999989
   19.21472359  131.86300659    4.90999985    2.86999989
   19.21861076  120.37200165    4.90999985    2.86999989
   19.22194481  137.72599792    4.90999985    2.86999989
   19.22527885  122.93800354    4.90999985    2.86999989
   19.22833443  119.26000214    4.90999985    2.86999989
   19.23166656  114.49900055    4.90999985    2.86999989
   19.23500061  117.72699738    4.90999985    2.86999989
   19.23805618  120.91699982    4.90999985    2.86999989
   19.24138832  122.44000244    4.90999985    2.86999989
   19.24444389  126.68399811    4.90999985    2.86999989
   19.24694443  122.17199707    4.90999985    2.86999989
   19.24805641  124.24600220    4.90999985    2.86999989
   19.25138855  121.13200378    4.90999985    2.84999990
   19.25749969  121.13200378    4.90999985    2.86999989
   19.26166725  121.26399994    4.90999985    2.86999989
   19.26472282  125.97899628    4.90999985    2.86999989
   19.26805496  121.39299774    4.90999985    2.86999989
   19.27111053  121.94599915    4.90999985    2.86999989
   19.27444458  132.99400330    4.90999985    2.86999989
   19.27777672  123.32800293    4.90999985    2.84999990
   19.28027725  126.42900085    4.90999985    2.86999989
   19.28111076  124.60500336    4.90999985    2.86999989
   19.28444481  128.85899353    4.90999985    2.84999990
   19.28777695  132.57200623    4.90999985    2.84999990
   19.29083252  123.04900360    4.90999985    2.84999990
   19.29416656  124.34600067    4.90999985    2.86999989
   19.30027771  124.34600067    4.90999985    2.84999990
   19.30444336  122.85199738    4.90999985    2.84999990
   19.30777740  125.27400208    4.90999985    2.84999990
   19.31083298  129.63600159    4.90999985    2.84999990
   19.31361008  128.38999939    4.90999985    2.86999989
   19.31444359  123.58999634    4.90999985    2.86999989
   19.31777954  119.42800140    4.90999985    2.84999990
   19.32111168  122.97399902    4.90999985    2.84999990
   19.32416725  116.13800049    4.90999985    2.84999990
   19.32750130  120.58699799    4.90999985    2.86999989
   19.33083344  121.48200226    4.90999985    2.86999989
   19.33388901  118.86900330    4.90999985    2.86999989
   19.33722305  120.05000305    4.90999985    2.86999989
   19.34305573  120.05000305    4.90999985    2.89000010
   19.34722328  121.64199829    4.90999985    2.93000007
   19.35055542  119.66699982    4.90999985    2.93000007
   19.35388947  136.96400452    4.90999985    2.93000007
   19.35694504  115.87400055    4.90999985    2.93000007
   19.36027908  121.89299774    4.90999985    2.93000007
   19.36333466  113.68000031    4.90999985    2.94000006
   19.36666679  122.78600311    4.90999985    2.96000004
   19.37000084  132.25000000    4.90999985    2.96000004
   19.37305641  119.61299896    4.90999985    2.96000004
   19.37638855  121.97000122    4.90999985    2.96000004
   19.37972260  126.06999969    4.90999985    2.98000002
   19.38027763  121.78399658    4.90999985    2.98000002
   19.38611031  121.78399658    4.90999985    3.00000000
   19.38999939  123.92400360    4.90999985    3.00000000
   19.39333344  121.03199768    4.90999985    3.00000000
   19.39666748  128.83999634    4.90999985    3.00000000
   19.39972115  132.53100586    4.90999985    3.00000000
   19.40305519  116.38400269    4.90999985    3.00000000
   19.40611076  115.19100189    4.90999985    3.00000000
   19.40944481  126.51499939    4.90999985    3.00000000
   19.41277695  121.18199921    4.84999990    3.00000000
   19.41361046  115.75499725    4.84999990    3.01999998
   19.41611099  121.83100128    4.86999989    3.00000000
   19.41944313  130.29400635    4.69999981    3.01999998
   19.42277718  121.47599792    4.71999979    3.00000000
   19.42888832  121.47599792    4.44999981    3.01999998
   19.43305397  119.77999878    4.28999996    3.01999998
   19.43610954  113.20700073    4.32999992    3.01999998
   19.43944359  121.24400330    4.15999985    3.00000000
   19.44249916  125.81300354    4.09999990    3.00000000
   19.44583321  119.83000183    3.99000001    3.00000000
   19.44694328  119.82599640    3.99000001    3.00000000
   19.44944382  121.53099823    3.78999996    3.00000000
   19.45277786  131.02400208    3.76999998    3.01999998
   19.45611191  121.25700378    3.72000003    3.00000000
   19.45916748  122.77999878    3.55999994    3.00000000
   19.46250153  121.99099731    3.55999994    3.00000000
   19.46583366  124.60299683    3.26999998    3.00000000
   19.47166634  124.60299683    2.82999992    3.01999998
   19.47583389  109.74400330    2.73000002    3.01999998
   19.47888947  120.51499939    2.40000010    3.00000000
   19.48027802  124.36599731    2.40000010    3.00000000
   19.48250008  123.05300140    2.40000010    3.00000000
   19.48583412  124.66600037    2.23000002    3.00000000
   19.48916626  127.17600250    2.21000004    3.00000000
   19.49222183  111.39499664    2.03999996    3.00000000
   19.49555588  134.95199585    1.60000002    3.00000000
   19.49888992  126.18000031    1.13000000    3.00000000
   19.50194359  118.85900116    0.83999997    3.00000000
   19.50527763  134.78799438    0.69000000    2.98000002
   19.50833321  129.28100586    0.58999997    3.00000000
   19.51444435  129.28100586    0.51999998    2.98000002
   19.51861000  117.12400055    0.50000000    2.96000004
   19.52194405  134.88099670    0.47999999    2.96000004
   19.52499962  135.29400635    0.47999999    2.94000006
   19.52833366  127.31600189    0.47999999    2.93000007
   19.53166580  136.01499939    0.46000001    2.93000007
   19.53472137  123.22299957    0.46000001    2.93000007
   19.53805542  126.79399872    0.46000001    2.91000009
   19.54111099  134.92100525    0.46000001    2.93000007
   19.54444313  127.66500092    0.44000000    2.91000009
   19.54694366  124.78399658    0.44000000    2.91000009
   19.54833221  128.98699951    0.46000001    2.91000009
   19.55138779  122.73000336    0.44000000    2.91000009
   19.55749893  122.73000336    0.44000000    2.89000010
   19.56138802  129.02699280    0.44000000    2.86999989
   19.56472206  119.56199646    0.46000001    2.89000010
   19.56805611  122.49600220    0.44000000    2.89000010
   19.57111168  123.46600342    0.44000000    2.86999989
   19.57444572  116.46399689    0.44000000    2.86999989
   19.57750130  126.20600128    0.44000000    2.86999989
   19.58027840  124.98100281    0.44000000    2.84999990
   19.58139038  121.89299774    0.44000000    2.84999990
   19.58444595  124.40100098    0.44000000    2.86999989
   19.58777809  122.62500000    0.44000000    2.84999990
   19.59083366  129.17999268    0.44000000    2.86999989
   19.59416771  137.86099243    0.44000000    2.84999990
   19.60027885  137.86099243    0.41999999    2.82999992
   19.60444450  141.74699402    0.44000000    2.82999992
   19.60750008  141.75599670    0.41999999    2.78999996
   19.61083412  146.19900513    0.41999999    2.78999996
   19.61361122  153.02099609    0.41999999    2.75000000
   19.61444473  142.31100464    0.41999999    2.76999998
   19.61750031  137.67700195    0.41999999    2.75000000
   19.62083435  126.19100189    0.40000001    2.59999990
   19.62388992  143.40400696    0.38000000    2.48000002
   19.62722206  130.88000488    0.38000000    2.36999989
   19.63055611  139.14999390    0.36000001    2.19000006
   19.63361168  123.27400208    0.36000001    2.07999992
   19.63694382  145.25999451    0.36000001    1.98000002
   19.64305496  145.25999451    0.34000000    1.64999998
   19.64722252  139.80099487    0.31999999    1.38000000
   19.65027809  121.46700287    0.31999999    1.38000000
   19.65361023  126.32099915    0.31999999    1.26999998
   19.65694427  116.09600067    0.31999999    1.11000001
   19.65999985  138.32899475    0.31999999    1.11000001
   19.66333389  124.29100037    0.31999999    1.07000005
   19.66666603  125.82399750    0.31999999    1.05999994
   19.66972160  128.89500427    0.31999999    1.03999996
   19.67305565  125.92400360    0.30000001    0.88000000
   19.67611122  119.68199921    0.30000001    0.80000001
   19.67944336  121.30699921    0.30000001    0.76999998
   19.68027687  115.62799835    0.30000001    0.76999998
   19.68583298  115.62799835    0.28000000    0.67000002
   19.68999863  118.82199860    0.28000000    0.67000002
   19.69333267  121.87699890    0.28000000    0.69000000
   19.69638824  120.62000275    0.28000000    0.70999998
   19.69972038  121.25599670    0.28000000    0.73000002
   19.70305634  122.19200134    0.28000000    0.76999998
   19.70611191  130.17399597    0.25999999    0.79000002
   19.70944595  132.64500427    0.28000000    0.80000001
   19.71277809  124.42400360    0.25999999    0.81999999
   19.71361160  122.18699646    0.28000000    0.81999999
   19.71638870  131.29600525    0.25999999    0.81999999
   19.71944427  131.47900391    0.25999999    0.81999999
   19.72277832  120.20400238    0.25999999    0.81999999
   19.72861099  120.20400238    0.25000000    0.81999999
   19.73277855  118.90799713    0.25000000    0.81999999
   19.73611069  129.08299255    0.25000000    0.81999999
   19.73944473  121.58200073    0.25000000    0.81999999
   19.74250031  120.94300079    0.23000000    0.80000001
   19.74583435  114.92500305    0.23000000    0.80000001
   19.74694443  123.37300110    0.23000000    0.80000001
   19.74944496  116.40899658    0.23000000    0.80000001
   19.75250053  129.28500366    0.23000000    0.80000001
   19.75583267  123.79100037    0.23000000    0.79000002
   19.75888824  124.73799896    0.23000000    0.79000002
   19.76222229  124.81500244    0.23000000    0.79000002
   19.76555634  117.93000031    0.20999999    0.79000002
   19.77166557  117.93000031    0.20999999    0.79000002
   19.77583313  130.03399658    0.23000000    0.79000002
   19.77888870  122.76899719    0.20999999    0.79000002
   19.78027725  136.97099304    0.20999999    0.79000002
   19.78277779  122.48999786    0.20999999    0.76999998
   19.78583336  119.88500214    0.20999999    0.76999998
   19.78916550  121.40899658    0.19000000    0.76999998
   19.79222107  127.54900360    0.19000000    0.76999998
   19.79555511  116.18699646    0.19000000    0.75000000
   19.79888916  120.81500244    0.19000000    0.75000000
   19.80194283  128.04600525    0.19000000    0.75000000
   19.80527687  118.87999725    0.19000000    0.75000000
   19.80861092  122.20600128    0.19000000    0.73000002
   19.81444359  122.20600128    0.19000000    0.73000002
   19.81861115  128.78799438    0.17000000    0.73000002
   19.82166672  122.81900024    0.17000000    0.70999998
   19.82500076  127.12200165    0.17000000    0.70999998
   19.82833481  127.00199890    0.17000000    0.69000000
   19.83139038  131.74600220    0.17000000    0.69000000
   19.83472252  118.08399963    0.17000000    0.67000002
   19.83805656  122.93599701    0.17000000    0.67000002
   19.84111214  137.76100159    0.17000000    0.67000002
   19.84444427  124.91999817    0.17000000    0.64999998
   19.84694481  132.34500122    0.15000001    0.64999998
   19.86750031  132.34500122    0.15000001    0.61000001
   19.87166595  125.40399933    0.15000001    0.58999997
   19.87500000  119.68800354    0.15000001    0.56999999
   19.87805557  126.41500092    0.15000001    0.56999999
   19.88027763  126.81300354    0.15000001    0.56999999
   19.88194466  119.37699890    0.13000000    0.56999999
   19.88500023  124.10600281    0.15000001    0.55000001
   19.88833237  124.23000336    0.13000000    0.55000001
   19.89166641  131.83900452    0.13000000    0.55000001
   19.89472198  132.53799438    0.15000001    0.55000001
   19.89805603  121.61599731    0.13000000    0.52999997
   19.90138817  125.76499939    0.13000000    0.52999997
   19.90444374  141.18699646    0.13000000    0.52999997
   19.91027832  141.18699646    0.13000000    0.51999998
   19.91444397  130.56799316    0.13000000    0.51999998
   19.91777802  129.93099976    0.13000000    0.51999998
   19.92083359  118.74900055    0.13000000    0.51999998
   19.92416573  119.25000000    0.13000000    0.51999998
   19.92749977  123.83200073    0.13000000    0.51999998
   19.93055534  123.46199799    0.13000000    0.51999998
   19.93388748  127.17700195    0.13000000    0.51999998
   19.93694305  129.49499512    0.13000000    0.51999998
   19.94027710  124.31800079    0.13000000    0.51999998
   19.94361115  127.59400177    0.13000000    0.51999998
   19.94666672  132.60400391    0.13000000    0.51999998
   19.94722176  123.58200073    0.13000000    0.51999998
   19.95305634  123.58200073    0.15000001    0.51999998
   19.95722389  133.29400635    0.15000001    0.51999998
   19.96055603  128.27600098    0.15000001    0.51999998
   19.96389008  123.91899872    0.15000001    0.51999998
   19.96694565  131.36500549    0.15000001    0.50000000
   19.97027779  129.29200745    0.15000001    0.51999998
   19.97333336  134.78599548    0.15000001    0.50000000
   19.97666740  126.63500214    0.15000001    0.51999998
   19.98000145  115.92800140    0.15000001    0.51999998
   19.98055649  111.44400024    0.15000001    0.51999998
   19.98361206  116.20300293    0.15000001    0.50000000
   19.98694420  123.90000153    0.15000001    0.50000000
   19.98999977  125.20099640    0.15000001    0.50000000
   19.99611092  125.20099640    0.15000001    0.50000000
   20.00027847  118.28299713    0.15000001    0.50000000
   20.00333405  118.65899658    0.15000001    0.50000000
   20.00666618  119.24700165    0.15000001    0.50000000
   20.00972176  119.63600159    0.15000001    0.50000000
   20.01305580  121.59200287    0.15000001    0.50000000
   20.01388931  122.81800079    0.15000001    0.50000000
   20.01666641  123.19200134    0.15000001    0.50000000
   20.02000046  117.63899994    0.15000001    0.50000000
   20.02305603  128.26600647    0.15000001    0.51999998
   20.02638817  122.67299652    0.15000001    0.51999998
   20.02944374  124.11000061    0.15000001    0.50000000
   20.03277779  121.49500275    0.15000001    0.51999998
   20.03888893  121.49500275    0.15000001    0.50000000
   20.04305458  126.53700256    0.15000001    0.50000000
   20.04611015  117.44000244    0.15000001    0.50000000
   20.04722214  120.64299774    0.15000001    0.50000000
   20.04972076  114.35099792    0.15000001    0.50000000
   20.05305481  117.83000183    0.15000001    0.50000000
   20.05611038  125.00299835    0.15000001    0.50000000
   20.05944443  116.10500336    0.15000001    0.50000000
   20.06250000  120.39499664    0.15000001    0.51999998
   20.06583214  120.13999939    0.15000001    0.51999998
   20.06916809  128.03399658    0.15000001    0.51999998
   20.07222366  118.97899628    0.15000001    0.50000000
   20.07555580  126.73899841    0.15000001    0.50000000
   20.08166695  126.73899841    0.15000001    0.50000000
   20.08583450  120.83999634    0.15000001    0.50000000
   20.08916664  123.59200287    0.15000001    0.50000000
   20.09222221  121.71099854    0.15000001    0.51999998
   20.09555626  114.99800110    0.15000001    0.51999998
   20.09889030  131.42900085    0.15000001    0.51999998
   20.10194397  122.93499756    0.15000001    0.50000000
   20.10527802  121.05000305    0.15000001    0.50000000
   20.10833359  118.51499939    0.15000001    0.50000000
   20.11166763  122.85900116    0.15000001    0.50000000
   20.11388969  121.45400238    0.13000000    0.51999998
   20.11527824  116.02200317    0.15000001    0.50000000
   20.11861038  110.14900208    0.15000001    0.50000000
   20.12444496  110.14900208    0.13000000    0.50000000
   20.12861061  120.14399719    0.15000001    0.50000000
   20.13194466  122.90899658    0.13000000    0.50000000
   20.13527679  129.15600586    0.13000000    0.51999998
   20.13833237  121.35299683    0.13000000    0.51999998
   20.14166641  115.40799713    0.15000001    0.50000000
   20.14472198  124.55599976    0.13000000    0.50000000
   20.14722252  127.69400024    0.13000000    0.50000000
   20.14861107  121.27600098    0.15000001    0.50000000
   20.15194321  115.54399872    0.15000001    0.50000000
   20.15499878  118.00700378    0.13000000    0.50000000
   20.15833282  125.98799896    0.15000001    0.50000000
   20.16138840  125.21499634    0.15000001    0.50000000
   20.16749954  125.21499634    0.13000000    0.50000000
   20.17138863  125.80000305    0.15000001    0.51999998
   20.17472076  126.31800079    0.13000000    0.50000000
   20.17805481  126.58599854    0.13000000    0.50000000
   20.18055534  123.16500092    0.15000001    0.50000000
   20.18166542  119.83300018    0.13000000    0.50000000
   20.18499947  122.50299835    0.15000001    0.50000000
   20.18805504  121.35199738    0.15000001    0.50000000
   20.19138718  124.23100281    0.15000001    0.50000000
   20.19444275  128.54699707    0.15000001    0.50000000
   20.19777679  121.60099792    0.15000001    0.50000000
   20.20111275  133.38900757    0.15000001    0.50000000
   20.20416832  131.09399414    0.15000001    0.51999998
   20.21027946  131.09399414    0.15000001    0.50000000
   20.21444511  124.95700073    0.15000001    0.50000000
   20.21750069  118.79199982    0.15000001    0.50000000
   20.22083473  139.16600037    0.15000001    0.50000000
   20.22416687  130.41799927    0.15000001    0.50000000
   20.22722244  122.10399628    0.15000001    0.50000000
   20.23055649  121.99500275    0.15000001    0.50000000
   20.23361206  128.52200317    0.15000001    0.50000000
   20.23694420  121.62200165    0.15000001    0.50000000
   20.24027824  127.05500031    0.15000001    0.50000000
   20.24333382  121.37000275    0.15000001    0.51999998
   20.24666786  128.26100159    0.15000001    0.50000000
   20.24722290  137.13499451    0.15000001    0.50000000
   20.25305557  137.13499451    0.15000001    0.50000000
   20.25722313  125.27300262    0.15000001    0.50000000
   20.26055527  128.75900269    0.15000001    0.50000000
   20.26361084  121.41300201    0.15000001    0.50000000
   20.26694489  126.87500000    0.15000001    0.50000000
   20.27000046  120.15599823    0.15000001    0.50000000
   20.27333260  130.32899475    0.15000001    0.50000000
   20.27666664  126.17400360    0.15000001    0.50000000
   20.27972221  132.79400635    0.15000001    0.50000000
   20.28055573  124.10099792    0.15000001    0.50000000
   20.28333282  122.55899811    0.15000001    0.50000000
   20.28666687  127.57599640    0.15000001    0.50000000
   20.28972244  131.84399414    0.15000001    0.50000000
   20.29611015  131.84399414    0.15000001    0.50000000
   20.29999924  124.13899994    0.15000001    0.50000000
   20.30333328  130.94299316    0.15000001    0.50000000
   20.30666542  136.60600281    0.15000001    0.50000000
   20.30972099  130.55599976    0.15000001    0.50000000
   20.31305504  129.96099854    0.15000001    0.50000000
   20.31388855  134.35400391    0.15000001    0.50000000
   20.31666756  133.72399902    0.15000001    0.50000000
   20.32000160  120.00000000    0.15000001    0.50000000
   20.32305717  123.02799988    0.15000001    0.50000000
   20.32638931  112.91100311    0.15000001    0.50000000
   20.32972336  121.49600220    0.15000001    0.50000000
   20.33277893  120.79599762    0.15000001    0.50000000
   20.33889008  120.79599762    0.15000001    0.50000000
   20.34305573  131.03100586    0.15000001    0.50000000
   20.34611130  123.81099701    0.17000000    0.50000000
   20.34722328  126.71900177    0.17000000    0.50000000
   20.34972191  121.72100067    0.17000000    0.50000000
   20.35305595  130.35299683    0.17000000    0.50000000
   20.35611153  116.27600098    0.15000001    0.50000000
   20.35944557  119.91699982    0.15000001    0.50000000
   20.36277771  117.90599823    0.15000001    0.50000000
   20.36583328  128.26199341    0.15000001    0.50000000
   20.36916733  120.93000031    0.15000001    0.50000000
   20.37222290  124.23200226    0.17000000    0.50000000
   20.37555504  120.34300232    0.15000001    0.50000000
   20.38166618  120.34300232    0.15000001    0.50000000
   20.38583374  134.10099792    0.17000000    0.50000000
   20.38888931  128.94999695    0.15000001    0.50000000
   20.39222145  132.49000549    0.17000000    0.50000000
   20.39555550  124.63500214    0.17000000    0.50000000
   20.39861107  132.57400513    0.15000001    0.50000000
   20.40194321  129.91499329    0.15000001    0.50000000
   20.40527725  133.39900208    0.15000001    0.50000000
   20.40833282  134.27400208    0.15000001    0.50000000
   20.41166687  137.57600403    0.17000000    0.50000000
   20.41388893  126.47599792    0.15000001    0.50000000
   20.41527748  125.59200287    0.15000001    0.50000000
   20.41860962  134.68099976    0.17000000    0.50000000
   20.42444420  134.68099976    0.17000000    0.50000000
   20.42860985  128.43899536    0.15000001    0.50000000
   20.43194389  129.33700562    0.15000001    0.50000000
   20.43499947  124.69599915    0.15000001    0.47999999
   20.43833160  129.52200317    0.15000001    0.50000000
   20.44166565  126.61599731    0.15000001    0.50000000
   20.44472122  122.39900208    0.17000000    0.47999999
   20.44722176  125.04100037    0.17000000    0.50000000
   20.44833183  120.13999939    0.15000001    0.50000000
   20.45166779  126.57199860    0.15000001    0.47999999
   20.45472336  133.79200745    0.15000001    0.47999999
   20.45805550  133.00500488    0.15000001    0.47999999
   20.46138954  129.81199646    0.15000001    0.47999999
   20.46722221  129.81199646    0.15000001    0.47999999
   20.47138977  136.39900208    0.15000001    0.47999999
   20.47472191  128.50000000    0.15000001    0.47999999
   20.47805595  115.58100128    0.15000001    0.47999999
   20.48055649  120.02899933    0.15000001    0.47999999
   20.48166656  124.25800323    0.15000001    0.47999999
   20.48500061  129.45799255    0.15000001    0.47999999
   20.48805618  122.87899780    0.15000001    0.47999999
   20.49138832  131.52600098    0.15000001    0.47999999
   20.49472237  133.49899292    0.15000001    0.47999999
   20.49777794  129.91900635    0.15000001    0.47999999
   20.50111198  129.90499878    0.15000001    0.47999999
   20.50416756  125.55599976    0.15000001    0.47999999
   20.51027870  125.55599976    0.15000001    0.47999999
   20.51444435  148.44299316    0.15000001    0.47999999
   20.51749992  131.07800293    0.15000001    0.47999999
   20.52083397  119.29599762    0.15000001    0.47999999
   20.52388954  125.54000092    0.15000001    0.47999999
   20.52722168  130.33200073    0.15000001    0.46000001
   20.53055573  134.15100098    0.15000001    0.46000001
   20.53361130  127.01599884    0.15000001    0.46000001
   20.53694344  132.74899292    0.15000001    0.46000001
   20.54027748  142.77200317    0.15000001    0.46000001
   20.54333305  127.37100220    0.15000001    0.46000001
   20.54666710  129.22000122    0.15000001    0.46000001
   20.54749870  122.07099915    0.15000001    0.46000001
   20.55305481  122.07099915    0.15000001    0.46000001
   20.55722237  127.44400024    0.15000001    0.46000001
   20.56027794  120.06600189    0.15000001    0.46000001
   20.56361008  139.21200562    0.15000001    0.46000001
   20.56694603  120.57199860    0.15000001    0.46000001
   20.57027817  134.52499390    0.15000001    0.46000001
   20.57333374  135.03599548    0.15000001    0.44000000
   20.57666779  122.61199951    0.15000001    0.46000001
   20.57972336  134.99200439    0.15000001    0.44000000
   20.58083344  124.90000153    0.15000001    0.46000001
   20.58333397  141.11000061    0.15000001    0.46000001
   20.58666801  125.94899750    0.15000001    0.46000001
   20.58972359  141.57400513    0.15000001    0.46000001
   20.59583473  141.57400513    0.15000001    0.44000000
   20.60000038  139.22999573    0.15000001    0.44000000
   20.60333443  141.33399963    0.15000001    0.44000000
   20.60639000  135.62100220    0.15000001    0.44000000
   20.60972214  135.61099243    0.15000001    0.44000000
   20.61305618  134.45300293    0.15000001    0.44000000
   20.61416626  133.65899658    0.15000001    0.44000000
   20.61638832  146.00100708    0.15000001    0.44000000
   20.61972237  132.32400513    0.15000001    0.44000000
   20.62277794  131.20700073    0.15000001    0.44000000
   20.62611198  127.15200043    0.15000001    0.44000000
   20.62944412  138.76400757    0.15000001    0.44000000
   20.63249969  133.27000427    0.15000001    0.44000000
   20.63888931  133.27000427    0.15000001    0.44000000
   20.64277840  140.72300720    0.15000001    0.41999999
   20.64611053  144.69999695    0.15000001    0.41999999
   20.64749908  128.50799561    0.15000001    0.41999999
   20.64972115  151.01400757    0.15000001    0.41999999
   20.65305519  141.54699707    0.15000001    0.41999999
   20.65611076  144.71499634    0.15000001    0.41999999
   20.65944481  148.84199524    0.13000000    0.40000001
   20.66277695  146.28599548    0.15000001    0.40000001
   20.66583252  141.52999878    0.15000001    0.40000001
   20.66916656  154.22799683    0.13000000    0.40000001
   20.67249870  142.18099976    0.15000001    0.40000001
   20.67555428  154.71000671    0.13000000    0.40000001
   20.68166542  154.71000671    0.15000001    0.40000001
   20.68583298  149.35299683    0.13000000    0.40000001
   20.68888855  140.66900635    0.13000000    0.40000001
   20.69222069  145.18400574    0.13000000    0.40000001
   20.69527626  146.38800049    0.15000001    0.40000001
   20.69861031  134.76300049    0.13000000    0.40000001
   20.70194435  142.08399963    0.15000001    0.40000001
   20.70499992  142.49400330    0.15000001    0.40000001
   20.70833397  147.30499268    0.15000001    0.40000001
   20.71166801  136.86300659    0.15000001    0.40000001
   20.71416664  150.06799316    0.15000001    0.40000001
   20.71500015  141.77000427    0.13000000    0.40000001
   20.71833420  136.52200317    0.15000001    0.40000001
   20.72444534  136.52200317    0.13000000    0.40000001
   20.72861099  145.22500610    0.13000000    0.40000001
   20.73166656  130.76600647    0.13000000    0.40000001
   20.73500061  133.70399475    0.15000001    0.40000001
   20.73833275  105.68499756    0.13000000    0.40000001
   20.74138832  143.55999756    0.13000000    0.40000001
   20.74472237  141.24499512    0.13000000    0.40000001
   20.74749947  163.00799561    0.15000001    0.40000001
   20.74833298  151.02400208    0.13000000    0.38000000
   20.75166702  128.20100403    0.15000001    0.38000000
   20.75472260  137.66700745    0.13000000    0.38000000
   20.75805473  132.21099854    0.13000000    0.38000000
   20.76138878  154.83200073    0.13000000    0.38000000
   20.76722145  154.83200073    0.13000000    0.38000000
   20.77138901  153.54200745    0.13000000    0.36000001
   20.77472115  132.93299866    0.13000000    0.36000001
   20.77777672  151.86999512    0.13000000    0.36000001
   20.78083229  110.09899902    0.13000000    0.36000001
   20.78138924  116.39499664    0.13000000    0.36000001
   20.78472137  146.89599609    0.13000000    0.36000001
   20.78777695  131.72399902    0.13000000    0.36000001
   20.79111099  120.19599915    0.13000000    0.34000000
   20.79444313  150.00100708    0.13000000    0.34000000
   20.79749870  149.03700256    0.13000000    0.34000000
   20.80083275  143.03999329    0.13000000    0.34000000
   20.80416679  150.66999817    0.13000000    0.34000000
   20.81027794  150.66999817    0.13000000    0.31999999
   20.81416512  141.90199280    0.13000000    0.31999999
   20.81750107  127.44400024    0.13000000    0.31999999
   20.82083511  138.94500732    0.13000000    0.31999999
   20.82389069  142.73599243    0.13000000    0.31999999
   20.82722282  139.87100220    0.13000000    0.31999999
   20.83027840  133.27400208    0.13000000    0.31999999
   20.83361244  131.95899963    0.13000000    0.31999999
   20.83694458  133.38000488    0.13000000    0.31999999
   20.84000015  131.14599609    0.13000000    0.30000001
   20.84333420  147.48500061    0.13000000    0.30000001
   20.84666824  138.77200317    0.13000000    0.30000001
   20.84749985  148.22099304    0.13000000    0.30000001
   20.85305595  148.22099304    0.13000000    0.30000001
   20.85722351  132.69700623    0.13000000    0.31999999
   20.86027908  138.81399536    0.13000000    0.30000001
   20.86361122  140.67599487    0.13000000    0.30000001
   20.88111115  134.86300659    0.13000000    0.30000001
   20.88361168  135.11000061    0.13000000    0.30000001
   20.88666725  133.62300110    0.13000000    0.30000001
   20.88999939  132.93800354    0.13000000    0.30000001
   20.89611053  132.93800354    0.13000000    0.28000000
   20.89999962  131.43800354    0.13000000    0.28000000
   20.90333366  131.58999634    0.13000000    0.28000000
   20.90666580  119.11399841    0.13000000    0.28000000
   20.90972137  132.61999512    0.13000000    0.28000000
   20.91305542  131.78599548    0.13000000    0.28000000
   20.91444397  131.10299683    0.13000000    0.25999999
   20.91694450  124.17700195    0.13000000    0.28000000
   20.92000008  130.12800598    0.13000000    0.28000000
   20.92333221  127.26799774    0.13000000    0.25999999
   20.92638779  119.94599915    0.13000000    0.25999999
   20.92972183  127.66300201    0.13000000    0.25999999
   20.93305397  131.43600464    0.11000000    0.25999999
   20.93888855  131.43600464    0.11000000    0.25999999
   20.94305420  146.63600159    0.11000000    0.25999999
   20.94610977  146.36199951    0.13000000    0.25000000
   20.94777679  159.20599365    0.13000000    0.25000000
   20.94972038  171.97500610    0.13000000    0.25000000
   20.95305634  185.02299500    0.11000000    0.25000000
   20.95639038  190.21899414    0.11000000    0.25000000
   20.95944595  214.97200012    0.11000000    0.25000000
   20.96277809  163.75300598    0.11000000    0.25000000
   20.96583366  155.42900085    0.11000000    0.25000000
   20.96916771  184.17900085    0.11000000    0.23000000
   20.97249985  190.73300171    0.11000000    0.23000000
   20.97555542  208.99200439    0.11000000    0.23000000
   20.98166656  208.99200439    0.11000000    0.23000000
   20.98583412  195.30000305    0.11000000    0.23000000
   20.98916626  180.36900330    0.11000000    0.20999999
   20.99222183  176.38099670    0.13000000    0.20999999
   20.99555588  160.15800476    0.11000000    0.20999999
   20.99861145  182.70300293    0.13000000    0.20999999
   21.00194359  143.26699829    0.11000000    0.20999999
   21.00527763  154.22700500    0.11000000    0.20999999
   21.00833321  180.72700500    0.11000000    0.20999999
   21.01166725  149.19799805    0.11000000    0.20999999
   21.01444435  152.87800598    0.11000000    0.19000000
   21.01527786  131.69999695    0.11000000    0.19000000
   21.01861000  131.96600342    0.11000000    0.19000000
   21.02444458  131.96600342    0.11000000    0.19000000
   21.02861023  129.02499390    0.11000000    0.19000000
   21.03194427  135.89700317    0.11000000    0.19000000
   21.03499985  141.76300049    0.11000000    0.11000000
   21.03833199  141.79800415    0.11000000    0.11000000
   21.04166603  137.27400208    0.11000000    0.11000000
   21.04472160  133.47999573    0.11000000    0.11000000
   21.04777718  154.33000183    0.11000000    0.11000000
   21.04833221  138.78599548    0.11000000    0.11000000
   21.05166626  138.65100098    0.11000000    0.11000000
   21.05499840  130.16299438    0.11000000    0.11000000
   21.05805397  133.60099792    0.11000000    0.11000000
   21.06138802  130.80900574    0.11000000    0.11000000
   21.06750107  130.80900574    0.11000000    0.11000000
   21.07139015  120.75299835    0.11000000    0.11000000
   21.07472229  122.17700195    0.11000000    0.11000000
   21.07805634  129.36000061    0.11000000    0.11000000
   21.08111191  132.63499451    0.11000000    0.11000000
   21.08139038  126.06999969    0.11000000    0.11000000
   21.08472252  122.19200134    0.11000000    0.11000000
   21.08805656  130.52099609    0.11000000    0.11000000
   21.09138870  134.57899475    0.11000000    0.11000000
   21.09444427  128.14300537    0.11000000    0.11000000
   21.09777832  132.11000061    0.11000000    0.11000000
   21.10083389  139.26600647    0.11000000    0.11000000
   21.10416794  133.30299377    0.11000000    0.11000000
   21.11027908  133.30299377    0.11000000    0.11000000
   21.11444473  117.37999725    0.11000000    0.11000000
   21.11472321  140.79100037    0.11000000    0.11000000
   21.11805534  117.08399963    0.11000000    0.11000000
   21.12138939  134.86300659    0.11000000    0.11000000
   21.12444496  125.93299866    0.11000000    0.11000000
   21.12777710  118.80799866    0.11000000    0.11000000
   21.13111115  129.22500610    0.11000000    0.11000000
   21.13416672  138.29699707    0.11000000    0.11000000
   21.13750076  131.30499268    0.11000000    0.11000000
   21.14055634  133.81599426    0.11000000    0.11000000
   21.14388847  126.09500122    0.11000000    0.11000000
   21.14722252  130.85600281    0.11000000    0.11000000
   21.14777756  124.82099915    0.11000000    0.11000000
   21.15305519  124.82099915    0.11000000    0.11000000
   21.15722275  127.38899994    0.11000000    0.11000000
   21.16055489  125.42299652    0.11000000    0.11000000
   21.16361046  120.45800018    0.11000000    0.11000000
   21.16694450  130.41200256    0.11000000    0.11000000
   21.17000008  135.64100647    0.11000000    0.11000000
   21.17333221  123.53299713    0.11000000    0.11000000
   21.17666626  132.28900146    0.11000000    0.11000000
   21.17972183  127.25299835    0.11000000    0.11000000
   21.18111038  120.75599670    0.11000000    0.11000000
   21.18361092  130.25399780    0.11000000    0.11000000
   21.18666649  134.00300598    0.11000000    0.11000000
   21.18999863  137.86999512    0.11000000    0.11000000
   21.19583321  137.86999512    0.11000000    0.11000000
   21.20000076  135.58599854    0.11000000    0.11000000
   21.20333481  136.30200195    0.11000000    0.11000000
   21.20639038  133.95500183    0.11000000    0.11000000
   21.20972252  147.29699707    0.11000000    0.11000000
   21.21305656  135.41999817    0.11000000    0.11000000
   21.21444511  135.79400635    0.11000000    0.11000000
   21.21666718  139.08299255    0.11000000    0.11000000
   21.21972275  138.83399963    0.11000000    0.11000000
   21.22305679  148.38999939    0.11000000    0.11000000
   21.22611237  139.98500061    0.11000000    0.11000000
   21.22944450  143.30999756    0.11000000    0.11000000
   21.23277855  141.11500549    0.11000000    0.11000000
   21.23888969  141.11500549    0.11000000    0.11000000
   21.24277878  136.91400146    0.11000000    0.11000000
   21.24611092  139.65800476    0.11000000    0.11000000
   21.24777794  147.13800049    0.11000000    0.11000000
   21.25000000  154.31300354    0.11000000    0.11000000
   21.25305557  132.03500366    0.11000000    0.11000000
   21.25638962  138.05499268    0.11000000    0.11000000
   21.25972176  143.84899902    0.11000000    0.11000000
   21.26277733  141.11300659    0.11000000    0.11000000
   21.26611137  144.27200317    0.11000000    0.11000000
   21.26916695  143.20300293    0.11000000    0.11000000
   21.27249908  146.42900085    0.11000000    0.11000000
   21.27583313  138.50000000    0.11000000    0.11000000
   21.28166580  138.50000000    0.11000000    0.11000000
   21.28583336  129.59800720    0.11000000    0.11000000
   21.28888893  136.48199463    0.11000000    0.11000000
   21.29222107  143.77200317    0.11000000    0.11000000
   21.29555511  134.67399597    0.11000000    0.11000000
   21.29861069  132.09899902    0.11000000    0.11000000
   21.30194283  114.35700226    0.11000000    0.11000000
   21.30499840  125.79900360    0.11000000    0.11000000
   21.30833244  138.20399475    0.11000000    0.11000000
   21.31166649  131.86999512    0.11000000    0.11000000
   21.31444359  128.56100464    0.11000000    0.11000000
   21.31527710  132.90299988    0.11000000    0.11000000
   21.31833458  133.21800232    0.11000000    0.11000000
   21.32444572  133.21800232    0.11000000    0.11000000
   21.32861137  138.49600220    0.11000000    0.11000000
   21.33194542  129.73300171    0.11000000    0.11000000
   21.33500099  127.53700256    0.11000000    0.11000000
   21.33833313  132.56799316    0.11000000    0.11000000
   21.34138870  131.25900269    0.11000000    0.11000000
   21.34472275  127.02500153    0.11000000    0.11000000
   21.34777832  128.43699646    0.11000000    0.11000000
   21.34861183  133.51400757    0.11000000    0.11000000
   21.35166740  131.30599976    0.11000000    0.11000000
   21.35499954  129.47500610    0.11000000    0.11000000
   21.35805511  134.34300232    0.11000000    0.11000000
   21.36138916  138.79699707    0.11000000    0.11000000
   21.36722183  138.79699707    0.11000000    0.11000000
   21.37138939  141.50000000    0.11000000    0.11000000
   21.37472153  134.85099792    0.11000000    0.11000000
   21.37777710  126.12000275    0.11000000    0.11000000
   21.38111115  122.70099640    0.11000000    0.11000000
   21.38166618  125.99400330    0.11000000    0.11000000
   21.38472176  127.91899872    0.11000000    0.11000000
   21.38805580  143.40899658    0.11000000    0.11000000
   21.39111137  140.46600342    0.11000000    0.11000000
   21.39444351  132.27299500    0.11000000    0.11000000
   21.39777756  131.13200378    0.11000000    0.11000000
   21.40083313  125.74299622    0.11000000    0.11000000
   21.40416718  140.29699707    0.11000000    0.11000000
   21.41027832  140.29699707    0.11000000    0.11000000
   21.41416550  135.01300049    0.11000000    0.11000000
   21.41472244  128.57200623    0.11000000    0.11000000
   21.41805458  122.74099731    0.11000000    0.11000000
   21.42138863  123.35900116    0.11000000    0.11000000
   21.42444420  131.94099426    0.11000000    0.11000000
   21.42777634  122.93299866    0.11000000    0.11000000
   21.43111038  128.50700378    0.11000000    0.11000000
   21.43416595  128.34300232    0.11000000    0.11000000
   21.43750000  131.80099487    0.11000000    0.11000000
   21.44083214  131.90499878    0.11000000    0.11000000
   21.44388771  129.57400513    0.11000000    0.11000000
   21.44722176  126.23500061    0.11000000    0.11000000
   21.44805527  125.65499878    0.11000000    0.11000000
   21.45305634  125.65499878    0.11000000    0.11000000
   21.45722389  138.44099426    0.11000000    0.11000000
   21.46027946  139.20899963    0.11000000    0.11000000
   21.46361160  128.60000610    0.11000000    0.11000000
   21.46694565  133.50900269    0.11000000    0.11000000
   21.47000122  139.92500305    0.11000000    0.11000000
   21.47333336  132.42999268    0.11000000    0.11000000
   21.47638893  136.16999817    0.11000000    0.11000000
   21.47972298  140.39199829    0.11000000    0.11000000
   21.48139000  146.89300537    0.11000000    0.11000000
   21.48333359  140.79299927    0.11000000    0.11000000
   21.48666763  136.01600647    0.11000000    0.11000000
   21.48972321  135.35299683    0.11000000    0.11000000
   21.49583435  135.35299683    0.11000000    0.11000000
   21.50000000  131.08500671    0.11000000    0.11000000
   21.50333405  127.29799652    0.11000000    0.11000000
   21.50638962  133.08399963    0.11000000    0.11000000
   21.50972176  135.22700500    0.11000000    0.11000000
   21.51277733  137.78799438    0.11000000    0.11000000
   21.51472282  139.42100525    0.11000000    0.11000000
   21.51666641  128.03599548    0.11000000    0.11000000
   21.52000046  130.15400696    0.11000000    0.11000000
   21.52305603  129.58599854    0.11000000    0.11000000
   21.52638817  130.89399719    0.11000000    0.11000000
   21.52972221  135.02299500    0.11000000    0.11000000
   21.53277779  125.64900208    0.11000000    0.11000000
   21.53861046  125.64900208    0.11000000    0.11000000
   21.54277802  140.63999939    0.11000000    0.11000000
   21.54611015  132.57000732    0.11000000    0.11000000
   21.54805565  136.55200195    0.11000000    0.11000000
   21.54972076  128.85899353    0.11000000    0.11000000
   21.55305481  131.88699341    0.11000000    0.11000000
   21.55611038  138.75300598    0.11000000    0.11000000
   21.55944443  135.30099487    0.11000000    0.11000000
   21.56277657  140.54299927    0.11000000    0.11000000
   21.56583214  139.13000488    0.11000000    0.11000000
   21.56916809  136.79100037    0.11000000    0.11000000
   21.57222366  141.10299683    0.11000000    0.11000000
   21.57555580  142.95100403    0.11000000    0.11000000
   21.58166695  142.95100403    0.11000000    0.11000000
   21.58555603  134.81100464    0.11000000    0.11000000
   21.58889008  124.11100006    0.11000000    0.11000000
   21.59222221  135.44999695    0.11000000    0.11000000
   21.59527779  137.30400085    0.11000000    0.11000000
   21.59861183  135.02600098    0.11000000    0.11000000
   21.60194397  140.45199585    0.11000000    0.11000000
   21.60499954  128.23100281    0.11000000    0.11000000
   21.60833359  142.22000122    0.11000000    0.11000000
   21.61138916  135.79100037    0.11000000    0.11000000
   21.61472321  138.67700195    0.11000000    0.11000000
   21.61527824  138.00999451    0.11000000    0.11000000
   21.61861038  145.34199524    0.11000000    0.11000000
   21.62444496  145.34199524    0.11000000    0.11000000
   21.62861061  138.77000427    0.11000000    0.11000000
   21.63166618  133.06900024    0.11000000    0.11000000
   21.63500023  134.05200195    0.11000000    0.11000000
   21.63805580  133.00999451    0.11000000    0.11000000
   21.64138794  136.80499268    0.11000000    0.11000000
   21.64472198  139.25500488    0.11000000    0.11000000
   21.64777756  133.74299622    0.11000000    0.11000000
   21.64861107  131.84700012    0.11000000    0.11000000
   21.65166664  133.46800232    0.11000000    0.11000000
   21.65472221  141.11399841    0.11000000    0.11000000
   21.65805435  144.28900146    0.11000000    0.11000000
   21.66110992  142.61700439    0.11000000    0.11000000
   21.66722107  142.61700439    0.11000000    0.11000000
   21.67138863  147.33900452    0.11000000    0.11000000
   21.67472076  137.30599976    0.11000000    0.11000000
   21.67777634  133.86199951    0.11000000    0.11000000
   21.68111038  137.63299561    0.11000000    0.11000000
   21.68194389  139.20599365    0.11000000    0.11000000
   21.68472099  132.44000244    0.11000000    0.11000000
   21.68777657  138.82400513    0.11000000    0.11000000
   21.69111061  148.21899414    0.11000000    0.11000000
   21.69444275  138.15800476    0.11000000    0.11000000
   21.69749832  146.69000244    0.11000000    0.11000000
   21.70083427  147.40699768    0.11000000    0.11000000
   21.70388985  149.26400757    0.11000000    0.11000000
   21.71000099  149.26400757    0.11000000    0.11000000
   21.71416664  137.63299561    0.11000000    0.11000000
   21.71527863  139.02999878    0.11000000    0.11000000
   21.71777916  134.29299927    0.11000000    0.11000000
   21.72083473  140.24600220    0.11000000    0.11000000
   21.72416687  137.84700012    0.11000000    0.11000000
   21.72722244  134.41299438    0.11000000    0.11000000
   21.73055649  156.88800049    0.11000000    0.11000000
   21.73388863  138.97200012    0.11000000    0.11000000
   21.73694420  140.81100464    0.11000000    0.11000000
   21.74027824  140.06199646    0.11000000    0.11000000
   21.74361229  144.24400330    0.11000000    0.11000000
   21.74666786  143.55999756    0.11000000    0.11000000
   21.74861145  147.07299805    0.11000000    0.11000000
   21.75277710  147.07299805    0.11000000    0.11000000
