    HOUR (UT)   FLARE FACTOR    SKY TESTER    SUN TESTER
   11.54611111   -1.00000000   -1.00000000   -1.00000000
   11.57055569  318.57998657    0.00000000    0.00000000
   11.57388878  246.02900696    0.00000000    0.00000000
   11.57722187  308.67199707    0.00000000    0.00000000
   11.58027744  353.93600464    0.00000000    0.00000000
   11.58361053  311.10598755    0.00000000    0.00000000
   11.58694458  367.48400879    0.00000000    0.00000000
   11.59083271  367.48400879    0.00000000    0.00000000
   11.59499931  276.46099854    0.00000000    0.00000000
   11.59833336  279.42001343    0.00000000    0.00000000
   11.60166740  383.85998535    0.00000000    0.00000000
   11.60361195  295.41299438    0.00000000    0.00000000
   11.60527802  293.38299561    4.90999985    2.11999989
   11.60861111  245.55299377    4.90999985    2.11999989
   11.61166668  302.32998657    4.90999985    2.11999989
   11.61500072  264.14099121    4.90999985    2.11999989
   11.61833382  301.83700562    4.90999985    2.11999989
   11.62138939  322.78500366    4.90999985    2.11999989
   11.62472248  281.83999634    4.90999985    2.11999989
   11.62777805  253.11500549    4.90999985    2.11999989
   11.63388920  253.11500549    4.90999985    2.11999989
   11.63805580  128.51300049    4.90999985    2.11999989
   11.64111137  118.75599670    4.90999985    2.11999989
   11.64444447   -1.00000000    4.90999985    2.11999989
   11.64750004   -1.00000000    4.90999985    2.11999989
   11.65083313  164.86099243    4.90999985    2.11999989
   11.65416622  352.88500977    4.90999985    2.11999989
   11.65722179  331.16500854    4.90999985    2.11999989
   11.66055489  353.36499023    4.90999985    2.11999989
   11.66388893  119.80999756    4.90999985    2.11999989
   11.66694450   76.22129822    4.90999985    2.11999989
   11.67027855   -1.00000000    4.90999985    2.11999989
   11.67666721   -1.00000000    4.90999985    2.11999989
   11.68083382  101.55000305    4.90999985    2.11999989
   11.68388939   -1.00000000    4.90999985    2.11999989
   11.68722248   90.20110321    4.90999985    2.11999989
   11.69055557  165.59500122    4.90999985    2.11999989
   11.69361115  490.66900635    4.90999985    2.11999989
   11.69555569  408.91000366    4.90999985    2.11999989
   11.69694424  415.91299438    4.90999985    2.11999989
   11.69833374  445.90100098    4.90999985    2.11999989
   11.69972229  361.31698608    4.90999985    2.11999989
   11.70111084  318.27801514    4.90999985    2.11999989
   11.70111084  101.55000305    4.90999985    2.11999989
   11.70138836   -1.00000000    4.90999985    2.11999989
   11.70138836   90.20110321    4.90999985    2.11999989
   11.70138836  165.59500122    4.90999985    2.11999989
   11.70166683  490.66900635    4.90999985    2.11999989
   11.70166683  353.36499023    4.90999985    2.11999989
   11.70166683  119.80999756    4.90999985    2.11999989
   11.70194435   76.22129822    4.90999985    2.11999989
   11.70194435   -1.00000000    4.90999985    2.11999989
   11.70249939  276.85800171    4.90999985    2.11999989
   11.70583344  340.99700928    4.90999985    2.11999989
   11.70888901  326.04501343    4.90999985    2.11999989
   11.71222210  193.66099548    4.90999985    2.11999989
   11.71555519  582.05401611    4.90999985    2.11999989
   11.71749973  417.22500610    4.90999985    2.11999989
   11.71861076  324.74499512    4.90999985    2.11999989
   11.71888828  276.85800171    4.90999985    2.11999989
   11.71888828  340.99700928    4.90999985    2.11999989
   11.71888828  326.04501343    4.90999985    2.11999989
   11.71916580  193.66099548    4.90999985    2.11999989
   11.71916580  582.05401611    4.90999985    2.11999989
   11.72027779  165.44900513    4.90999985    2.11999989
   11.72361088  157.96499634    4.90999985    2.11999989
   11.72666645  336.02099609    4.90999985    2.11999989
   11.72999954  414.54598999    4.90999985    2.11999989
   11.73194408  415.74301147    4.90999985    2.11999989
   11.73333359  357.87600708    4.90999985    2.11999989
   11.73472214  312.46301270    4.90999985    2.11999989
   11.73472214  165.44900513    4.90999985    2.11999989
   11.73500061  157.96499634    4.90999985    2.11999989
   11.73500061  336.02099609    4.90999985    2.11999989
   11.73500061  414.54598999    4.90999985    2.11999989
   11.73555565  287.22601318    4.90999985    2.11999989
   11.73888874  315.04998779    4.90999985    2.11999989
   11.74194431  257.38400269    4.90999985    2.11999989
   11.74527836  351.10900879    4.90999985    2.11999989
   11.74861145  420.70300293    4.90999985    2.11999989
   11.75055599  429.04800415    4.90999985    2.11999989
   11.75194454  306.44000244    4.90999985    2.11999989
   11.75194454  287.22601318    4.90999985    2.11999989
   11.75194454  315.04998779    4.90999985    2.11999989
   11.75222206  257.38400269    4.90999985    2.11999989
   11.75222206  351.10900879    4.90999985    2.11999989
   11.75222206  420.70300293    4.90999985    2.11999989
   11.75666714  420.70300293    4.90999985    2.11999989
   11.76055527  154.90299988    4.90999985    2.11999989
   11.76388931   89.64029694    4.90999985    2.11999989
   11.76722240   -1.00000000    4.90999985    2.11999989
   11.77027798   -1.00000000    4.90999985    2.11999989
   11.77361107   -1.00000000    4.90999985    2.11999989
   11.77666664   -1.00000000    4.90999985    2.11999989
   11.77999973   -1.00000000    4.90999985    2.11999989
   11.78305531   -1.00000000    4.90999985    2.11999989
   11.78666687   -1.00000000    4.90999985    2.11999989
   11.78972244   -1.00000000    4.90999985    2.11999989
   11.79305553   -1.00000000    4.90999985    2.11999989
   11.80333328   -1.00000000    4.90999985    2.11999989
   11.80666733   97.06809998    4.90999985    2.11999989
   11.80972195  165.11599731    4.90999985    2.11999989
   11.81305599  345.30398560    4.90999985    2.11999989
   11.81611156  151.51199341    4.90999985    2.11999989
   11.81916618   48.86180115    4.90999985    2.11999989
   11.81972218   52.19120026    4.90999985    2.11999989
   11.82305527   70.51149750    4.90999985    2.11999989
   11.82611084   88.80429840    4.90999985    2.11999989
   11.82944393   49.35800171    4.90999985    2.11999989
   11.83249950  100.16999817    4.90999985    2.11999989
   11.83583260   89.51640320    4.90999985    2.11999989
   11.84222221   89.51640320    4.90999985    2.11999989
   11.84638882   -1.00000000    4.90999985    2.11999989
   11.84944439   84.85970306    4.90999985    2.11999989
   11.85249996  110.41200256    4.90999985    2.11999989
   11.85305595  104.41699982    4.90999985    2.11999989
   11.85638905  100.49900055    4.90999985    2.11999989
   11.85944462   89.72440338    4.90999985    2.11999989
   11.86277771  229.43200684    4.90999985    2.11999989
   11.86583328  372.81900024    4.90999985    2.11999989
   11.86916637  449.46600342    4.90999985    2.11999989
   11.87111092  423.04598999    4.90999985    2.11999989
   11.87250042  411.95599365    4.90999985    2.11999989
   11.87388897  347.79699707    4.90999985    2.11999989
   11.87388897  229.43200684    4.90999985    2.11999989
   11.87416649  372.81900024    4.90999985    2.11999989
   11.87416649  449.46600342    4.90999985    2.11999989
   11.87416649   89.51640320    4.90999985    2.11999989
   11.87444496   -1.00000000    4.90999985    2.11999989
   11.87444496   84.85970306    4.90999985    2.11999989
   11.87444496  104.41699982    4.90999985    2.11999989
   11.87472248  100.49900055    4.90999985    2.11999989
   11.87472248   89.72440338    4.90999985    2.11999989
   11.87527752  343.75000000    4.90999985    2.11999989
   11.87861156  399.21301270    4.90999985    2.11999989
   11.88166714  117.59700012    4.90999985    2.11999989
   11.88500023  413.89401245    4.90999985    2.11999989
   11.88694477  351.62799072    4.90999985    2.11999989
   11.88833332  148.73300171    4.90999985    2.11999989
   11.88833332  343.75000000    4.90999985    2.11999989
   11.88861084  399.21301270    4.90999985    2.11999989
   11.88861084  117.59700012    4.90999985    2.11999989
   11.88861084  413.89401245    4.90999985    2.11999989
   11.88972187  136.63699341    4.90999985    2.11999989
   11.89305496   78.59220123    4.90999985    2.11999989
   11.89611053   83.60479736    4.90999985    2.11999989
   11.89944458   -1.00000000    4.90999985    2.11999989
   11.90277767   91.79299927    4.90999985    2.11999989
   11.90916634   91.79299927    4.90999985    2.11999989
   11.91333294   -1.00000000    4.90999985    2.11999989
   11.91638851   23.57019997    4.90999985    2.11999989
   11.91972256   -1.00000000   -1.00000000   -1.00000000
   11.92222214   64.99579620    4.90999985    2.11999989
   11.92305565   -1.00000000    4.90999985    2.11999989
   11.92638874   -1.00000000    4.90999985    2.11999989
   11.92972279   -1.00000000    4.90999985    2.11999989
   11.93277836   -1.00000000    4.90999985    2.11999989
   11.93611145   -1.00000000    4.90999985    2.11999989
   11.93916702   -1.00000000    4.90999985    2.11999989
   11.94250011   -1.00000000    4.90999985    2.11999989
   11.94555569   -1.00000000    4.90999985    2.11999989
   11.95611095   -1.00000000    4.90999985    2.11999989
   11.95916653   -1.00000000    4.90999985    2.11999989
   11.96249962   -1.00000000    4.90999985    2.11999989
   11.96555519   -1.00000000    4.90999985    2.11999989
   11.96888828   -1.00000000    4.90999985    2.11999989
   11.97194386   -1.00000000    4.90999985    2.11999989
   11.97527695   -1.00000000    4.90999985    2.11999989
   11.97833252   -1.00000000    4.90999985    2.11999989
   11.98166656   -1.00000000    4.90999985    2.11999989
   11.98500061   -1.00000000    4.90999985    2.11999989
   11.98805618   -1.00000000    4.90999985    2.11999989
   11.99888897   -1.00000000    4.90999985    2.11999989
   12.00194454   -1.00000000    4.90999985    2.11999989
   12.00527763   -1.00000000    4.90999985    2.11999989
   12.00833321   -1.00000000    4.90999985    2.11999989
   12.01166630   -1.00000000    4.90999985    2.11999989
   12.01500034   -1.00000000    4.90999985    2.11999989
   12.01805496   -1.00000000    4.90999985    2.11999989
   12.02138901   -1.00000000    4.90999985    2.11999989
   12.02472210   -1.00000000    4.90999985    2.11999989
   12.02805519   -1.00000000    4.90999985    2.11999989
   12.03111076   -1.00000000    4.90999985    2.11999989
   12.04166698   -1.00000000    4.90999985    2.11999989
   12.04500008   -1.00000000    4.90999985    2.11999989
   12.04805565   -1.00000000    4.90999985    2.11999989
   12.05138874   -1.00000000    4.90999985    2.11999989
   12.05472279   -1.00000000    4.90999985    2.11999989
   12.05805588   -1.00000000    4.90999985    2.11999989
   12.06138897   -1.00000000    4.90999985    2.11999989
   12.06444454   -1.00000000    4.90999985    2.11999989
   12.06777763   -1.00000000    4.90999985    2.11999989
   12.07111073   -1.00000000    4.90999985    2.11999989
   12.07416630   -1.00000000    4.90999985    2.11999989
   12.08444405   -1.00000000    4.90999985    2.11999989
   12.08777714   -1.00000000    4.90999985    2.11999989
   12.09111118   -1.00000000    4.90999985    2.11999989
   12.09444427   -1.00000000    4.90999985    2.11999989
   12.09749985   -1.00000000    4.90999985    2.11999989
   12.10083389   -1.00000000    4.90999985    2.11999989
   12.10416698   -1.00000000    4.90999985    2.11999989
   12.10722256   -1.00000000    4.90999985    2.11999989
   12.11055565   -1.00000000    4.90999985    2.11999989
   12.11388969   -1.00000000    4.90999985    2.11999989
   12.11694431   -1.00000000    4.90999985    2.11999989
   12.12750053   -1.00000000    4.90999985    2.11999989
   12.13055611   -1.00000000    4.90999985    2.11999989
   12.13388920   -1.00000000    4.90999985    2.11999989
   12.13694477   -1.00000000    4.90999985    2.11999989
   12.14027786   -1.00000000    4.90999985    2.11999989
   12.14361095   -1.00000000    4.90999985    2.11999989
   12.14666653   -1.00000000    4.90999985    2.11999989
   12.14999962   -1.00000000    4.90999985    2.11999989
   12.15333271   -1.00000000    4.90999985    2.11999989
   12.15666676   -1.00000000    4.90999985    2.11999989
   12.15999985   -1.00000000    4.90999985    2.11999989
   12.17027855   -1.00000000    4.90999985    2.11999989
   12.17333412   -1.00000000    4.90999985    2.11999989
   12.17666721   -1.00000000    4.90999985    2.11999989
   12.18000031   -1.00000000    4.90999985    2.11999989
   12.18305588   -1.00000000    4.90999985    2.11999989
   12.18638897   -1.00000000    4.90999985    2.11999989
   12.18972206   -1.00000000    4.90999985    2.11999989
   12.19305515   -1.00000000    4.90999985    2.11999989
   12.19638920   -1.00000000    4.90999985    2.11999989
   12.19944477   -1.00000000    4.90999985    2.11999989
   12.20277786   -1.00000000    4.90999985    2.11999989
   12.21305561   -1.00000000    4.90999985    2.11999989
   12.21638870   -1.00000000    4.90999985    2.11999989
   12.21944427   -1.00000000    4.90999985    2.11999989
   12.22305489   -1.00000000    4.90999985    2.11999989
   12.22638798   -1.00000000    4.90999985    2.11999989
   12.22972202   -1.00000000    4.90999985    2.11999989
   12.23277760   -1.00000000    4.90999985    2.11999989
   12.23611164   -1.00000000    4.90999985    2.11999989
   12.23916721   -1.00000000    4.90999985    2.11999989
   12.24250031   -1.00000000    4.90999985    2.11999989
   12.24583340   -1.00000000    4.90999985    2.11999989
   12.25583363   -1.00000000    4.90999985    2.11999989
   12.25916672   -1.00000000    4.90999985    2.11999989
   12.26249981   -1.00000000    4.90999985    2.11999989
   12.26555538   -1.00000000    4.90999985    2.11999989
   12.26888847   -1.00000000    4.90999985    2.11999989
   12.27194405   -1.00000000    4.90999985    2.11999989
   12.27527714   -1.00000000    4.90999985    2.11999989
   12.27861118   -1.00000000    4.90999985    2.11999989
   12.28166676   -1.00000000    4.90999985    2.11999989
   12.28500080   -1.00000000    4.90999985    2.11999989
   12.28833389  100.46900177    4.90999985    2.11999989
   12.28888893  112.57900238    4.90999985    2.11999989
   12.29472256  112.57900238    4.90999985    2.11999989
   12.29888916   -1.00000000    4.90999985    2.11999989
   12.30194473   -1.00000000    4.90999985    2.11999989
   12.30527782   -1.00000000    4.90999985    2.11999989
   12.30861092  118.24299622    4.90999985    2.11999989
   12.31166649   -1.00000000    4.90999985    2.11999989
   12.31500053  180.35000610    4.90999985    2.11999989
   12.31833363  137.76400757    4.90999985    2.11999989
   12.32138920  375.32000732    4.90999985    2.11999989
   12.32222176  333.58401489    4.90999985    2.11999989
   12.32527733  392.17199707    4.90999985    2.11999989
   12.32833290  363.67898560    4.90999985    2.11999989
   12.33166695  130.79899597    4.90999985    2.11999989
   12.33749962  130.79899597    4.90999985    2.11999989
   12.34166622  314.81600952    4.90999985    2.11999989
   12.34499931   98.29419708    4.90999985    2.11999989
   12.34805489   58.19359970    4.90999985    2.11999989
   12.35138893   -1.00000000    4.90999985    2.11999989
   12.35472298   -1.00000000    4.90999985    2.11999989
   12.35805607   -1.00000000    4.90999985    2.11999989
   12.36138916   -1.00000000    4.90999985    2.11999989
   12.36472225   -1.00000000    4.90999985    2.11999989
   12.36777782   -1.00000000    4.90999985    2.11999989
   12.37111092   -1.00000000    4.90999985    2.11999989
   12.37444496   -1.00000000    4.90999985    2.11999989
   12.38444424   -1.00000000    4.90999985    2.11999989
   12.38777733   -1.00000000    4.90999985    2.11999989
   12.39111137   -1.00000000    4.90999985    2.11999989
   12.39444447   -1.00000000    4.90999985    2.11999989
   12.39777756   -1.00000000    4.90999985    2.11999989
   12.40083313   -1.00000000    4.90999985    2.11999989
   12.40416622   -1.00000000    4.90999985    2.11999989
   12.40749931   -1.00000000    4.90999985    2.11999989
   12.41055489   -1.00000000    4.90999985    2.11999989
   12.41388893   -1.00000000    4.90999985    2.11999989
   12.41694450   -1.00000000    4.90999985    2.11999989
   12.42722225   -1.00000000    4.90999985    2.11999989
   12.43055630   -1.00000000    4.90999985    2.11999989
   12.43388939   -1.00000000    4.90999985    2.11999989
   12.43694496   -1.00000000    4.90999985    2.11999989
   12.44027805   -1.00000000    4.90999985    2.11999989
   12.44333363   -1.00000000    4.90999985    2.11999989
   12.44666672   -1.00000000    4.90999985    2.11999989
   12.44999981   -1.00000000    4.90999985    2.11999989
   12.45305538   -1.00000000    4.90999985    2.11999989
   12.45666695   -1.00000000    4.90999985    2.11999989
   12.46000004   -1.00000000    4.90999985    2.11999989
   12.47027779   -1.00000000    4.90999985    2.11999989
   12.47333336   -1.00000000    4.90999985    2.11999989
   12.47666645   -1.00000000    4.90999985    2.11999989
   12.47972202   -1.00000000    4.90999985    2.11999989
   12.48305511   -1.00000000    4.90999985    2.11999989
   12.48638916   -1.00000000    4.90999985    2.11999989
   12.48972225   -1.00000000    4.90999985    2.11999989
   12.49305534   -1.00000000    4.90999985    2.11999989
   12.49638939   -1.00000000    4.90999985    2.11999989
   12.49944496   -1.00000000    4.90999985    2.11999989
   12.50277805   -1.00000000    4.90999985    2.11999989
   12.51305580   -1.00000000    4.90999985    2.11999989
   12.51611137   -1.00000000    4.90999985    2.11999989
   12.51944447   -1.00000000    4.90999985    2.11999989
   12.52277756   -1.00000000    4.90999985    2.11999989
   12.52611065   -1.00000000    4.90999985    2.11999989
   12.52944374   -1.00000000    4.90999985    2.11999989
   12.53249931   -1.00000000    4.90999985    2.11999989
   12.53583336   -1.00000000    4.90999985    2.11999989
   12.53916740   -1.00000000    4.90999985    2.11999989
   12.54222298   -1.00000000    4.90999985    2.11999989
   12.54555607   -1.00000000    4.90999985    2.11999989
   12.55583382   -1.00000000    4.90999985    2.11999989
   12.55916691   -1.00000000    4.90999985    2.11999989
   12.56222248   -1.00000000    4.90999985    2.11999989
   12.56555557   -1.00000000    4.90999985    2.11999989
   12.56861115   -1.00000000    4.90999985    2.11999989
   12.58861065   -1.00000000    4.90999985    2.11999989
   12.59888840   -1.00000000    4.90999985    2.11999989
   12.60222244   -1.00000000    4.90999985    2.11999989
   12.60527802   -1.00000000    4.90999985    2.11999989
   12.60861111   -1.00000000    4.90999985    2.11999989
   12.61194515   -1.00000000    4.90999985    2.11999989
   12.61500072   -1.00000000    4.90999985    2.11999989
   12.61833382   -1.00000000    4.90999985    2.11999989
   12.62138939   -1.00000000    4.90999985    2.11999989
   12.62527752   -1.00000000    4.90999985    2.11999989
   12.62833309   -1.00000000    4.90999985    2.11999989
   12.63166714   -1.00000000    4.90999985    2.11999989
   12.64166641   -1.00000000    4.90999985    2.11999989
   12.64499950   -1.00000000    4.90999985    2.11999989
   12.64833355   -1.00000000    4.90999985    2.11999989
   12.65138817   -1.00000000    4.90999985    2.11999989
   12.65472221   -1.00000000    4.90999985    2.11999989
   12.65833282   -1.00000000    4.90999985    2.11999989
   12.66138840   -1.00000000    4.90999985    2.11999989
   12.66472149   -1.00000000    4.90999985    2.11999989
   12.66777802   -1.00000000    4.90999985    2.11999989
   12.67111111   -1.00000000    4.90999985    2.11999989
   12.67444515   -1.00000000    4.90999985    2.11999989
   12.68472195   -1.00000000    4.90999985    2.11999989
   12.68777752   -1.00000000    4.90999985    2.11999989
   12.69138908   -1.00000000    4.90999985    2.11999989
   12.69444466   -1.00000000    4.90999985    2.11999989
   12.69777775   -1.00000000    4.90999985    2.11999989
   12.70083332   -1.00000000    4.90999985    2.11999989
   12.70416641   -1.00000000    4.90999985    2.11999989
   12.70749950   -1.00000000    4.90999985    2.11999989
   12.71055508   -1.00000000    4.90999985    2.11999989
   12.71388912   -1.00000000    4.90999985    2.11999989
   12.71722221   -1.00000000    4.90999985    2.11999989
   12.72749996   -1.00000000    4.90999985    2.11999989
   12.73055553   -1.00000000    4.90999985    2.11999989
   12.73388958   -1.00000000    4.90999985    2.11999989
   12.73722267   -1.00000000    4.90999985    2.11999989
   12.74027824   -1.00000000    4.90999985    2.11999989
   12.74361134   -1.00000000    4.90999985    2.11999989
   12.74666691   -1.00000000    4.90999985    2.11999989
   12.75000000   -1.00000000    4.90999985    2.11999989
   12.75333309   -1.00000000    4.90999985    2.11999989
   12.75694466   -1.00000000    4.90999985    2.11999989
   12.76000023   -1.00000000    4.90999985    2.11999989
   12.77027798   -1.00000000    4.90999985    2.11999989
   12.77361107   -1.00000000    4.90999985    2.11999989
   12.77666664   -1.00000000    4.90999985    2.11999989
   12.77999973   -1.00000000    4.90999985    2.11999989
   12.78333378   -1.00000000    4.90999985    2.11999989
   12.78638935   -1.00000000    4.90999985    2.11999989
   12.78916740   -1.00000000   -1.00000000   -1.00000000
   12.79000092   -1.00000000    4.90999985    2.11999989
   12.79305553   -1.00000000    4.90999985    2.11999989
   12.79638958   -1.00000000    4.90999985    2.11999989
   12.79972267   -1.00000000    4.90999985    2.11999989
   12.80277824   -1.00000000    4.90999985    2.11999989
   12.81305599   -1.00000000    4.90999985    2.11999989
   12.81638908   -1.00000000    4.90999985    2.11999989
   12.81944466   -1.00000000    4.90999985    2.11999989
   12.82333374   -1.00000000    4.90999985    2.11999989
   12.82638836   -1.00000000    4.90999985    2.11999989
   12.82972240   -1.00000000    4.90999985    2.11999989
   12.83277798   -1.00000000    4.90999985    2.11999989
   12.83611107   -1.00000000    4.90999985    2.11999989
   12.83944416   -1.00000000    4.90999985    2.11999989
   12.84249973   -1.00000000    4.90999985    2.11999989
   12.84583282   -1.00000000    4.90999985    2.11999989
   12.85583401   -1.00000000    4.90999985    2.11999989
   12.85916710   -1.00000000    4.90999985    2.11999989
   12.86250019   -1.00000000    4.90999985    2.11999989
   12.86555576   -1.00000000    4.90999985    2.11999989
   12.86888885   -1.00000000    4.90999985    2.11999989
   12.87222195   -1.00000000    4.90999985    2.11999989
   12.87527752   -1.00000000    4.90999985    2.11999989
   12.87861156   -1.00000000    4.90999985    2.11999989
   12.88166714   -1.00000000    4.90999985    2.11999989
   12.88500023   -1.00000000    4.90999985    2.11999989
   12.88833332   -1.00000000    4.90999985    2.11999989
   12.89888859   -1.00000000    4.90999985    2.11999989
   12.90194416   -1.00000000    4.90999985    2.11999989
   12.90527725   -1.00000000    4.90999985    2.11999989
   12.90861034   -1.00000000    4.90999985    2.11999989
   12.91166592   -1.00000000    4.90999985    2.11999989
   12.91499996   -1.00000000    4.90999985    2.11999989
   12.91805553   -1.00000000    4.90999985    2.11999989
   12.92138958   -1.00000000    4.90999985    2.11999989
   12.92500019   -1.00000000    4.90999985    2.11999989
   12.92805576   -1.00000000    4.90999985    2.11999989
   12.93138885   -1.00000000    4.90999985    2.11999989
   12.93750000   -1.00000000    4.90999985    2.11999989
   12.94166660   -1.00000000    4.90999985    2.11999989
   12.94499969   -1.00000000    4.90999985    2.11999989
   12.94833374   -1.00000000    4.90999985    2.11999989
   12.95138836   -1.00000000    4.90999985    2.11999989
   12.95472240   -1.00000000    4.90999985    2.11999989
   12.95833302   -1.00000000    4.90999985    2.11999989
   12.96138859   -1.00000000    4.90999985    2.11999989
   12.96472168   -1.00000000    4.90999985    2.11999989
   12.96805477   -1.00000000    4.90999985    2.11999989
   12.97111034   -1.00000000    4.90999985    2.11999989
   12.97444439   -1.00000000    4.90999985    2.11999989
   12.98444462   -1.00000000    4.90999985    2.11999989
   12.98777771   -1.00000000    4.90999985    2.11999989
   12.99138927   -1.00000000    4.90999985    2.11999989
   12.99444485   -1.00000000    4.90999985    2.11999989
   12.99777794   -1.00000000    4.90999985    2.11999989
   13.00111103   -1.00000000    4.90999985    2.11999989
   13.00416660   -1.00000000    4.90999985    2.11999989
   13.00749969   -1.00000000    4.90999985    2.11999989
   13.01055527   -1.00000000    4.90999985    2.11999989
   13.01388931   -1.00000000    4.90999985    2.11999989
   13.01722240   -1.00000000    4.90999985    2.11999989
   13.02333355   -1.00000000    4.90999985    2.11999989
   13.02750015   -1.00000000    4.90999985    2.11999989
   13.03055573   -1.00000000    4.90999985    2.11999989
   13.03388977   -1.00000000    4.90999985    2.11999989
   13.03722286   -1.00000000    4.90999985    2.11999989
   13.04027843   -1.00000000    4.90999985    2.11999989
   13.04361153   -1.00000000    4.90999985    2.11999989
   13.04694462   -1.00000000    4.90999985    2.11999989
   13.05000019   -1.00000000    4.90999985    2.11999989
   13.05333328   -1.00000000    4.90999985    2.11999989
   13.05694485   -1.00000000    4.90999985    2.11999989
   13.06000042   -1.00000000    4.90999985    2.11999989
   13.06611156   -1.00000000    4.90999985    2.11999989
   13.07027817   -1.00000000    4.90999985    2.11999989
   13.07361126   -1.00000000    4.90999985    2.11999989
   13.07666683   -1.00000000    4.90999985    2.11999989
   13.07999992   -1.00000000    4.90999985    2.11999989
   13.08333302   -1.00000000    4.90999985    2.11999989
   13.08638859   -1.00000000    4.90999985    2.11999989
   13.09000015   -1.00000000    4.90999985    2.11999989
   13.09305477   -1.00000000    4.90999985    2.11999989
   13.09638882   -1.00000000    4.90999985    2.11999989
   13.09972191   -1.00000000    4.90999985    2.11999989
   13.10277843   -1.00000000    4.90999985    2.11999989
   13.10888958   -1.00000000    4.90999985    2.11999989
   13.11305618   -1.00000000    4.90999985    2.11999989
   13.11638927  110.32299805    4.90999985    2.11999989
   13.11972237  179.18800354    4.90999985    2.11999989
   13.12250042  321.97198486    4.90999985    2.11999989
   13.12333393  434.07501221    4.90999985    2.11999989
   13.12527752  365.48498535    4.90999985    2.11999989
   13.12666702  211.41700745    4.90999985    2.11999989
   13.12666702   -1.00000000    4.90999985    2.11999989
   13.12694454   -1.00000000    4.90999985    2.11999989
   13.12694454   -1.00000000    4.90999985    2.11999989
   13.12694454  110.32299805    4.90999985    2.11999989
   13.12722206  179.18800354    4.90999985    2.11999989
   13.12722206  434.07501221    4.90999985    2.11999989
   13.12722206   -1.00000000    4.90999985    2.11999989
   13.12750053   -1.00000000    4.90999985    2.11999989
   13.12750053   -1.00000000    4.90999985    2.11999989
   13.12861156  206.70500183    4.90999985    2.11999989
   13.13194466  326.45401001    4.90999985    2.11999989
   13.13500023  420.40701294    4.90999985    2.11999989
   13.13722229  352.74798584    4.90999985    2.11999989
   13.13833332  356.72799683    4.90999985    2.11999989
   13.13972187  305.21499634    4.90999985    2.11999989
   13.14000034  206.70500183    4.90999985    2.11999989
   13.14000034  326.45401001    4.90999985    2.11999989
   13.14000034  420.40701294    4.90999985    2.11999989
   13.14055538  294.22500610    4.90999985    2.11999989
   13.14388847  315.60699463    4.90999985    2.11999989
   13.14722252  235.17799377    4.90999985    2.11999989
   13.15027714  211.68299866    4.90999985    2.11999989
   13.15361118  213.91099548    4.90999985    2.11999989
   13.15694427  206.44700623    4.90999985    2.11999989
   13.16083336  206.44700623    4.90999985    2.11999989
   13.16499996  211.73100281    4.90999985    2.11999989
   13.16833401  187.07200623    4.90999985    2.11999989
   13.17166710  191.17199707    4.90999985    2.11999989
   13.17361164  170.24600220    4.90999985    2.11999989
   13.17527771  182.30299377    4.90999985    2.11999989
   13.17861176  173.56900024    4.90999985    2.11999989
   13.18166733  177.85299683    4.90999985    2.11999989
   13.18500042  181.22300720    4.90999985    2.11999989
   13.18833351  194.45100403    4.90999985    2.11999989
   13.19138908  194.67399597    4.90999985    2.11999989
   13.19472218  188.58099365    4.90999985    2.11999989
   13.19777775  183.26100159    4.90999985    2.11999989
   13.20388889  183.26100159    4.90999985    2.11999989
   13.20805550  166.08000183    4.90999985    2.11999989
   13.21111107  156.22700500    4.90999985    2.11999989
   13.21444416  159.84300232    4.90999985    2.11999989
   13.21749973  153.18800354    4.90999985    2.11999989
   13.22083282  177.16000366    4.90999985    2.11999989
   13.22416592  169.43699646    4.90999985    2.11999989
   13.22722149  168.48699951    4.90999985    2.11999989
   13.23055553  172.67599487    4.90999985    2.11999989
   13.23388958  158.89300537    4.90999985    2.11999989
   13.23694515  167.84899902    4.90999985    2.11999989
   13.24027824  174.96200562    4.90999985    2.11999989
   13.24083328  173.31900024    4.90999985    2.11999989
   13.24666691  173.31900024    4.90999985    2.11999989
   13.25083351  167.94299316    4.90999985    2.11999989
   13.25388908  170.46099854    4.90999985    2.11999989
   13.25722218  174.35699463    4.90999985    2.11999989
   13.26055527  182.67900085    4.90999985    2.11999989
   13.26361084  165.12500000    4.90999985    2.11999989
   13.26694393  178.34100342    4.90999985    2.11999989
   13.27027798  169.30999756    4.90999985    2.11999989
   13.27333355  167.64300537    4.90999985    2.11999989
   13.27416611  165.77900696    4.90999985    2.11999989
   13.27694416  152.02200317    4.90999985    2.11999989
   13.28027725  151.31900024    4.90999985    2.11999989
   13.28361130  149.15100098    4.90999985    2.11999989
   13.28944492  149.15100098    4.90999985    2.11999989
   13.29361153  156.17399597    4.90999985    2.11999989
   13.29694462  158.21299744    4.90999985    2.11999989
   13.30000019  151.14100647    4.90999985    2.11999989
   13.30333328  148.08399963    4.90999985    2.11999989
   13.30666733  159.36799622    4.90999985    2.11999989
   13.30749989  155.53700256    4.90999985    2.11999989
   13.31000042  140.35800171    4.90999985    2.11999989
   13.31333351  140.16799927    4.90999985    2.11999989
   13.31666660  148.70700073    4.90999985    2.11999989
   13.31972218  144.74099731    4.90999985    2.11999989
   13.32305527  147.94900513    4.90999985    2.11999989
   13.32638836  151.76600647    4.90999985    2.11999989
   13.33222198  151.76600647    4.90999985    2.11999989
   13.33638859  158.16400146    4.90999985    2.11999989
   13.33972168  155.30599976    4.90999985    2.11999989
   13.34083271  153.33399963    4.90999985    2.11999989
   13.34333324  163.76800537    4.90999985    2.11999989
   13.34666634  166.48599243    4.90999985    2.11999989
   13.35000038  148.15499878    4.90999985    2.11999989
   13.35305595  160.12199402    4.90999985    2.11999989
   13.35638905  157.33099365    4.90999985    2.11999989
   13.35972214  161.29400635    4.90999985    2.11999989
   13.36277771  169.17300415    4.90999985    2.11999989
   13.36611176  162.10200500    4.90999985    2.11999989
   13.36916637  164.74600220    4.90999985    2.11999989
   13.37527752  164.74600220    4.90999985    2.11999989
   13.37944412  167.77799988    4.90999985    2.11999989
   13.38249969  168.47500610    4.90999985    2.11999989
   13.38583279  163.53399658    4.90999985    2.11999989
   13.38888836  160.40899658    4.90999985    2.11999989
   13.39222240  170.78999329    4.90999985    2.11999989
   13.39555550  168.30499268    4.90999985    2.11999989
   13.39861107  163.19700623    4.90999985    2.11999989
   13.40194416  170.25300598    4.90999985    2.11999989
   13.40527725  175.35000610    4.90999985    2.11999989
   13.40749931  155.42599487    4.90999985    2.11999989
   13.40861034  157.39799500    4.90999985    2.11999989
   13.41194439  177.54299927    4.90999985    2.11999989
   13.41805553  177.54299927    4.90999985    2.11999989
   13.42222214  166.02999878    4.90999985    2.11999989
   13.42527771  166.69299316    4.90999985    2.11999989
   13.42861176  165.41299438    4.90999985    2.11999989
   13.43194485  144.01800537    4.90999985    2.11999989
   13.43500042  156.56300354    4.90999985    2.11999989
   13.43833351  161.84700012    4.90999985    2.11999989
   13.44083309  163.92799377    4.90999985    2.11999989
   13.44194412  165.85099792    4.90999985    2.11999989
   13.44527817  171.54699707    4.90999985    2.11999989
   13.44861126  171.53199768    4.90999985    2.11999989
   13.45166683  169.83500671    4.90999985    2.11999989
   13.45499992  184.13499451    4.90999985    2.11999989
   13.46083355  184.13499451    4.90999985    2.11999989
   13.46500015  183.78399658    4.90999985    2.11999989
   13.46833324  186.68699646    4.90999985    2.11999989
   13.47138882  207.80900574    4.90999985    2.11999989
   13.47416592  199.78900146    4.90999985    2.11999989
   13.47499943  205.35200500    4.90999985    2.11999989
   13.47833252  215.47500610    4.90999985    2.11999989
   13.48166656  226.61799622    4.90999985    2.11999989
   13.48472214  197.16900635    4.90999985    2.11999989
   13.48805618  207.37199402    4.90999985    2.11999989
   13.49138927  193.72000122    4.90999985    2.11999989
   13.49444485  196.07699585    4.90999985    2.11999989
   13.49777794  193.84800720    4.90999985    2.11999989
   13.50361156  193.84800720    4.90999985    2.11999989
   13.50777817  182.53900146    4.90999985    2.11999989
   13.51111126  179.96699524    4.90999985    2.11999989
   13.51444435  184.13299561    4.90999985    2.11999989
   13.51749992  187.75599670    4.90999985    2.11999989
   13.52083302  174.41000366    4.90999985    2.11999989
   13.52388859  184.05299377    4.90999985    2.11999989
   13.52722168  193.84700012    4.90999985    2.11999989
   13.53055573  184.32699585    4.90999985    2.11999989
   13.53361130  174.10499573    4.90999985    2.11999989
   13.53694534  188.16700745    4.90999985    2.11999989
   13.54027843  200.54699707    4.90999985    2.11999989
   13.54083347  189.91299438    4.90999985    2.11999989
   13.54666710  189.91299438    4.90999985    2.11999989
   13.55083370  181.31900024    4.90999985    2.11999989
   13.55388927  201.38600159    4.90999985    2.11999989
   13.55722237  186.25900269    4.90999985    2.11999989
   13.56027794  201.67199707    4.90999985    2.11999989
   13.56361103  186.83000183    4.90999985    2.11999989
   13.56694412  193.31599426    4.90999985    2.11999989
   13.57027817  192.18099976    4.90999985    2.11999989
   13.57333374  177.22099304    4.90999985    2.11999989
   13.57416630  188.95199585    4.90999985    2.11999989
   13.57722187  196.15100098    4.90999985    2.11999989
   13.58027744  198.04100037    4.90999985    2.11999989
   13.58361053  185.33900452    4.90999985    2.11999989
   13.60527802  111.18000031    4.90999985    2.11999989
   13.60555553  119.47000122    4.90999985    2.11999989
   13.60777855  179.33599854    4.90999985    2.11999989
   13.60916710  159.88000488    4.90999985    2.11999989
   13.61250019  183.34599304    4.90999985    2.11999989
   13.61583328  185.20199585    4.90999985    2.11999989
   13.61888885  175.65199280    4.90999985    2.11999989
   13.62222195  176.74800110    4.90999985    2.11999989
   13.62527752  171.23599243    4.90999985    2.11999989
   13.63222218  171.23599243    4.90999985    2.11999989
   13.63638878  168.85699463    4.90999985    2.11999989
   13.63972187  169.77000427    4.90999985    2.11999989
   13.64111137  157.55599976    4.90999985    2.11999989
   13.64305496  171.39900208    4.90999985    2.11999989
   13.64638901  161.10299683    4.90999985    2.11999989
   13.64972210  157.78300476    4.90999985    2.11999989
   13.65277767  169.11900330    4.90999985    2.11999989
   13.65611076  155.02900696    4.90999985    2.11999989
   13.65944386  173.14799500    4.90999985    2.11999989
   13.66249943  170.19900513    4.90999985    2.11999989
   13.66583252  164.43099976    4.90999985    2.11999989
   13.66888905  165.82299805    4.90999985    2.11999989
   13.67500019  165.82299805    4.90999985    2.11999989
   13.67916679  167.35299683    4.90999985    2.11999989
   13.68249989  156.42199707    4.90999985    2.11999989
   13.68583298  164.45700073    4.90999985    2.11999989
   13.68888855  164.30299377    4.90999985    2.11999989
   13.69222260  166.83500671    4.90999985    2.11999989
   13.69527817  163.19500732    4.90999985    2.11999989
   13.69861126  170.21299744    4.90999985    2.11999989
   13.70194435  153.48599243    4.90999985    2.11999989
   13.70499992  155.31300354    4.90999985    2.11999989
   13.70777798  169.22200012    4.90999985    2.11999989
   13.70861053  164.43299866    4.90999985    2.11999989
   13.71194458  161.70500183    4.90999985    2.11999989
   13.71805477  161.70500183    4.90999985    2.11999989
   13.72222137  159.21000671    4.90999985    2.11999989
   13.72527695  165.97399902    4.90999985    2.11999989
   13.72861099  161.31300354    4.90999985    2.11999989
   13.73166656  179.93800354    4.90999985    2.11999989
   13.73500061  180.01699829    4.90999985    2.11999989
   13.73833370  169.72300720    4.90999985    2.11999989
   13.74111176  170.79699707    4.90999985    2.11999989
   13.74166679  170.21099854    4.90999985    2.11999989
   13.74499989  168.35299683    4.90999985    2.11999989
   13.74833393  166.84899902    4.90999985    2.11999989
   13.75138855  176.88699341    4.90999985    2.11999989
   13.75472260  172.41799927    4.90999985    2.11999989
   13.76083374  172.41799927    4.90999985    2.11999989
   13.76500034  169.16700745    4.90999985    2.11999989
   13.76805496  172.72399902    4.90999985    2.11999989
   13.77138901  160.29299927    4.90999985    2.11999989
   13.77444458  164.17100525    4.90999985    2.11999989
   13.77499962  171.39500427    4.90999985    2.11999989
   13.77833271  163.36700439    4.90999985    2.11999989
   13.78166676  172.51100159    4.90999985    2.11999989
   13.78472233  177.78100586    4.90999985    2.11999989
   13.78805637  173.26100159    4.90999985    2.11999989
   13.79138947  163.50300598    4.90999985    2.11999989
   13.79444504  168.49299622    4.90999985    2.11999989
   13.79777813  165.88200378    4.90999985    2.11999989
   13.80361176  165.88200378    4.90999985    2.11999989
   13.80777836  160.25500488    4.90999985    2.11999989
   13.81111145  158.90199280    4.90999985    2.11999989
   13.81416702  159.25100708    4.90999985    2.11999989
   13.81750011  159.20199585    4.90999985    2.11999989
   13.82083321  183.02200317    4.90999985    2.11999989
   13.82388878  196.99000549    4.90999985    2.11999989
   13.82722187  201.41900635    4.90999985    2.11999989
   13.83055592  203.40400696    4.90999985    2.11999989
   13.83361053  213.37300110    4.90999985    2.11999989
   13.83694458  187.48300171    4.90999985    2.11999989
   13.84000015  175.32000732    4.90999985    2.11999989
   13.84111118  185.56799316    4.90999985    2.11999989
   13.84638882  185.56799316    4.90999985    2.11999989
   13.85055637  219.13999939    4.90999985    2.11999989
   13.85388947  192.08799744    4.90999985    2.11999989
   13.85694504  196.46800232    4.90999985    2.11999989
   13.86027813  215.93499756    4.90999985    2.11999989
   13.86361122  196.01499939    4.90999985    2.11999989
   13.86666679  170.41299438    4.90999985    2.11999989
   13.86999989  166.19799805    4.90999985    2.11999989
   13.87333393  163.92100525    4.90999985    2.11999989
   13.87444496  164.93400574    4.90999985    2.11999989
   13.87694454  161.83500671    4.90999985    2.11999989
   13.88000011  166.15699768    4.90999985    2.11999989
   13.88333321  158.28799438    4.90999985    2.11999989
   13.88944435  158.28799438    4.90999985    2.11999989
   13.89333344  168.89700317    4.90999985    2.11999989
   13.89666653  161.78199768    4.90999985    2.11999989
   13.89999962  156.50199890    4.90999985    2.11999989
   13.90305519  152.78300476    4.90999985    2.11999989
   13.90638828  155.46200562    4.90999985    2.11999989
   13.90777779  155.45899963    4.90999985    2.11999989
   13.90999985  154.37199402    4.90999985    2.11999989
   13.91305542  151.42900085    4.90999985    2.11999989
   13.91638851  151.51100159    4.90999985    2.11999989
   13.91972256  155.98100281    4.90999985    2.11999989
   13.92277813  159.02299500    4.90999985    2.11999989
   13.92611122  161.85600281    4.90999985    2.11999989
   13.93222237  161.85600281    4.90999985    2.11999989
   13.93638897  158.57899475    4.90999985    2.11999989
   13.93944454  157.84100342    4.90999985    2.11999989
   13.94111156  166.73800659    4.90999985    2.11999989
   13.94333363  153.56599426    4.90999985    2.11999989
   13.94638920  152.87199402    4.90999985    2.11999989
   13.94972229  156.08500671    4.90999985    2.11999989
   13.95305538  147.89500427    4.90999985    2.11999989
   13.95611095  156.21800232    4.90999985    2.11999989
   13.95944405  160.72599792    4.90999985    2.11999989
   13.96249962  171.43499756    4.90999985    2.11999989
   13.96583271  174.30799866    4.90999985    2.11999989
   13.96916580  172.53399658    4.90999985    2.11999989
   13.97499943  172.53399658    4.90999985    2.11999989
   13.97916603  162.56799316    4.90999985    2.11999989
   13.98249912  157.87899780    4.90999985    2.11999989
   13.98555565  160.16299438    4.90999985    2.11999989
   13.98888874  157.82000732    4.90999985    2.11999989
   13.99194431  148.46600342    4.90999985    2.11999989
   13.99527836  151.71899414    4.90999985    2.11999989
   13.99861145  158.61900330    4.90999985    2.11999989
   14.00166702  152.86700439    4.90999985    2.11999989
   14.00500011  133.49299622    4.90999985    2.11999989
   14.00777817  156.01199341    4.90999985    2.11999989
   14.00861073  153.65100098    4.90999985    2.11999989
   14.01166630  152.79600525    4.90999985    2.11999989
   14.01777744  152.79600525    4.90999985    2.11999989
   14.02194405  163.13699341    4.90999985    2.11999989
   14.02527714  159.07000732    4.90999985    2.11999989
   14.02833271  170.44000244    4.90999985    2.11999989
   14.03166676  170.12399292    4.90999985    2.11999989
   14.03500080  160.45199585    4.90999985    2.11999989
   14.03805637  155.56300354    4.90999985    2.11999989
   14.04111195  155.09599304    4.90999985    2.11999989
   14.04194450  162.84500122    4.90999985    2.11999989
   14.04500008  174.24000549    4.90999985    2.11999989
   14.04833412  163.75100708    4.90999985    2.11999989
   14.05166721  160.19799805    4.90999985    2.11999989
   14.05472279  157.49600220    4.90999985    2.11999989
   14.06083393  157.49600220    4.90999985    2.11999989
   14.06472206  160.66499329    4.90999985    2.11999989
   14.06805515  154.88699341    4.90999985    2.11999989
   14.07138920  156.02600098    4.90999985    2.11999989
   14.07444477  160.26100159    4.90999985    2.11999989
   14.07499981  154.67599487    4.90999985    2.11999989
   14.07833290  158.91600037    4.90999985    2.11999989
   14.08138847  155.08399963    4.90999985    2.11999989
   14.08472157  155.60400391    4.90999985    2.11999989
   14.08777714  155.91200256    4.90999985    2.11999989
   14.09111118  159.69900513    4.90999985    2.11999989
   14.09444427  153.78799438    4.90999985    2.11999989
   14.09749985  160.80299377    4.90999985    2.11999989
   14.10361195  160.80299377    4.90999985    2.11999989
   14.10777855  157.46000671    4.90999985    2.11999989
   14.10833359  163.08799744    4.90999985    2.11999989
   14.11138916  151.16299438    4.90999985    2.11999989
   14.11472225  156.97900391    4.90999985    2.11999989
   14.11805534  162.98500061    4.90999985    2.11999989
   14.12111092  157.70300293    4.90999985    2.11999989
   14.12444496  161.71600342    4.90999985    2.11999989
   14.12750053  153.30099487    4.90999985    2.11999989
   14.13083363  150.21699524    4.90999985    2.11999989
   14.13416672  159.92300415    4.90999985    2.11999989
   14.13722229  157.58500671    4.90999985    2.11999989
   14.14055538  169.55299377    4.90999985    2.11999989
   14.14166641  160.47999573    4.90999985    2.11999989
   14.14638901  160.47999573    4.90999985    2.11999989
   14.15055561  148.73699951    4.90999985    2.11999989
   14.15388870  162.45199585    4.90999985    2.11999989
   14.15694427  160.32099915    4.90999985    2.11999989
   14.16027737  159.92100525    4.90999985    2.11999989
   14.16361046  157.01199341    4.90999985    2.11999989
   14.16666698  150.81799316    4.90999985    2.11999989
   14.17000008  148.60400391    4.90999985    2.11999989
   14.17305565  153.91999817    4.90999985    2.11999989
   14.17500019  153.57099915    4.90999985    2.11999989
   14.17666721  152.66200256    4.90999985    2.11999989
   14.18000031  163.08200073    4.90999985    2.11999989
   14.18333340  152.27799988    4.90999985    2.11999989
   14.18916702  152.27799988    4.90999985    2.11999989
   14.19333363  160.31199646    4.90999985    2.11999989
   14.19666672  151.80000305    4.90999985    2.11999989
   14.19972229  151.21000671    4.90999985    2.11999989
   14.20305538  155.28100586    4.90999985    2.11999989
   14.20638847  150.09599304    4.90999985    2.11999989
   14.20833302  155.88299561    4.90999985    2.11999989
   14.20972157  153.08999634    4.90999985    2.11999989
   14.21305561  147.95700073    4.90999985    2.11999989
   14.21638870  155.89199829    4.90999985    2.11999989
   14.21944427  154.08399963    4.90999985    2.11999989
   14.22277737  147.14599609    4.90999985    2.11999989
   14.22583294  140.53100586    4.90999985    2.11999989
   14.23222160  140.53100586    4.90999985    2.11999989
   14.23611164  145.42300415    4.90999985    2.11999989
   14.23944473  151.21800232    4.90999985    2.11999989
   14.24166679  149.08999634    4.90999985    2.11999989
   14.24305534  146.02900696    4.90999985    2.11999989
   14.24638939  157.38800049    4.90999985    2.11999989
   14.24972248  144.94599915    4.90999985    2.11999989
   14.25277805  154.07800293    4.90999985    2.11999989
   14.25611115  154.00100708    4.90999985    2.11999989
   14.25944424  153.19799805    4.90999985    2.11999989
   14.26249981  155.65899658    4.90999985    2.11999989
   14.26583290  155.25900269    4.90999985    2.11999989
   14.26916599  163.26699829    4.90999985    2.11999989
   14.27499962  163.26699829    4.90999985    2.11999989
   14.27916622  156.40800476    4.90999985    2.11999989
   14.28222179  160.53199768    4.90999985    2.11999989
   14.28555584  161.17700195    4.90999985    2.11999989
   14.28888893  149.99800110    4.90999985    2.11999989
   14.29194450  157.35000610    4.90999985    2.11999989
   14.29527855  164.58799744    4.90999985    2.11999989
   14.29833412  148.08999634    4.90999985    2.11999989
   14.30166721  154.16000366    4.90999985    2.11999989
   14.30500031  150.80200195    4.90999985    2.11999989
   14.30833340  149.54200745    4.90999985    2.11999989
   14.31000042  154.48599243    4.90999985    2.11999989
   14.31194496  152.08799744    4.90999985    2.11999989
   14.31777763  152.08799744    4.90999985    2.11999989
   14.32194424  152.83500671    4.90999985    2.11999989
   14.32527733  151.96899414    4.90999985    2.11999989
   14.32833290  158.20899963    4.90999985    2.11999989
   14.33166695  153.13499451    4.90999985    2.11999989
   14.33472157  159.75000000    4.90999985    2.11999989
   14.33805561  151.41600037    4.90999985    2.11999989
   14.34138870  155.05499268    4.90999985    2.11999989
   14.34333324  158.93400574    4.90999985    2.11999989
   14.34499931  161.68600464    4.90999985    2.11999989
   14.34805489  147.86099243    4.90999985    2.11999989
   14.35138893  145.93299866    4.90999985    2.11999989
   14.35472298  156.25500488    4.90999985    2.11999989
   14.36055565  156.25500488    4.90999985    2.11999989
   14.36472225  160.63900757    4.90999985    2.11999989
   14.36805534  163.07699585    4.90999985    2.11999989
   14.37111092  153.09199524    4.90999985    2.11999989
   14.37444496  155.60299683    4.90999985    2.11999989
   14.37694454  152.28199768    4.90999985    2.11999989
   14.37805557  156.26600647    4.90999985    2.11999989
   14.38138866  153.97099304    4.90999985    2.11999989
   14.38472176  166.73100281    4.90999985    2.11999989
   14.38777733  161.59100342    4.90999985    2.11999989
   14.39111137  163.26899719    4.90999985    2.11999989
   14.39444447  167.52999878    4.90999985    2.11999989
   14.39750004  157.93299866    4.90999985    2.11999989
   14.40361118  157.93299866    4.90999985    2.11999989
   14.40749931  159.20700073    4.90999985    2.11999989
   14.41027737  144.32699585    4.90999985    2.11999989
   14.41111088  155.76800537    4.90999985    2.11999989
   14.41444397  150.50900269    4.90999985    2.11999989
   14.41777802  152.40600586    4.90999985    2.11999989
   14.42083359  145.84800720    4.90999985    2.11999989
   14.42416668  154.03700256    4.90999985    2.11999989
   14.42750072  153.58200073    4.90999985    2.11999989
   14.43055630  148.46499634    4.90999985    2.11999989
   14.43388939  152.99099731    4.90999985    2.11999989
   14.43694496  155.96099854    4.90999985    2.11999989
   14.44027805  150.99699402    4.90999985    2.11999989
   14.44638920  150.99699402    4.90999985    2.11999989
   14.45055580  160.94299316    4.90999985    2.11999989
   14.45361137  162.62300110    4.90999985    2.11999989
   14.45694447  156.70199585    4.90999985    2.11999989
   14.46027756  165.63099670    4.90999985    2.11999989
   14.46333313  157.62500000    4.90999985    2.11999989
   14.46666622  150.30599976    4.90999985    2.11999989
   14.46972179  158.11599731    4.90999985    2.11999989
   14.47305489  155.62300110    4.90999985    2.11999989
   14.47638798  143.31199646    4.90999985    2.11999989
   14.47722149  157.67799377    4.90999985    2.11999989
   14.47999954  152.52799988    4.90999985    2.11999989
   14.48305511  135.86099243    4.90999985    2.11999989
   14.48916721  135.86099243    4.90999985    2.11999989
   14.49333382  157.50199890    4.90999985    2.11999989
   14.49666691  140.85800171    4.90999985    2.11999989
   14.49972248  149.74800110    4.90999985    2.11999989
   14.50305557  148.71099854    4.90999985    2.11999989
   14.50611115  158.91900635    4.90999985    2.11999989
   14.50944424  154.84300232    4.90999985    2.11999989
   14.51055527  148.92900085    4.90999985    2.11999989
   14.51305580  147.39500427    4.90999985    2.11999989
   14.51611137  164.15199280    4.90999985    2.11999989
   14.51944447  149.19299316    4.90999985    2.11999989
   14.52250004  147.78900146    4.90999985    2.11999989
   14.52583313  154.13999939    4.90999985    2.11999989
   14.53194427  154.13999939    4.90999985    2.11999989
   14.53611183  151.49699402    4.90999985    2.11999989
   14.53944492  158.96800232    4.90999985    2.11999989
   14.54250050  172.49099731    4.90999985    2.11999989
   14.54416752  175.60400391    4.90999985    2.11999989
   14.54638958  164.58399963    4.90999985    2.11999989
   14.54944515  159.11399841    4.90999985    2.11999989
   14.55277824  160.26899719    4.90999985    2.11999989
   14.55583382  163.23399353    4.90999985    2.11999989
   14.55916691  166.77000427    4.90999985    2.11999989
   14.56250000  159.50599670    4.90999985    2.11999989
   14.56555557  141.56900024    4.90999985    2.11999989
   14.56888866  176.51100159    4.90999985    2.11999989
   14.57499981  176.51100159    4.90999985    2.11999989
   14.57888889  162.54200745    4.90999985    2.11999989
   14.58222198  157.31199646    4.90999985    2.11999989
   14.58555508  156.37199402    4.90999985    2.11999989
   14.58861065  150.03900146    4.90999985    2.11999989
   14.59194374  168.59700012    4.90999985    2.11999989
   14.59499931  172.15899658    4.90999985    2.11999989
   14.59833336  164.04100037    4.90999985    2.11999989
   14.60166740  152.63099670    4.90999985    2.11999989
   14.60472298  161.19900513    4.90999985    2.11999989
   14.62222195  151.75999451    4.90999985    2.11999989
   14.62638855  151.75999451    4.90999985    2.11999989
   14.63055611  161.68899536    4.90999985    2.11999989
   14.63361073  165.16099548    4.90999985    2.11999989
   14.63694477  178.35299683    4.90999985    2.11999989
   14.64000034  167.87800598    4.90999985    2.11999989
   14.64333344  168.80099487    4.90999985    2.11999989
   14.64666653  176.85600281    4.90999985    2.11999989
   14.64972210  177.05700684    4.90999985    2.11999989
   14.65305519  153.77200317    4.90999985    2.11999989
   14.65527725  164.52499390    4.90999985    2.11999989
   14.65666676  165.42100525    4.90999985    2.11999989
   14.65999985  163.86000061    4.90999985    2.11999989
   14.66305542  162.65899658    4.90999985    2.11999989
   14.66916656  162.65899658    4.90999985    2.11999989
   14.67333412  176.01199341    4.90999985    2.11999989
   14.67638874  155.00100708    4.90999985    2.11999989
   14.67972279  173.04200745    4.90999985    2.11999989
   14.68305588  164.83500671    4.90999985    2.11999989
   14.68611145  162.24699402    4.90999985    2.11999989
   14.68861103  161.82200623    4.90999985    2.11999989
   14.68972206  163.44299316    4.90999985    2.11999989
   14.69305515  160.92500305    4.90999985    2.11999989
   14.69611073  167.08399963    4.90999985    2.11999989
   14.69944477  157.38200378    4.90999985    2.11999989
   14.70249939  167.89900208    4.90999985    2.11999989
   14.70583344  168.12600708    4.90999985    2.11999989
   14.71194458  168.12600708    4.90999985    2.11999989
   14.71611118  164.02699280    4.90999985    2.11999989
   14.71944427  150.38699341    4.90999985    2.11999989
   14.72194386  159.90600586    4.90999985    2.11999989
   14.72305489  160.65600586    4.90999985    2.11999989
   14.72638798  168.00900269    4.90999985    2.11999989
   14.72944355  171.97700500    4.90999985    2.11999989
   14.73277760  175.50000000    4.90999985    2.11999989
   14.73583317  176.39700317    4.90999985    2.11999989
   14.73916721  159.91700745    4.90999985    2.11999989
   14.74250031  172.57000732    4.90999985    2.11999989
   14.74555588  172.78700256    4.90999985    2.11999989
   14.74888897  164.00300598    4.90999985    2.11999989
   14.75472260  164.00300598    4.90999985    2.11999989
   14.75888920  168.95199585    4.90999985    2.11999989
   14.76222229  158.49000549    4.90999985    2.11999989
   14.76555538  154.92199707    4.90999985    2.11999989
   14.76861095  156.39599609    4.90999985    2.11999989
   14.77194405  160.21299744    4.90999985    2.11999989
   14.77499962  155.43800354    4.90999985    2.11999989
   14.77833271  164.66999817    4.90999985    2.11999989
   14.78166676  162.26699829    4.90999985    2.11999989
   14.78472233  157.72099304    4.90999985    2.11999989
   14.78805637  147.08099365    4.90999985    2.11999989
   14.79000092  149.22300720    4.90999985    2.11999989
   14.79166698  143.00500488    4.90999985    2.11999989
   14.79777813  143.00500488    4.90999985    2.11999989
   14.80194473  164.64500427    4.90999985    2.11999989
   14.80500031  155.32099915    4.90999985    2.11999989
   14.80833340  150.37699890    4.90999985    2.11999989
   14.81138897  147.71299744    4.90999985    2.11999989
   14.81472206  159.73399353    4.90999985    2.11999989
   14.81805515  150.27099609    4.90999985    2.11999989
   14.82111073  149.41700745    4.90999985    2.11999989
   14.82333374  153.47999573    4.90999985    2.11999989
   14.82472229  152.65499878    4.90999985    2.11999989
   14.82805538  159.48300171    4.90999985    2.11999989
   14.83138847  143.64700317    4.90999985    2.11999989
   14.83444405  159.19799805    4.90999985    2.11999989
   14.84055519  159.19799805    4.90999985    2.11999989
   14.84472179  156.30900574    4.90999985    2.11999989
   14.84777737  159.58099365    4.90999985    2.11999989
   14.85111141  157.50900269    4.90999985    2.11999989
   14.85444450  150.27000427    4.90999985    2.11999989
   14.85666752  155.83599854    4.90999985    2.11999989
   14.85805607  151.65899658    4.90999985    2.11999989
   14.86138916  159.35899353    4.90999985    2.11999989
   14.86444473  148.74400330    4.90999985    2.11999989
   14.86777782  151.89100647    4.90999985    2.11999989
   14.87083340  148.26800537    4.90999985    2.11999989
   14.87416649  158.62199402    4.90999985    2.11999989
   14.87750053  152.71000671    4.90999985    2.11999989
   14.88333321  152.71000671    4.90999985    2.11999989
   14.88749981  162.44999695    4.90999985    2.11999989
   14.89000034  154.65800476    4.90999985    2.11999989
   14.89111137  160.71499634    4.90999985    2.11999989
   14.89416695  151.58900452    4.90999985    2.11999989
   14.89750004  150.09199524    4.90999985    2.11999989
   14.90083313  152.72900391    4.90999985    2.11999989
   14.90388870  153.04899597    4.90999985    2.11999989
   14.90722179  147.23599243    4.90999985    2.11999989
   14.91055489  151.11199951    4.90999985    2.11999989
   14.91361046  154.77499390    4.90999985    2.11999989
   14.91694450  150.64599609    4.90999985    2.11999989
   14.92000008  154.49800110    4.90999985    2.11999989
   14.92611122  154.49800110    4.90999985    2.11999989
   14.93027782  151.97500610    4.90999985    2.11999989
   14.93361092  144.44700623    4.90999985    2.11999989
   14.93694496  144.00100708    4.90999985    2.11999989
   14.94000053  162.38900757    4.90999985    2.11999989
   14.94333363  151.38600159    4.90999985    2.11999989
   14.94666672  149.16999817    4.90999985    2.11999989
   14.94972229  162.61999512    4.90999985    2.11999989
   14.95305538  147.02400208    4.90999985    2.11999989
   14.95611095  148.63099670    4.90999985    2.11999989
   14.95722198  153.86000061    4.90999985    2.11999989
   14.95972157  147.21699524    4.90999985    2.11999989
   14.96305561  157.11900330    4.90999985    2.11999989
   14.96916580  157.11900330    4.90999985    2.11999989
   14.97305489  161.85099792    4.90999985    2.11999989
   14.97638798  150.61399841    4.90999985    2.11999989
   14.97972202  151.60299683    4.90999985    2.11999989
   14.98277760  147.62100220    4.90999985    2.11999989
   14.98611164  151.16200256    4.90999985    2.11999989
   14.98944473  143.97999573    4.90999985    2.11999989
   14.99055576  154.75700378    4.90999985    2.11999989
   14.99277782  150.05799866    4.90999985    2.11999989
   14.99611092  145.83700562    4.90999985    2.11999989
   14.99916649  152.43400574    4.90999985    2.11999989
   15.00249958  150.66799927    4.90999985    2.11999989
   15.00583363  152.05000305    4.90999985    2.11999989
   15.01194477  152.05000305    4.90999985    2.11999989
   15.01611137  127.02400208    4.90999985    2.11999989
   15.01916599  147.40800476    4.90999985    2.11999989
   15.02250004  143.02200317    4.90999985    2.11999989
   15.02388859  147.30999756    4.90999985    2.11999989
   15.02611065  145.27099609    4.90999985    2.11999989
   15.02944374  145.28799438    4.90999985    2.11999989
   15.03249931  142.31100464    4.90999985    2.11999989
   15.03583336  145.47099304    4.90999985    2.11999989
   15.03916740  147.42399597    4.90999985    2.11999989
   15.04222298  155.80900574    4.90999985    2.11999989
   15.04555607  148.97300720    4.90999985    2.11999989
   15.04861164  151.92199707    4.90999985    2.11999989
   15.05472279  151.92199707    4.90999985    2.11999989
   15.05888939  143.32899475    4.90999985    2.11999989
   15.06222248  148.01400757    4.90999985    2.11999989
   15.06527805  135.97500610    4.90999985    2.11999989
   15.06861115  150.73500061    4.90999985    2.11999989
   15.07194424  155.38600159    4.90999985    2.11999989
   15.07499981  141.87399292    4.90999985    2.11999989
   15.07833290  142.55700684    4.90999985    2.11999989
   15.08166695  145.53300476    4.90999985    2.11999989
   15.08472157  152.01499939    4.90999985    2.11999989
   15.08805561  151.43899536    4.90999985    2.11999989
   15.09055519  155.62699890    4.90999985    2.11999989
   15.09166622  152.62899780    4.90999985    2.11999989
   15.09749985  152.62899780    4.90999985    2.11999989
   15.10166740  146.05999756    4.90999985    2.11999989
   15.10500050  154.48399353    4.90999985    2.11999989
   15.10805607  154.58000183    4.90999985    2.11999989
   15.11138916  143.53399658    4.90999985    2.11999989
   15.11472225  151.54400635    4.90999985    2.11999989
   15.11777782  145.60699463    4.90999985    2.11999989
   15.12111092  156.15899658    4.90999985    2.11999989
   15.12388897  155.00900269    4.90999985    2.11999989
   15.12472248  153.69500732    4.90999985    2.11999989
   15.12805557  146.15800476    4.90999985    2.11999989
   15.13111115  147.88999939    4.90999985    2.11999989
   15.13444424  153.48800659    4.90999985    2.11999989
   15.14055538  153.48800659    4.90999985    2.11999989
   15.14444447  153.72399902    4.90999985    2.11999989
   15.14777756  152.32499695    4.90999985    2.11999989
   15.15111065  145.64100647    4.90999985    2.11999989
   15.15416622  143.76199341    4.90999985    2.11999989
   15.15722179  137.42100525    4.90999985    2.11999989
   15.25777817   -1.00000000   -1.00000000   -1.00000000
   15.36361122   -1.00000000   -1.00000000   -1.00000000
   15.47138882   -1.00000000   -1.00000000   -1.00000000
   15.52472210  166.86399841    4.90999985    2.11999989
   15.52777767  169.76400757    4.90999985    2.11999989
   15.53111076  185.83900452    4.90999985    2.11999989
   15.53444481  167.31500244    4.90999985    2.11999989
   15.53750038  166.65100098    4.90999985    2.11999989
   15.54083347  163.87500000    4.90999985    2.11999989
   15.54500008  163.87500000    4.90999985    2.11999989
   15.54916668  178.36599731    4.90999985    2.11999989
   15.55222225  159.11300659    4.90999985    2.11999989
   15.55555534  173.23199463    4.90999985    2.11999989
   15.55805588  162.14700317    4.90999985    2.11999989
   15.55916691  164.87300110    4.90999985    2.11999989
   15.56250000  176.82099915    4.90999985    2.11999989
   15.56555557  171.94500732    4.90999985    2.11999989
   15.56888866  156.33700562    4.90999985    2.11999989
   15.57222176  169.46400452    4.90999985    2.11999989
   15.57527733  176.46400452    4.90999985    2.11999989
   15.57861137  168.53999329    4.90999985    2.11999989
   15.58194447  178.19500732    4.90999985    2.11999989
   15.58777714  178.19500732    4.90999985    2.11999989
   15.59194374  170.17900085    4.90999985    2.11999989
   15.59527779  178.70500183    4.90999985    2.11999989
   15.59833336  164.32499695    4.90999985    2.11999989
   15.60166740  169.85899353    4.90999985    2.11999989
   15.60472298  165.68800354    4.90999985    2.11999989
   15.60805607  166.48599243    4.90999985    2.11999989
   15.61138916  178.58700562    4.90999985    2.11999989
   15.61444473  174.21299744    4.90999985    2.11999989
   15.61777782  172.56599426    4.90999985    2.11999989
   15.62111092  183.01699829    4.90999985    2.11999989
   15.62416649  168.52299500    4.90999985    2.11999989
   15.62472248  167.60600281    4.90999985    2.11999989
   15.63055611  167.60600281    4.90999985    2.11999989
   15.63472176  174.69500732    4.90999985    2.11999989
   15.63805580  164.41700745    4.90999985    2.11999989
   15.64111137  170.67100525    4.90999985    2.11999989
   15.64444447  167.99000549    4.90999985    2.11999989
   15.64777756  162.60099792    4.90999985    2.11999989
   15.65083313  170.44500732    4.90999985    2.11999989
   15.65416622  165.91400146    4.90999985    2.11999989
   15.65749931  173.62600708    4.90999985    2.11999989
   15.65805531  164.05200195    4.90999985    2.11999989
   15.66111088  159.88600159    4.90999985    2.11999989
   15.66444397  164.75100708    4.90999985    2.11999989
   15.66750050  160.29600525    4.90999985    2.11999989
   15.67361164  160.29600525    4.90999985    2.11999989
   15.67750072  168.13999939    4.90999985    2.11999989
   15.68083382  156.02299500    4.90999985    2.11999989
   15.68416691  165.21600342    4.90999985    2.11999989
   15.68722248  156.77400208    4.90999985    2.11999989
   15.69055557  165.81500244    4.90999985    2.11999989
   15.69138908  161.12800598    4.90999985    2.11999989
   15.69416714  165.11999512    4.90999985    2.11999989
   15.69722271  167.47999573    4.90999985    2.11999989
   15.70055580  161.28300476    4.90999985    2.11999989
   15.70388889  169.36099243    4.90999985    2.11999989
   15.70694447  167.39900208    4.90999985    2.11999989
   15.71027756  167.05999756    4.90999985    2.11999989
   15.71638870  167.05999756    4.90999985    2.11999989
   15.72055531  167.42100525    4.90999985    2.11999989
   15.72361088  147.14999390    4.90999985    2.11999989
   15.72499943  161.60000610    4.90999985    2.11999989
   15.72749996  154.28399658    4.90999985    2.11999989
   15.73083305  167.64700317    4.90999985    2.11999989
   15.73416710  169.84199524    4.90999985    2.11999989
   15.73722267  175.49299622    4.90999985    2.11999989
   15.74055576  168.58999634    4.90999985    2.11999989
   15.74388885  175.70500183    4.90999985    2.11999989
   15.74694443  169.46299744    4.90999985    2.11999989
   15.75027752  156.13600159    4.90999985    2.11999989
   15.75333309  175.06100464    4.90999985    2.11999989
   15.75916672  175.06100464    4.90999985    2.11999989
   15.76333332  157.02000427    4.90999985    2.11999989
   15.76666641  164.99400330    4.90999985    2.11999989
   15.76972198  170.35299683    4.90999985    2.11999989
   15.77305508  162.57600403    4.90999985    2.11999989
   15.77611065  156.28100586    4.90999985    2.11999989
   15.77944374  165.42100525    4.90999985    2.11999989
   15.78277779  169.12199402    4.90999985    2.11999989
   15.78583336  158.41400146    4.90999985    2.11999989
   15.78916740  170.76100159    4.90999985    2.11999989
   15.79138947  156.48199463    4.90999985    2.11999989
   15.79277802  154.47900391    4.90999985    2.11999989
   15.79611111  160.80000305    4.90999985    2.11999989
   15.80194473  160.80000305    4.90999985    2.11999989
   15.80611134  167.90600586    4.90999985    2.11999989
   15.80944443  164.06399536    4.90999985    2.11999989
   15.81250000  161.96000671    4.90999985    2.11999989
   15.81583309  175.07699585    4.90999985    2.11999989
   15.81916618  166.59599304    4.90999985    2.11999989
   15.82222176  167.39999390    4.90999985    2.11999989
   15.82472229  158.35499573    4.90999985    2.11999989
   15.82611084  165.85200500    4.90999985    2.11999989
   15.82944393  175.82099915    4.90999985    2.11999989
   15.83249950  161.88699341    4.90999985    2.11999989
   15.83583260  165.28199768    4.90999985    2.11999989
   15.83888817  160.78199768    4.90999985    2.11999989
   15.84499931  160.78199768    4.90999985    2.11999989
   15.84888840  160.86799622    4.90999985    2.11999989
   15.85222244  152.20599365    4.90999985    2.11999989
   15.85555553  153.90699768    4.90999985    2.11999989
   15.85805607  156.09800720    4.90999985    2.11999989
   15.85916710  143.19400024    4.90999985    2.11999989
   15.86250019  155.48100281    4.90999985    2.11999989
   15.86555576  170.69000244    4.90999985    2.11999989
   15.86888885  158.14799500    4.90999985    2.11999989
   15.87194443  164.82000732    4.90999985    2.11999989
   15.87527752  165.24600220    4.90999985    2.11999989
   15.87861156  175.01699829    4.90999985    2.11999989
   15.88166714  156.34100342    4.90999985    2.11999989
   15.88777733  156.34100342    4.90999985    2.11999989
   15.89194393  170.50799561    4.90999985    2.11999989
   15.89499950  159.75900269    4.90999985    2.11999989
   15.89833355  160.73500061    4.90999985    2.11999989
   15.90166664  158.41999817    4.90999985    2.11999989
   15.90472221  161.85800171    4.90999985    2.11999989
   15.90805531  157.56399536    4.90999985    2.11999989
   15.91111088  163.90699768    4.90999985    2.11999989
   15.91444397  162.14599609    4.90999985    2.11999989
   15.91777802  155.20899963    4.90999985    2.11999989
   15.92083359  164.71600342    4.90999985    2.11999989
   15.92416668  172.61000061    4.90999985    2.11999989
   15.92472267  162.66200256    4.90999985    2.11999989
   15.93055630  162.66200256    4.90999985    2.11999989
   15.93472195  168.26800537    4.90999985    2.11999989
   15.93805599  164.91799927    4.90999985    2.11999989
   15.94138908  157.93200684    4.90999985    2.11999989
   15.94444466  156.86599731    4.90999985    2.11999989
   15.94777775  158.04899597    4.90999985    2.11999989
   15.95111084  153.76400757    4.90999985    2.11999989
   15.95416641  166.91000366    4.90999985    2.11999989
   15.95749950  159.24899292    4.90999985    2.11999989
   15.95805550  159.49000549    4.90999985    2.11999989
   15.96111107  156.89300537    4.90999985    2.11999989
   15.96444416  154.98300171    4.90999985    2.11999989
   15.96749973  162.73699951    4.90999985    2.11999989
   15.97333336  162.73699951    4.90999985    2.11999989
   15.97749996  157.31500244    4.90999985    2.11999989
   15.98083305  161.91999817    4.90999985    2.11999989
   15.98388958  154.02600098    4.90999985    2.11999989
   15.98722267  158.92300415    4.90999985    2.11999989
   15.99055576  153.66200256    4.90999985    2.11999989
   15.99138927  157.79100037    4.90999985    2.11999989
   15.99416733  156.23899841    4.90999985    2.11999989
   15.99750042  162.82600403    4.90999985    2.11999989
   16.00055504  167.38900757    4.90999985    2.11999989
   16.00388908  165.08399963    4.90999985    2.11999989
   16.00694466  160.85200500    4.90999985    2.11999989
   16.01027870  169.34800720    4.90999985    2.11999989
   16.01638794  169.34800720    4.90999985    2.11999989
   16.02027702  172.89999390    4.90999985    2.11999989
   16.02361107  173.80400085    4.90999985    2.11999989
   16.02472115  162.69599915    4.90999985    2.11999989
   16.02722168  183.69099426    4.90999985    2.11999989
   16.03055573  179.82499695    4.90999985    2.11999989
   16.03361130  177.02799988    4.90999985    2.11999989
   16.03694344  188.76600647    4.90999985    2.11999989
   16.03999901  204.63800049    4.90999985    2.11999989
   16.04333305  186.12199402    4.90999985    2.11999989
   16.04666710  190.62699890    4.90999985    2.11999989
   16.04972076  180.31900024    4.90999985    2.11999989
   16.05305481  195.91000366    4.90999985    2.11999989
   16.05916595  195.91000366    4.90999985    2.11999989
   16.06333351  187.83500671    4.90999985    2.11999989
   16.06638718  205.79400635    4.90999985    2.11999989
   16.06972313  193.51899719    4.90999985    2.11999989
   16.07305717  188.26199341    4.90999985    2.11999989
   16.07611275  183.99299622    4.90999985    2.11999989
   16.07944489  190.55900574    4.90999985    2.11999989
   16.08250046  194.19099426    4.90999985    2.11999989
   16.08611107  202.94200134    4.90999985    2.11999989
   16.08916664  211.77499390    4.90999985    2.11999989
   16.09138870  216.93499756    4.90999985    2.11999989
   16.09277916  216.51600647    4.90999985    2.11999989
   16.09611130  219.72700500    4.90999985    2.11999989
   16.10194397  219.72700500    4.90999985    2.11999989
   16.10611153  236.99600220    4.90999985    2.11999989
   16.10944557  212.36500549    4.90999985    2.11999989
   16.11250114  197.37800598    4.90999985    2.11999989
   16.11583328  227.86999512    4.90999985    2.11999989
   16.11916733  205.39700317    4.90999985    2.11999989
   16.12222290  225.85200500    4.90999985    2.11999989
   16.12472153  221.43099976    4.90999985    2.11999989
   16.12611198  197.50999451    4.90999985    2.11999989
   16.12944412  198.56900024    4.90999985    2.11999989
   16.13249969  219.92500305    4.90999985    2.11999989
   16.13583374  220.28999329    4.90999985    2.11999989
   16.13916588  203.03500366    4.90999985    2.11999989
   16.14472198  203.03500366    4.90999985    2.11999989
   16.14888954  240.80000305    4.90999985    2.11999989
   16.15222168  185.92399597    4.90999985    2.11999989
   16.15527725  225.98699951    4.90999985    2.11999989
   16.15805435  226.11500549    4.90999985    2.11999989
   16.15916634  206.82499695    4.90999985    2.11999989
   16.16250038  247.21000671    4.90999985    2.11999989
   16.16555595  209.82400513    4.90999985    2.11999989
   16.16888809  227.15600586    4.90999985    2.11999989
   16.17222214  236.13499451    4.90999985    2.11999989
   16.17527771  227.58099365    4.90999985    2.11999989
   16.17860985  204.90100098    4.90999985    2.11999989
   16.18166542  208.88900757    4.90999985    2.11999989
   16.18777657  208.88900757    4.90999985    2.11999989
   16.19166565  179.65600586    4.90999985    2.11999989
   16.19499969  214.52099609    4.90999985    2.11999989
   16.19833183  195.40600586    4.90999985    2.11999989
   16.20138931  201.81100464    4.90999985    2.11999989
   16.20472336  224.30299377    4.90999985    2.11999989
   16.20805550  187.95500183    4.90999985    2.11999989
   16.21111107  208.04200745    4.90999985    2.11999989
   16.21444511  217.28999329    4.90999985    2.11999989
   16.21750069  210.09199524    4.90999985    2.11999989
   16.22083473  230.99299622    4.90999985    2.11999989
   16.22416687  199.48500061    4.90999985    2.11999989
   16.22472191  200.78799438    4.90999985    2.11999989
   16.23055649  200.78799438    4.90999985    2.11999989
   16.23472214  209.04200745    4.90999985    2.11999989
   16.23777771  205.34300232    4.90999985    2.11999989
   16.24111176  227.27299500    4.90999985    2.11999989
   16.24444389  221.99800110    4.90999985    2.11999989
   16.24749947  180.89599609    4.90999985    2.11999989
   16.25083351  214.67999268    4.90999985    2.11999989
   16.25416756  199.94099426    4.90999985    2.11999989
   16.25722313  189.50100708    4.90999985    2.11999989
   16.25833321  191.96400452    4.90999985    2.11999989
   16.26083374  170.17700195    4.90999985    2.11999989
   16.26416588  208.66999817    4.90999985    2.11999989
   16.26722145  174.86999512    4.90999985    2.11999989
   16.27333260  174.86999512    4.90999985    2.11999989
   16.27750015  208.98500061    4.90999985    2.11999989
   16.28083229  205.69500732    4.90999985    2.11999989
   16.28416634  197.27499390    4.90999985    2.11999989
   16.28722191  198.17399597    4.90999985    2.11999989
   16.29055595  208.59700012    4.90999985    2.11999989
   16.29138756  239.59599304    4.90999985    2.11999989
   16.29416656  193.51100159    4.90999985    2.11999989
   16.29749870  202.98300171    4.90999985    2.11999989
   16.30055428  203.91799927    4.90999985    2.11999989
   16.30388832  223.14999390    4.90999985    2.11999989
   16.30722237  198.84399414    4.90999985    2.11999989
   16.31027794  193.48399353    4.90999985    2.11999989
   16.31611061  193.48399353    4.90999985    2.11999989
   16.32027817  197.29800415    4.90999985    2.11999989
   16.32361221  206.29400635    4.90999985    2.11999989
   16.32500076  204.55999756    4.90999985    2.11999989
   16.32722282  196.87399292    4.90999985    2.11999989
   16.33055687  203.02400208    4.90999985    2.11999989
   16.33361244  180.83599854    4.90999985    2.11999989
   16.33694458  191.43200684    4.90999985    2.11999989
   16.34027863  207.78599548    4.90999985    2.11999989
   16.34333420  185.99800110    4.90999985    2.11999989
   16.34666824  194.89999390    4.90999985    2.11999989
   16.35000038  198.37100220    4.90999985    2.11999989
   16.35305595  184.22599792    4.90999985    2.11999989
   16.35916710  184.22599792    4.90999985    2.11999989
   16.36305618  197.61500549    4.90999985    2.11999989
   16.36638832  196.75999451    4.90999985    2.11999989
   16.36972237  201.83900452    4.90999985    2.11999989
   16.37277794  201.72000122    4.90999985    2.11999989
   16.37611198  195.99600220    4.90999985    2.11999989
   16.37916756  206.44400024    4.90999985    2.11999989
   16.38249969  187.60600281    4.90999985    2.11999989
   16.38583374  177.24600220    4.90999985    2.11999989
   16.38888931  185.99499512    4.90999985    2.11999989
   16.39166641  184.19999695    4.90999985    2.11999989
   16.39249992  184.00900269    4.90999985    2.11999989
   16.39583397  202.89900208    4.90999985    2.11999989
   16.40194321  202.89900208    4.90999985    2.11999989
   16.40611076  197.00199890    4.90999985    2.11999989
   16.40916634  179.36700439    4.90999985    2.11999989
   16.41250038  195.79400635    4.90999985    2.11999989
   16.41583252  194.03999329    4.90999985    2.11999989
   16.41888809  188.44900513    4.90999985    2.11999989
   16.42222214  166.47300720    4.90999985    2.11999989
   16.42499924  191.97300720    4.90999985    2.11999989
   16.42583275  186.30700684    4.90999985    2.11999989
   16.42916679  182.33299255    4.90999985    2.11999989
   16.43222237  191.10099792    4.90999985    2.11999989
   16.43555450  188.62199402    4.90999985    2.11999989
   16.43888855  191.92100525    4.90999985    2.11999989
   16.44472122  191.92100525    4.90999985    2.11999989
   16.44888878  185.80999756    4.90999985    2.11999989
   16.45222282  184.58500671    4.90999985    2.11999989
   16.45527840  196.19400024    4.90999985    2.11999989
   16.45833397  171.69099426    4.90999985    2.11999989
   16.45888901  190.25399780    4.90999985    2.11999989
   16.46222305  185.56300354    4.90999985    2.11999989
   16.46527863  172.64700317    4.90999985    2.11999989
   16.46861076  206.22700500    4.90999985    2.11999989
   16.47194481  198.28100586    4.90999985    2.11999989
   16.47500038  176.40600586    4.90999985    2.11999989
   16.47833443  185.16900635    4.90999985    2.11999989
   16.48166656  193.66099548    4.90999985    2.11999989
   16.48750114  193.66099548    4.90999985    2.11999989
   16.49166679  187.05000305    4.90999985    2.11999989
   16.49500084  157.44400024    4.90999985    2.11999989
   16.49833298  175.32099915    4.90999985    2.11999989
   16.50138855  186.86199951    4.90999985    2.11999989
   16.50472260  185.88699341    4.90999985    2.11999989
   16.50805473  165.94000244    4.90999985    2.11999989
   16.51111031  171.90600586    4.90999985    2.11999989
   16.51444435  167.22000122    4.90999985    2.11999989
   16.51777840  161.60200500    4.90999985    2.11999989
   16.52083397  184.79899597    4.90999985    2.11999989
   16.52416611  187.57499695    4.90999985    2.11999989
   16.52499962  179.39700317    4.90999985    2.11999989
   16.54555511  179.39700317    4.90999985    2.11999989
   16.54972076  166.92999268    4.90999985    2.11999989
   16.55305481  156.64300537    4.90999985    2.11999989
   16.55611038  167.03599548    4.90999985    2.11999989
   16.55833244  156.41799927    4.90999985    2.11999989
   16.55972099  177.67300415    4.90999985    2.11999989
   16.56305504  161.22000122    4.90999985    2.11999989
   16.56638718  173.28100586    4.90999985    2.11999989
   16.56944466  162.49899292    4.90999985    2.11999989
   16.57277870  161.52200317    4.90999985    2.11999989
   16.57583427  162.92900085    4.90999985    2.11999989
   16.57916832  159.76899719    4.90999985    2.11999989
   16.58250046  178.55599976    4.90999985    2.11999989
   16.58833313  178.55599976    4.90999985    2.11999989
   16.59250069  165.81399536    4.90999985    2.11999989
   16.59583473  153.61799622    4.90999985    2.11999989
   16.59889030  162.53599548    4.90999985    2.11999989
   16.60222244  159.50599670    4.90999985    2.11999989
   16.60555649  184.29699707    4.90999985    2.11999989
   16.60861206  171.98800659    4.90999985    2.11999989
   16.61194420  156.08700562    4.90999985    2.11999989
   16.61527824  149.91499329    4.90999985    2.11999989
   16.61833382  154.12899780    4.90999985    2.11999989
   16.62166595  153.25700378    4.90999985    2.11999989
   16.62500000  147.79899597    4.90999985    2.11999989
   16.62527847  151.76199341    4.90999985    2.11999989
   16.63111115  151.76199341    4.90999985    2.11999989
   16.63527679  159.10800171    4.90999985    2.11999989
   16.63861084  165.58799744    4.90999985    2.11999989
   16.64166641  162.63499451    4.90999985    2.11999989
   16.64500046  167.90800476    4.90999985    2.11999989
   16.64833260  159.52600098    4.90999985    2.11999989
   16.65138817  136.74200439    4.90999985    2.11999989
   16.65472221  153.23300171    4.90999985    2.11999989
   16.65777779  154.58099365    4.90999985    2.11999989
   16.65833282  157.16499329    4.90999985    2.11999989
   16.66166687  156.59500122    4.90999985    2.11999989
   16.66499901  153.56399536    4.90999985    2.11999989
   16.66805458  157.79600525    4.90999985    2.11999989
   16.67388916  157.79600525    4.90999985    2.11999989
   16.67805481  156.69700623    4.90999985    2.11999989
   16.68138885  164.69799805    4.90999985    2.11999989
   16.68472099  146.27799988    4.90999985    2.11999989
   16.68777657  156.02999878    4.90999985    2.11999989
   16.69111061  154.56700134    4.90999985    2.11999989
   16.69166565  151.64199829    4.90999985    2.11999989
   16.69472122  165.12699890    4.90999985    2.11999989
   16.69805527  155.67100525    4.90999985    2.11999989
   16.70111275  165.69500732    4.90999985    2.11999989
   16.70444489  158.40800476    4.90999985    2.11999989
   16.70777893  157.98300171    4.90999985    2.11999989
   16.71083450  158.30200195    4.90999985    2.11999989
   16.71694565  158.30200195    4.90999985    2.11999989
   16.72111130  148.80200195    4.90999985    2.11999989
   16.72416687  151.56599426    4.90999985    2.11999989
   16.72500038  153.27200317    4.90999985    2.11999989
   16.72777748  157.04499817    4.90999985    2.11999989
   16.73111153  149.94000244    4.90999985    2.11999989
   16.73416710  146.16000366    4.90999985    2.11999989
   16.73750114  143.54200745    4.90999985    2.11999989
   16.74083328  142.80200195    4.90999985    2.11999989
   16.74388885  152.44900513    4.90999985    2.11999989
   16.74722290  156.76100159    4.90999985    2.11999989
   16.75055504  156.74600220    4.90999985    2.11999989
   16.75361061  153.51199341    4.90999985    2.11999989
   16.75972176  153.51199341    4.90999985    2.11999989
   16.76388931  151.85299683    4.90999985    2.11999989
   16.76694489  155.72099304    4.90999985    2.11999989
   16.77027702  148.26499939    4.90999985    2.11999989
   16.77361107  146.37399292    4.90999985    2.11999989
   16.77666664  153.66099548    4.90999985    2.11999989
   16.78000069  154.88400269    4.90999985    2.11999989
   16.78333282  148.75300598    4.90999985    2.11999989
   16.78638840  144.92199707    4.90999985    2.11999989
   16.78972244  142.33500671    4.90999985    2.11999989
   16.79166603  148.73100281    4.90999985    2.11999989
   16.79333305  156.24200439    4.90999985    2.11999989
   16.79666710  152.49899292    4.90999985    2.11999989
   16.80249977  152.49899292    4.90999985    2.11999989
   16.80666542  146.33200073    4.90999985    2.11999989
   16.80999947  151.35600281    4.90999985    2.11999989
   16.81305504  151.93899536    4.90999985    2.11999989
   16.81638718  148.78599548    4.90999985    2.11999989
   16.81972313  145.13699341    4.90999985    2.11999989
   16.82277870  152.09500122    4.90999985    2.11999989
   16.82500076  148.80700684    4.90999985    2.11999989
   16.82638931  148.70599365    4.90999985    2.11999989
   16.82972336  143.87300110    4.90999985    2.11999989
   16.83277893  151.06399536    4.90999985    2.11999989
   16.83611107  149.79899597    4.90999985    2.11999989
   16.83944511  151.39900208    4.90999985    2.11999989
   16.84527779  151.39900208    4.90999985    2.11999989
   16.84944534  187.00599670    4.90999985    2.11999989
   16.85277748  174.00300598    4.90999985    2.11999989
   16.85611153  155.58000183    4.90999985    2.11999989
   16.85833359  151.11300659    4.90999985    2.11999989
   16.85972214  156.27799988    4.90999985    2.11999989
   16.86305618  155.13499451    4.90999985    2.11999989
   16.86611176  162.44299316    4.90999985    2.11999989
   16.86944389  149.14700317    4.90999985    2.11999989
   16.87277794  159.38400269    4.90999985    2.11999989
   16.87583351  161.98699951    4.90999985    2.11999989
   16.87916756  152.98100281    4.90999985    2.11999989
   16.88249969  156.78799438    4.90999985    2.11999989
   16.88833237  156.78799438    4.90999985    2.11999989
   16.89249992  145.67999268    4.90999985    2.11999989
   16.89555550  158.30599976    4.90999985    2.11999989
   16.89888954  152.30499268    4.90999985    2.11999989
   16.90194321  151.02600098    4.90999985    2.11999989
   16.90527725  156.38800049    4.90999985    2.11999989
   16.90861130  148.75100708    4.90999985    2.11999989
   16.91166687  140.76800537    4.90999985    2.11999989
   16.91499901  152.80799866    4.90999985    2.11999989
   16.91833305  144.45599365    4.90999985    2.11999989
   16.92138863  156.24699402    4.90999985    2.11999989
   16.92472076  147.41700745    4.90999985    2.11999989
   16.92527771  142.00599670    4.90999985    2.11999989
   16.93111038  142.00599670    4.90999985    2.11999989
   16.93527603  147.00399780    4.90999985    2.11999989
   16.93833160  140.88400269    4.90999985    2.11999989
   16.94166565  152.37699890    4.90999985    2.11999989
   16.94499969  145.14100647    4.90999985    2.11999989
   16.94805527  145.73599243    4.90999985    2.11999989
   16.95138931  153.74899292    4.90999985    2.11999989
   16.95472336  150.82499695    4.90999985    2.11999989
   16.95777893  145.64300537    4.90999985    2.11999989
   16.95861244  145.20300293    4.90999985    2.11999989
   16.96138954  140.61399841    4.90999985    2.11999989
   16.96472359  145.75399780    4.90999985    2.11999989
   16.96805573  152.42900085    4.90999985    2.11999989
   16.97389030  152.42900085    4.90999985    2.11999989
   16.97805595  146.84899902    4.90999985    2.11999989
   16.98139000  157.14799500    4.90999985    2.11999989
   16.98444557  142.93299866    4.90999985    2.11999989
   16.98777771  153.61900330    4.90999985    2.11999989
   16.99111176  143.34100342    4.90999985    2.11999989
   16.99194527  150.08900452    4.90999985    2.11999989
   16.99444389  147.66400146    4.90999985    2.11999989
   16.99777794  146.49899292    4.90999985    2.11999989
   17.00111198  146.99200439    4.90999985    2.11999989
   17.00416756  144.45899963    4.90999985    2.11999989
   17.00749969  145.74699402    4.90999985    2.11999989
   17.01083374  148.35400391    4.90999985    2.11999989
   17.01666641  148.35400391    4.90999985    2.11999989
   17.02083397  151.25300598    4.90999985    2.11999989
   17.02416611  144.24699402    4.90999985    2.11999989
   17.02527809  150.85499573    4.90999985    2.11999989
   17.02777672  148.89100647    4.90999985    2.11999989
   17.03111076  151.07499695    4.90999985    2.11999989
   17.03444481  147.88800049    4.90999985    2.11999989
   17.03750038  141.99600220    4.90999985    2.11999989
   17.04083252  156.06799316    4.90999985    2.11999989
   17.04416656  142.59899902    4.90999985    2.11999989
   17.04722214  144.63400269    4.90999985    2.11999989
   17.05055428  151.06399536    4.90999985    2.11999989
   17.05388832  146.24600220    4.90999985    2.11999989
   17.05972099  146.24600220    4.90999985    2.11999989
   17.06388855  147.47399902    4.90999985    2.11999989
   17.06694603  140.48199463    4.90999985    2.11999989
   17.07027817  150.80099487    4.90999985    2.11999989
   17.07361221  145.96400452    4.90999985    2.11999989
   17.07666779  145.48100281    4.90999985    2.11999989
   17.08000183  143.85299683    4.90999985    2.11999989
   17.08305550  143.59199524    4.90999985    2.11999989
   17.08638954  139.84899902    4.90999985    2.11999989
   17.08972359  151.42799377    4.90999985    2.11999989
   17.09194565  143.81799316    4.90999985    2.11999989
   17.09333420  151.06199646    4.90999985    2.11999989
   17.09666824  148.93200684    4.90999985    2.11999989
   17.10250092  148.93200684    4.90999985    2.11999989
   17.10666656  157.22599792    4.90999985    2.11999989
   17.10972214  142.38099670    4.90999985    2.11999989
   17.11305618  143.86000061    4.90999985    2.11999989
   17.11638832  151.02000427    4.90999985    2.11999989
   17.11944389  144.68200684    4.90999985    2.11999989
   17.12277794  151.40100098    4.90999985    2.11999989
   17.12555504  147.30999756    4.90999985    2.11999989
   17.12694550  152.66799927    4.90999985    2.11999989
   17.13000107  155.70199585    4.90999985    2.11999989
   17.13333321  149.10499573    4.90999985    2.11999989
   17.13666725  152.17399597    4.90999985    2.11999989
   17.13972282  147.67599487    4.90999985    2.11999989
   17.14527702  147.67599487    4.90999985    2.11999989
   17.14944458  149.74800110    4.90999985    2.11999989
   17.15277672  149.89399719    4.90999985    2.11999989
   17.15583229  152.61700439    4.90999985    2.11999989
   17.15861130  154.66799927    4.90999985    2.11999989
   17.15972137  152.78599548    4.90999985    2.11999989
   17.16277695  153.37399292    4.90999985    2.11999989
   17.16611099  149.46000671    4.90999985    2.11999989
   17.16916656  145.43299866    4.90999985    2.11999989
   17.17249870  162.50700378    4.90999985    2.11999989
   17.17583275  157.31599426    4.90999985    2.11999989
   17.17888832  148.21099854    4.90999985    2.11999989
   17.18222237  156.21400452    4.90999985    2.11999989
   17.18805504  156.21400452    4.90999985    2.11999989
   17.19222069  155.57499695    4.90999985    2.11999989
   17.19555473  154.63000488    4.90999985    2.11999989
   17.19888878  159.61000061    4.90999985    2.11999989
   17.20194435  153.11500549    4.90999985    2.11999989
   17.20527840  148.86700439    4.90999985    2.11999989
   17.20833397  153.22799683    4.90999985    2.11999989
   17.21166801  153.18099976    4.90999985    2.11999989
   17.21500015  152.66099548    4.90999985    2.11999989
   17.21805573  152.65600586    4.90999985    2.11999989
   17.22138977  146.50399780    4.90999985    2.11999989
   17.22472191  146.22000122    4.90999985    2.11999989
   17.22527885  164.19500732    4.90999985    2.11999989
   17.23111153  164.19500732    4.90999985    2.11999989
   17.23527718  153.46000671    4.90999985    2.11999989
   17.23833275  159.36399841    4.90999985    2.11999989
   17.24166679  150.44400024    4.90999985    2.11999989
   17.24500084  146.42500305    4.90999985    2.11999989
   17.24805641  156.89999390    4.90999985    2.11999989
   17.25138855  152.32000732    4.90999985    2.11999989
   17.25444412  156.97700500    4.90999985    2.11999989
   17.25777817  153.15600586    4.90999985    2.11999989
   17.25861168  153.84500122    4.90999985    2.11999989
   17.26166725  161.52400208    4.90999985    2.11999989
   17.26472282  155.08399963    4.90999985    2.11999989
   17.26805496  150.24000549    4.90999985    2.11999989
   17.27388954  150.24000549    4.90999985    2.11999989
   17.27805519  162.33000183    4.90999985    2.11999989
   17.28111076  147.40400696    4.90999985    2.11999989
   17.28444481  150.02400208    4.90999985    2.11999989
   17.28777695  157.33399963    4.90999985    2.11999989
   17.29083252  157.48300171    4.90999985    2.11999989
   17.29194450  152.20799255    4.90999985    2.11999989
   17.29472160  145.89500427    4.90999985    2.11999989
   17.29777718  144.24000549    4.90999985    2.11999989
   17.30111122  157.75599670    4.90999985    2.11999989
   17.30444336  156.97099304    4.90999985    2.11999989
   17.30749893  156.33999634    4.90999985    2.11999989
   17.31083298  145.19999695    4.90999985    2.11999989
   17.31666756  145.19999695    4.90999985    2.11999989
   17.32083511  152.03700256    4.90999985    2.11999989
   17.32416725  160.24000549    4.90999985    2.11999989
   17.32527924  155.19000244    4.90999985    2.11999989
   17.32777786  152.05499268    4.90999985    2.11999989
   17.33083344  156.83099365    4.90999985    2.11999989
   17.33416748  155.61000061    4.90999985    2.11999989
   17.33750153  149.99699402    4.90999985    2.11999989
   17.34055710  159.21499634    4.90999985    2.11999989
   17.34388924  150.93400574    4.90999985    2.11999989
   17.34694481  153.03500366    4.90999985    2.11999989
   17.35027885  146.69900513    4.90999985    2.11999989
   17.35361099  164.39399719    4.90999985    2.11999989
   17.35944557  164.39399719    4.90999985    2.11999989
   17.36361122  151.58599854    4.90999985    2.11999989
   17.36694527  142.10099792    4.90999985    2.11999989
   17.37000084  163.89999390    4.90999985    2.11999989
   17.37333298  160.44999695    4.90999985    2.11999989
   17.37666702  162.05400085    4.90999985    2.11999989
   17.37972260  165.18099976    4.90999985    2.11999989
   17.38305473  159.14700317    4.90999985    2.11999989
   17.38638878  159.01100159    4.90999985    2.11999989
   17.38944435  161.54699707    4.90999985    2.11999989
   17.39194489  157.76199341    4.90999985    2.11999989
   17.39333344  144.61900330    4.90999985    2.11999989
   17.39638901  150.42500305    4.90999985    2.11999989
   17.40250015  150.42500305    4.90999985    2.11999989
   17.40638924  148.99099731    4.90999985    2.11999989
   17.40972137  155.73199463    4.90999985    2.11999989
   17.41305542  149.00100708    4.90999985    2.11999989
   17.41611099  153.01800537    4.90999985    2.11999989
   17.41944313  151.29299927    4.90999985    2.11999989
   17.42277718  152.72500610    4.90999985    2.11999989
   17.42527771  155.36500549    4.90999985    2.11999989
   17.42638779  142.25999451    4.90999985    2.11999989
   17.42944336  152.98399353    4.90999985    2.11999989
   17.43277740  141.26499939    4.90999985    2.11999989
   17.43583298  141.19700623    4.90999985    2.11999989
   17.43916512  147.95599365    4.90999985    2.11999989
   17.44527626  147.95599365    4.90999985    2.11999989
   17.44944382  146.63499451    4.90999985    2.11999989
   17.45250130  141.99499512    4.90999985    2.11999989
   17.45583344  151.36799622    4.90999985    2.11999989
   17.45861244  145.44000244    4.90999985    2.11999989
   17.45944595  152.30099487    4.90999985    2.11999989
   17.46250153  143.66900635    4.90999985    2.11999989
   17.46583366  159.85499573    4.90999985    2.11999989
   17.46916771  158.14100647    4.90999985    2.11999989
   17.47222328  158.16799927    4.90999985    2.11999989
   17.47555542  152.97799683    4.90999985    2.11999989
   17.47888947  153.30499268    4.90999985    2.11999989
   17.48222351  152.12600708    4.90999985    2.11999989
   17.48805618  152.12600708    4.90999985    2.11999989
   17.49222183  145.58099365    4.90999985    2.11999989
   17.49555588  147.55900574    4.90999985    2.11999989
   17.49861145  150.33599854    4.90999985    2.11999989
   17.50194359  153.29699707    4.90999985    2.11999989
   17.50499916  151.80200195    4.90999985    2.11999989
   17.50833321  139.14700317    4.90999985    2.11999989
   17.51166725  161.83099365    4.90999985    2.11999989
   17.51472282  153.19599915    4.90999985    2.11999989
   17.51805496  148.34800720    4.90999985    2.11999989
   17.52138901  152.58200073    4.90999985    2.11999989
   17.52444458  157.08900452    4.90999985    2.11999989
   17.52527809  156.37100220    4.90999985    2.11999989
   17.53083229  156.37100220    4.90999985    2.11999989
   17.53499985  159.69700623    4.90999985    2.11999989
   17.53833199  166.44799805    4.90999985    2.11999989
   17.54166603  159.20399475    4.90999985    2.11999989
   17.55916595  151.36300659    4.90999985    2.11999989
   17.56138802  151.10000610    4.90999985    2.11999989
   17.56472206  163.04800415    4.90999985    2.11999989
   17.56805611  161.02799988    4.90999985    2.11999989
   17.57389069  161.02799988    4.90999985    2.11999989
   17.57805634  157.80799866    4.90999985    2.11999989
   17.58139038  161.05900574    4.90999985    2.11999989
   17.58444595  164.47700500    4.90999985    2.11999989
   17.58777809  156.15400696    4.90999985    2.11999989
   17.59111214  146.66299438    4.90999985    2.11999989
   17.59250069  158.33700562    4.90999985    2.11999989
   17.59472275  165.31599426    4.90999985    2.11999989
   17.59805679  150.11500549    4.90999985    2.11999989
   17.60111237  151.90100098    4.90999985    2.11999989
   17.60444450  142.96000671    4.90999985    2.11999989
   17.60777855  151.47799683    4.90999985    2.11999989
   17.61083412  149.54100037    4.90999985    2.11999989
   17.61666679  149.54100037    4.90999985    2.11999989
   17.62083435  145.85099792    4.90999985    2.11999989
   17.62416649  159.63800049    4.90999985    2.11999989
   17.62555504  156.38600159    4.90999985    2.11999989
   17.62777710  160.24299622    4.90999985    2.11999989
   17.63111115  157.32200623    4.90999985    2.11999989
   17.63416672  163.39100647    4.90999985    2.11999989
   17.63750076  161.03100586    4.90999985    2.11999989
   17.64083290  152.93499756    4.90999985    2.11999989
   17.64388847  153.25599670    4.90999985    2.11999989
   17.64749908  149.34700012    4.90999985    2.11999989
   17.65055466  150.12699890    4.90999985    2.11999989
   17.65388870  154.22599792    4.90999985    2.11999989
   17.65972137  154.22599792    4.90999985    2.11999989
   17.66388893  152.10099792    4.90999985    2.11999989
   17.66694450  148.58399963    4.90999985    2.11999989
   17.67027664  147.17300415    4.90999985    2.11999989
   17.67333221  155.75799561    4.90999985    2.11999989
   17.67666626  146.17799377    4.90999985    2.11999989
   17.68000031  148.89599609    4.90999985    2.11999989
   17.68305397  146.36399841    4.90999985    2.11999989
   17.68638802  149.66299438    4.90999985    2.11999989
   17.68972206  150.12899780    4.90999985    2.11999989
   17.69249916  152.03100586    4.90999985    2.11999989
   17.69333267  161.68099976    4.90999985    2.11999989
   17.69666672  153.96000671    4.90999985    2.11999989
   17.70250130  153.96000671    4.90999985    2.11999989
   17.70666695  151.06399536    4.90999985    2.11999989
   17.70972252  144.23800659    4.90999985    2.11999989
   17.71305656  146.98100281    4.90999985    2.11999989
   17.71638870  157.54100037    4.90999985    2.11999989
   17.71944427  148.86500549    4.90999985    2.11999989
   17.72277832  147.93499756    4.90999985    2.11999989
   17.72583389  157.60000610    4.90999985    2.11999989
   17.72638893  149.01899719    4.90999985    2.11999989
   17.72972298  146.27000427    4.90999985    2.11999989
   17.73277855  154.57499695    4.90999985    2.11999989
   17.73611069  148.19700623    4.90999985    2.11999989
   17.73944473  148.42100525    4.90999985    2.11999989
   17.74527740  148.42100525    4.90999985    2.11999989
   17.74944496  145.92500305    4.90999985    2.11999989
   17.75277710  150.17700195    4.90999985    2.11999989
   17.75583267  146.47399902    4.90999985    2.11999989
   17.75916672  144.79299927    4.90999985    2.11999989
   17.75944519  152.97300720    4.90999985    2.11999989
   17.76277733  145.54899597    4.90999985    2.11999989
   17.76583290  141.68800354    4.90999985    2.11999989
   17.76916695  146.69799805    4.90999985    2.11999989
   17.77249908  144.29499817    4.90999985    2.11999989
   17.77555466  140.06599426    4.90999985    2.11999989
   17.77888870  144.90499878    4.90999985    2.11999989
   17.78222275  142.23199463    4.90999985    2.11999989
   17.78805542  142.23199463    4.90999985    2.11999989
   17.79249954  141.00300598    4.90999985    2.11999989
   17.79277802  145.55299377    4.90999985    2.11999989
   17.79611015  150.14500427    4.90999985    2.11999989
   17.79916573  144.08299255    4.90999985    2.11999989
   17.80249977  150.25900269    4.90999985    2.11999989
   17.80583191  152.05200195    4.90999985    2.11999989
   17.80888748  148.60099792    4.90999985    2.11999989
   17.81222153  154.21800232    4.90999985    2.11999989
   17.81555557  157.24899292    4.90999985    2.11999989
   17.81861115  143.80799866    4.90999985    2.11999989
   17.82194519  144.68400574    4.90999985    2.11999989
   17.82527924  140.38099670    4.90999985    2.11999989
   17.82583427  139.22300720    4.90999985    2.11999989
   17.83111191  139.22300720    4.90999985    2.11999989
   17.83527756  145.36900330    4.90999985    2.11999989
   17.83833313  148.76400757    4.90999985    2.11999989
   17.84166718  152.92799377    4.90999985    2.11999989
   17.84472275  141.34899902    4.90999985    2.11999989
   17.84805679  142.50599670    4.90999985    2.11999989
   17.85138893  148.67799377    4.90999985    2.11999989
   17.85444450  156.57299805    4.90999985    2.11999989
   17.85777855  155.19999695    4.90999985    2.11999989
   17.85916710  145.69400024    4.90999985    2.11999989
   17.86138916  150.39799500    4.90999985    2.11999989
   17.86472321  149.43499756    4.90999985    2.11999989
   17.86805534  148.57200623    4.90999985    2.11999989
   17.87388992  148.57200623    4.90999985    2.11999989
   17.87805557  149.95399475    4.90999985    2.11999989
   17.88111115  151.71299744    4.90999985    2.11999989
   17.88444519  170.87600708    4.90999985    2.11999989
   17.88777733  179.06500244    4.90999985    2.11999989
   17.89083290  199.22099304    4.90999985    2.11999989
   17.89249992  237.78399658    4.90999985    2.11999989
   17.89444351  245.21499634    4.90999985    2.11999989
   17.89777756  287.79000854    4.90999985    2.11999989
   17.90111160  266.55398560    4.90999985    2.11999989
   17.90416718  272.45498657    4.90999985    2.11999989
   17.90749931  233.57099915    4.90999985    2.11999989
   17.91055489  252.21699524    4.90999985    2.11999989
   17.91666603  252.21699524    4.90999985    2.11999989
   17.92083359  237.13299561    4.90999985    2.11999989
   17.92416573  227.55900574    4.90999985    2.11999989
   17.92583275  229.68400574    4.90999985    2.11999989
   17.92777634  213.72399902    4.90999985    2.11999989
   17.93111038  225.19500732    4.90999985    2.11999989
   17.93444443  205.55599976    4.90999985    2.11999989
   17.93750000  194.39399719    4.90999985    2.11999989
   17.94083214  196.57400513    4.90999985    2.11999989
   17.94388771  166.32800293    4.90999985    2.11999989
   17.94722176  192.76699829    4.90999985    2.11999989
   17.95055580  199.08599854    4.90999985    2.11999989
   17.95361137  179.15800476    4.90999985    2.11999989
   17.95944595  179.15800476    4.90999985    2.11999989
   17.96361160  164.33299255    4.90999985    2.11999989
   17.96694565  186.44700623    4.90999985    2.11999989
   17.97027779  161.99499512    4.90999985    2.11999989
   17.97333336  173.71899414    4.90999985    2.11999989
   17.97666740  173.80499268    4.90999985    2.11999989
   17.98000145  165.34399414    4.90999985    2.11999989
   17.98305511  160.74400330    4.90999985    2.11999989
   17.98638916  176.60200500    4.90999985    2.11999989
   17.98972321  166.78300476    4.90999985    2.11999989
   17.99250031  164.11900330    4.90999985    2.11999989
   17.99305534  182.02999878    4.90999985    2.11999989
   17.99638939  170.85800171    4.90999985    2.11999989
   18.00250053  170.85800171    4.90999985    2.11999989
   18.00666618  172.17999268    4.90999985    2.11999989
   18.01000023  163.54600525    4.90999985    2.11999989
   18.01305580  174.89399719    4.90999985    2.11999989
   18.01638794  168.49299622    4.90999985    2.11999989
   18.01972198  142.81300354    4.90999985    2.11999989
   18.02277756  162.66799927    4.90999985    2.11999989
   18.02583313  169.94400024    4.90999985    2.11999989
   18.02638817  163.12500000    4.90999985    2.11999989
   18.02972221  156.92100525    4.90999985    2.11999989
   18.03305435  169.20199585    4.90999985    2.11999989
   18.03610992  165.43299866    4.90999985    2.11999989
   18.03944397  150.33099365    4.90999985    2.11999989
   18.04527664  150.33099365    4.90999985    2.11999989
   18.04944420  167.00000000    4.90999985    2.11999989
   18.05277634  160.98699951    4.90999985    2.11999989
   18.05611038  157.74499512    4.90999985    2.11999989
   18.05916595  160.77600098    4.90999985    2.11999989
   18.05944443  154.96899414    4.90999985    2.11999989
   18.06277657  154.21200562    4.90999985    2.11999989
   18.06611061  162.69999695    4.90999985    2.11999989
   18.06916809  160.97000122    4.90999985    2.11999989
   18.07250023  159.31300354    4.90999985    2.11999989
   18.07555580  153.41700745    4.90999985    2.11999989
   18.07888985  157.74600220    4.90999985    2.11999989
   18.08222389  153.59599304    4.90999985    2.11999989
   18.08805656  153.59599304    4.90999985    2.11999989
   18.09222221  168.20799255    4.90999985    2.11999989
   18.09277916  153.74600220    4.90999985    2.11999989
   18.09611130  159.68400574    4.90999985    2.11999989
   18.09916687  144.19700623    4.90999985    2.11999989
   18.10250092  163.35499573    4.90999985    2.11999989
   18.10583305  161.77600098    4.90999985    2.11999989
   18.10888863  166.17999268    4.90999985    2.11999989
   18.11222267  161.43499756    4.90999985    2.11999989
   18.11527824  167.12800598    4.90999985    2.11999989
   18.11861038  151.37899780    4.90999985    2.11999989
   18.12194443  153.59399414    4.90999985    2.11999989
   18.12500000  159.62300110    4.90999985    2.11999989
   18.12611198  155.08700562    4.90999985    2.11999989
   18.13083267  155.08700562    4.90999985    2.11999989
   18.13500023  174.36900330    4.90999985    2.11999989
   18.13833237  173.78399658    4.90999985    2.11999989
   18.14166641  163.82800293    4.90999985    2.11999989
   18.14472198  154.63900757    4.90999985    2.11999989
   18.14805603  161.95300293    4.90999985    2.11999989
   18.15138817  155.63000488    4.90999985    2.11999989
   18.15444374  168.76699829    4.90999985    2.11999989
   18.15777779  157.86599731    4.90999985    2.11999989
   18.15944481  175.02799988    4.90999985    2.11999989
   18.16138840  152.12800598    4.90999985    2.11999989
   18.16444397  167.29200745    4.90999985    2.11999989
   18.16777802  181.41900635    4.90999985    2.11999989
   18.17388916  181.41900635    4.90999985    2.11999989
   18.17777634  169.36999512    4.90999985    2.11999989
   18.18111038  170.35200500    4.90999985    2.11999989
   18.18444443  169.73199463    4.90999985    2.11999989
   18.18750000  164.57299805    4.90999985    2.11999989
   18.19083214  170.62899780    4.90999985    2.11999989
   18.19277763  169.40699768    4.90999985    2.11999989
   18.19444275  153.96800232    4.90999985    2.11999989
   18.19749832  170.74000549    4.90999985    2.11999989
   18.20083427  160.51300049    4.90999985    2.11999989
   18.20416832  173.36399841    4.90999985    2.11999989
   18.20722389  148.41499329    4.90999985    2.11999989
   18.21055603  162.87399292    4.90999985    2.11999989
   18.21666718  162.87399292    4.90999985    2.11999989
   18.22083473  159.84399414    4.90999985    2.11999989
   18.22389030  157.52600098    4.90999985    2.11999989
   18.22611237  151.74499512    4.90999985    2.11999989
   18.22777748  145.46099854    4.90999985    2.11999989
   18.23083305  153.22999573    4.90999985    2.11999989
   18.23416710  159.04800415    4.90999985    2.11999989
   18.23750114  149.16900635    4.90999985    2.11999989
   18.24055672  155.49699402    4.90999985    2.11999989
   18.24388885  156.47900391    4.90999985    2.11999989
   18.24722290  167.43400574    4.90999985    2.11999989
   18.25027847  156.17199707    4.90999985    2.11999989
   18.25361061  147.59800720    4.90999985    2.11999989
   18.25944519  147.59800720    4.90999985    2.11999989
   18.26361084  166.30700684    4.90999985    2.11999989
   18.26694489  152.13499451    4.90999985    2.11999989
   18.27000046  166.71800232    4.90999985    2.11999989
   18.27333260  174.45300293    4.90999985    2.11999989
   18.27638817  158.50599670    4.90999985    2.11999989
   18.27972221  161.36199951    4.90999985    2.11999989
   18.28305435  171.16799927    4.90999985    2.11999989
   18.28610992  154.17900085    4.90999985    2.11999989
   18.28944397  149.58999634    4.90999985    2.11999989
   18.29277802  163.58999634    4.90999985    2.11999989
   18.29444313  166.43400574    4.90999985    2.11999989
   18.29638863  155.44400024    4.90999985    2.11999989
   18.30222130  155.44400024    4.90999985    2.11999989
   18.30638885  166.12500000    4.90999985    2.11999989
   18.30972099  159.85299683    4.90999985    2.11999989
   18.31305504  153.08599854    4.90999985    2.11999989
   18.31611061  175.94400024    4.90999985    2.11999989
   18.31944466  167.99499512    4.90999985    2.11999989
   18.32277870  157.44900513    4.90999985    2.11999989
   18.32583427  154.02099609    4.90999985    2.11999989
   18.32777786  154.24400330    4.90999985    2.11999989
   18.32944489  159.75500488    4.90999985    2.11999989
   18.33277893  157.32200623    4.90999985    2.11999989
   18.33583450  154.46699524    4.90999985    2.11999989
   18.33916664  166.26699829    4.90999985    2.11999989
   18.34527779  166.26699829    4.90999985    2.11999989
   18.34916687  159.73199463    4.90999985    2.11999989
   18.35250092  151.90899658    4.90999985    2.11999989
   18.35583305  146.05999756    4.90999985    2.11999989
   18.35888863  160.72399902    4.90999985    2.11999989
   18.36138916  142.13699341    4.90999985    2.11999989
   18.36277771  155.00700378    4.90999985    2.11999989
   18.36583328  143.09899902    4.90999985    2.11999989
   18.36916733  148.54400635    4.90999985    2.11999989
   18.37249947  146.73800659    4.90999985    2.11999989
   18.37555504  149.22999573    4.90999985    2.11999989
   18.37888908  157.65699768    4.90999985    2.11999989
   18.38194466  154.32699585    4.90999985    2.11999989
   18.38805580  154.32699585    4.90999985    2.11999989
   18.39222145  143.51499939    4.90999985    2.11999989
   18.39472198  164.64399719    4.90999985    2.11999989
   18.39583397  147.06799316    4.90999985    2.11999989
   18.39888954  148.43099976    4.90999985    2.11999989
   18.40222168  144.33900452    4.90999985    2.11999989
   18.40555573  160.38400269    4.90999985    2.11999989
   18.40861130  159.69099426    4.90999985    2.11999989
   18.41194344  153.86999512    4.90999985    2.11999989
   18.41499901  162.71600342    4.90999985    2.11999989
   18.41833305  146.10400391    4.90999985    2.11999989
   18.42166519  151.25100708    4.90999985    2.11999989
   18.42472076  147.05799866    4.90999985    2.11999989
   18.43083191  147.05799866    4.90999985    2.11999989
   18.43499947  152.07400513    4.90999985    2.11999989
   18.43833160  148.02600098    4.90999985    2.11999989
   18.44138718  159.85600281    4.90999985    2.11999989
   18.44472122  161.99699402    4.90999985    2.11999989
   18.44777679  158.64300537    4.90999985    2.11999989
   18.45111275  158.43699646    4.90999985    2.11999989
   18.45444489  166.39100647    4.90999985    2.11999989
   18.45750046  164.16999817    4.90999985    2.11999989
   18.46083450  151.21400452    4.90999985    2.11999989
   18.46166801  161.26100159    4.90999985    2.11999989
   18.46444511  162.20500183    4.90999985    2.11999989
   18.46777916  164.11000061    4.90999985    2.11999989
   18.47361183  164.11000061    4.90999985    2.11999989
   18.47777748  165.73899841    4.90999985    2.11999989
   18.48111153  163.44500732    4.90999985    2.11999989
   18.48444557  161.94799805    4.90999985    2.11999989
   18.48750114  156.50399780    4.90999985    2.11999989
   18.49083328  155.26800537    4.90999985    2.11999989
   18.49388885  158.07000732    4.90999985    2.11999989
   18.49500084  166.94999695    4.90999985    2.11999989
   18.49777794  156.44000244    4.90999985    2.11999989
   18.50111198  153.55099487    4.90999985    2.11999989
   18.50416756  152.69500732    4.90999985    2.11999989
   18.50749969  157.89500427    4.90999985    2.11999989
   18.51055527  145.33299255    4.90999985    2.11999989
   18.51666641  145.33299255    4.90999985    2.11999989
   18.52083397  155.28999329    4.90999985    2.11999989
   18.52388954  148.90199280    4.90999985    2.11999989
   18.52722168  162.84700012    4.90999985    2.11999989
   18.52861023  153.86500549    4.90999985    2.11999989
   18.53083229  167.64900208    4.90999985    2.11999989
   18.53388786  151.52400208    4.90999985    2.11999989
   18.53722191  157.88999939    4.90999985    2.11999989
   18.54055595  155.88999939    4.90999985    2.11999989
   18.54361153  154.10600281    4.90999985    2.11999989
   18.54694366  163.96699524    4.90999985    2.11999989
   18.55027771  156.06799316    4.90999985    2.11999989
   18.55333328  168.35000610    4.90999985    2.11999989
   18.55944443  168.35000610    4.90999985    2.11999989
   18.57777786  175.27600098    4.90999985    2.11999989
   18.58111191  172.39799500    4.90999985    2.11999989
   18.58416748  159.45100403    4.90999985    2.11999989
   18.58750153  167.53799438    4.90999985    2.11999989
   18.59083366  173.52099609    4.90999985    2.11999989
   18.59388924  168.39900208    4.90999985    2.11999989
   18.59722328  171.69900513    4.90999985    2.11999989
   18.60250092  171.69900513    4.90999985    2.11999989
   18.60666656  156.64799500    4.90999985    2.11999989
   18.61000061  170.81500244    4.90999985    2.11999989
   18.61083412  159.81100464    4.90999985    2.11999989
   18.61361122  171.98699951    4.90999985    2.11999989
   18.61666679  153.34300232    4.90999985    2.11999989
   18.62000084  161.48500061    4.90999985    2.11999989
   18.62333298  153.32200623    4.90999985    2.11999989
   18.62638855  158.13299561    4.90999985    2.11999989
   18.62972260  154.71400452    4.90999985    2.11999989
   18.63277817  154.21299744    4.90999985    2.11999989
   18.63611031  164.35299683    4.90999985    2.11999989
   18.63944435  174.79899597    4.90999985    2.11999989
   18.64527702  174.79899597    4.90999985    2.11999989
   18.64944458  184.71099854    4.90999985    2.11999989
   18.65277672  176.98899841    4.90999985    2.11999989
   18.65583229  161.21000671    4.90999985    2.11999989
   18.65916634  186.32800293    4.90999985    2.11999989
   18.66250038  162.84199524    4.90999985    2.11999989
   18.66583252  161.80599976    4.90999985    2.11999989
   18.66888809  178.65699768    4.90999985    2.11999989
   18.67222214  167.39999390    4.90999985    2.11999989
   18.67527771  164.92799377    4.90999985    2.11999989
   18.67749977  159.27900696    4.90999985    2.11999989
   18.67916679  167.74499512    4.90999985    2.11999989
   18.68222237  160.61399841    4.90999985    2.11999989
   18.68805504  160.61399841    4.90999985    2.11999989
   18.69222069  161.70500183    4.90999985    2.11999989
   18.69555473  168.15100098    4.90999985    2.11999989
   18.69888878  162.85499573    4.90999985    2.11999989
   18.70194435  176.52400208    4.90999985    2.11999989
   18.70527840  166.39199829    4.90999985    2.11999989
   18.70861244  160.71200562    4.90999985    2.11999989
   18.71083450  162.99400330    4.90999985    2.11999989
   18.71222305  163.18499756    4.90999985    2.11999989
   18.71527863  167.89500427    4.90999985    2.11999989
   18.71861076  180.93099976    4.90999985    2.11999989
   18.72194481  153.22300720    4.90999985    2.11999989
   18.72500038  159.58599854    4.90999985    2.11999989
   18.73111153  159.58599854    4.90999985    2.11999989
   18.73527718  162.12899780    4.90999985    2.11999989
   18.73833275  170.73199463    4.90999985    2.11999989
   18.74166679  155.52499390    4.90999985    2.11999989
   18.74416733  168.73699951    4.90999985    2.11999989
   18.74527740  168.49000549    4.90999985    2.11999989
   18.74833298  163.29800415    4.90999985    2.11999989
   18.75166702  169.19799805    4.90999985    2.11999989
   18.75499916  181.83099365    4.90999985    2.11999989
   18.75805473  171.53300476    4.90999985    2.11999989
   18.76138878  167.92399597    4.90999985    2.11999989
   18.76472282  177.13200378    4.90999985    2.11999989
   18.76777840  181.65899658    4.90999985    2.11999989
   18.77388954  181.65899658    4.90999985    2.11999989
   18.77805519  172.50100708    4.90999985    2.11999989
   18.78111076  174.24200439    4.90999985    2.11999989
   18.78444481  185.48300171    4.90999985    2.11999989
   18.78777695  172.11199951    4.90999985    2.11999989
   18.79083252  165.74800110    4.90999985    2.11999989
   18.79416656  180.09500122    4.90999985    2.11999989
   18.79749870  158.05299377    4.90999985    2.11999989
   18.80055428  163.43699646    4.90999985    2.11999989
   18.80388832  191.14399719    4.90999985    2.11999989
   18.80694389  189.39599609    4.90999985    2.11999989
   18.81027794  167.35400391    4.90999985    2.11999989
   18.81083298  173.64199829    4.90999985    2.11999989
   18.81666756  173.64199829    4.90999985    2.11999989
   18.82083511  179.90400696    4.90999985    2.11999989
   18.82416725  161.24499512    4.90999985    2.11999989
   18.82722282  155.58799744    4.90999985    2.11999989
   18.83055687  154.49200439    4.90999985    2.11999989
   18.83388901  178.75799561    4.90999985    2.11999989
   18.83694458  173.70599365    4.90999985    2.11999989
   18.84027863  166.91999817    4.90999985    2.11999989
   18.84361267  165.51899719    4.90999985    2.11999989
   18.84416771  172.50900269    4.90999985    2.11999989
   18.84722328  169.49000549    4.90999985    2.11999989
   18.85027885  168.57800293    4.90999985    2.11999989
   18.85361099  167.09899902    4.90999985    2.11999989
   18.85944557  167.09899902    4.90999985    2.11999989
   18.86361122  177.37699890    4.90999985    2.11999989
   18.86694527  166.68499756    4.90999985    2.11999989
   18.87027740  183.49600220    4.90999985    2.11999989
   18.87333298  166.25300598    4.90999985    2.11999989
   18.87666702  156.40400696    4.90999985    2.11999989
   18.87750053  157.48599243    4.90999985    2.11999989
   18.88027763  168.20700073    4.90999985    2.11999989
   18.88333321  168.18099976    4.90999985    2.11999989
   18.88666725  154.30099487    4.90999985    2.11999989
   18.88999939  162.63999939    4.90999985    2.11999989
   18.89305496  158.04400635    4.90999985    2.11999989
   18.89638901  162.17199707    4.90999985    2.11999989
   18.90250015  162.17199707    4.90999985    2.11999989
   18.90666580  160.23800659    4.90999985    2.11999989
   18.90972137  175.17999268    4.90999985    2.11999989
   18.91083336  172.76600647    4.90999985    2.11999989
   18.91333389  171.90100098    4.90999985    2.11999989
   18.91638756  180.06799316    4.90999985    2.11999989
   18.91972160  171.35200500    4.90999985    2.11999989
   18.92305565  186.30299377    4.90999985    2.11999989
   18.92611122  173.67199707    4.90999985    2.11999989
   18.92944336  178.60299683    4.90999985    2.11999989
   18.93277740  176.69999695    4.90999985    2.11999989
   18.93583298  192.67199707    4.90999985    2.11999989
   18.93916512  187.45199585    4.90999985    2.11999989
   18.94527626  187.45199585    4.90999985    2.11999989
   18.94944382  199.59700012    4.90999985    2.11999989
   18.95250130  185.71299744    4.90999985    2.11999989
   18.95583344  202.93200684    4.90999985    2.11999989
   18.95916748  198.41299438    4.90999985    2.11999989
   18.96222305  199.89599609    4.90999985    2.11999989
   18.96555710  200.58900452    4.90999985    2.11999989
   18.96888924  211.23399353    4.90999985    2.11999989
   18.97194481  205.39399719    4.90999985    2.11999989
   18.97527885  223.06399536    4.90999985    2.11999989
   18.97750092  233.20100403    4.90999985    2.11999989
   18.97888947  220.16799927    4.90999985    2.11999989
   18.98194504  209.34800720    4.90999985    2.11999989
   18.98805618  209.34800720    4.90999985    2.11999989
   18.99222183  204.39199829    4.90999985    2.11999989
   18.99555588  215.47700500    4.90999985    2.11999989
   18.99861145  205.02600098    4.90999985    2.11999989
   19.00194359  201.94599915    4.90999985    2.11999989
   19.00527763  219.86199951    4.90999985    2.11999989
   19.00833321  228.42900085    4.90999985    2.11999989
   19.01083374  212.00900269    4.90999985    2.11999989
   19.01194382  213.13699341    4.90999985    2.11999989
   19.01527786  197.08700562    4.90999985    2.11999989
   19.01833344  242.15699768    4.90999985    2.11999989
   19.02166557  207.95399475    4.90999985    2.11999989
   19.02472115  212.92199707    4.90999985    2.11999989
   19.03083229  212.92199707    4.90999985    2.11999989
   19.03499985  224.76699829    4.90999985    2.11999989
   19.03833199  198.67399597    4.90999985    2.11999989
   19.04138756  219.38699341    4.90999985    2.11999989
   19.04416656  213.58700562    4.90999985    2.11999989
   19.04527664  223.76600647    4.90999985    2.11999989
   19.04833221  227.78700256    4.90999985    2.11999989
   19.05166626  193.92300415    4.90999985    2.11999989
   19.05499840  217.29100037    4.90999985    2.11999989
   19.05805397  215.87600708    4.90999985    2.11999989
   19.06138802  230.45100403    4.90999985    2.11999989
   19.06472206  209.16000366    4.90999985    2.11999989
   19.06777954  207.87500000    4.90999985    2.11999989
   19.07389069  207.87500000    4.90999985    2.11999989
   19.07805634  193.76800537    4.90999985    2.11999989
   19.08111191  219.49600220    4.90999985    2.11999989
   19.08444595  210.23500061    4.90999985    2.11999989
   19.08777809  214.05999756    4.90999985    2.11999989
   19.09083366  152.71299744    4.90999985    2.11999989
   19.09416771  192.05900574    4.90999985    2.11999989
   19.09722328  219.18499756    4.90999985    2.11999989
   19.10055542  190.26600647    4.90999985    2.11999989
   19.10388947  216.14199829    4.90999985    2.11999989
   19.10694504  215.26800537    4.90999985    2.11999989
   19.11027908  215.44099426    4.90999985    2.11999989
   19.11083412  211.69400024    4.90999985    2.11999989
   19.11666679  211.69400024    4.90999985    2.11999989
   19.12083435  204.68699646    4.90999985    2.11999989
   19.12388992  206.02099609    4.90999985    2.11999989
   19.12722206  208.42700195    4.90999985    2.11999989
   19.13055611  207.47700500    4.90999985    2.11999989
   19.13361168  212.11199951    4.90999985    2.11999989
   19.13694382  184.73899841    4.90999985    2.11999989
   19.14027786  197.78399658    4.90999985    2.11999989
   19.14333344  190.75799561    4.90999985    2.11999989
   19.14416695  205.50199890    4.90999985    2.11999989
   19.14694405  207.16999817    4.90999985    2.11999989
   19.15027809  189.25000000    4.90999985    2.11999989
   19.15333366  201.83399963    4.90999985    2.11999989
   19.15944481  201.83399963    4.90999985    2.11999989
   19.16361046  171.63099670    4.90999985    2.11999989
   19.16694450  186.60299683    4.90999985    2.11999989
   19.17000008  193.18600464    4.90999985    2.11999989
   19.17333221  208.22000122    4.90999985    2.11999989
   19.17666626  195.00399780    4.90999985    2.11999989
   19.17749977  194.84800720    4.90999985    2.11999989
   19.18027687  197.03900146    4.90999985    2.11999989
   19.18361092  193.51800537    4.90999985    2.11999989
   19.18666649  194.77499390    4.90999985    2.11999989
   19.18999863  204.15199280    4.90999985    2.11999989
   19.19333267  201.69000244    4.90999985    2.11999989
   19.19638824  202.53599548    4.90999985    2.11999989
   19.20222282  202.53599548    4.90999985    2.11999989
   19.20639038  205.52799988    4.90999985    2.11999989
   19.20972252  197.83299255    4.90999985    2.11999989
   19.21083450  200.63099670    4.90999985    2.11999989
   19.21333504  209.34599304    4.90999985    2.11999989
   19.21666718  204.16099548    4.90999985    2.11999989
   19.21972275  200.77699280    4.90999985    2.11999989
   19.22305679  209.59700012    4.90999985    2.11999989
   19.22638893  204.59700012    4.90999985    2.11999989
   19.22944450  202.00000000    4.90999985    2.11999989
   19.23277855  201.08299255    4.90999985    2.11999989
   19.23583412  183.51499939    4.90999985    2.11999989
   19.23916626  192.07400513    4.90999985    2.11999989
   19.24527740  192.07400513    4.90999985    2.11999989
   19.24944496  178.35099792    4.90999985    2.11999989
   19.25250053  179.37899780    4.90999985    2.11999989
   19.25583267  189.67300415    4.90999985    2.11999989
   19.25888824  183.90100098    4.90999985    2.11999989
   19.26222229  202.57899475    4.90999985    2.11999989
   19.26555634  200.36500549    4.90999985    2.11999989
   19.26861000  189.44700623    4.90999985    2.11999989
   19.27194405  194.82800293    4.90999985    2.11999989
   19.27527809  198.46499634    4.90999985    2.11999989
   19.27750015  198.35600281    4.90999985    2.11999989
   19.27888870  195.35200500    4.90999985    2.11999989
   19.28222275  203.26800537    4.90999985    2.11999989
   19.28805542  203.26800537    4.90999985    2.11999989
   19.29222107  194.17999268    4.90999985    2.11999989
   19.29527664  203.91499329    4.90999985    2.11999989
   19.29861069  184.51800537    4.90999985    2.11999989
   19.30194283  209.71600342    4.90999985    2.11999989
   19.30499840  181.86000061    4.90999985    2.11999989
   19.30833244  196.95399475    4.90999985    2.11999989
   19.31083298  206.62100220    4.90999985    2.11999989
   19.31194305  199.02799988    4.90999985    2.11999989
   19.31527710  207.80299377    4.90999985    2.11999989
   19.31833458  203.10400391    4.90999985    2.11999989
   19.32166672  194.51499939    4.90999985    2.11999989
   19.32500076  214.51899719    4.90999985    2.11999989
   19.33083344  214.51899719    4.90999985    2.11999989
   19.33500099  183.87399292    4.90999985    2.11999989
   19.33833313  197.13699341    4.90999985    2.11999989
   19.34138870  200.97900391    4.90999985    2.11999989
   19.34416771  191.82000732    4.90999985    2.11999989
   19.34500122  195.89999390    4.90999985    2.11999989
   19.34833336  225.22599792    4.90999985    2.11999989
   19.35138893  195.55999756    4.90999985    2.11999989
   19.35472298  196.98699951    4.90999985    2.11999989
   19.35805511  210.15899658    4.90999985    2.11999989
   19.36111069  193.58200073    4.90999985    2.11999989
   19.36444473  203.92300415    4.90999985    2.11999989
   19.36750031  216.59199524    4.90999985    2.11999989
   19.37361145  216.59199524    4.90999985    2.11999989
   19.37777710  200.49299622    4.90999985    2.11999989
   19.38111115  190.77799988    4.90999985    2.11999989
   19.38444519  198.16499329    4.90999985    2.11999989
   19.38750076  193.42599487    4.90999985    2.11999989
   19.39083290  181.94999695    4.90999985    2.11999989
   19.39388847  193.27999878    4.90999985    2.11999989
   19.39722252  204.67199707    4.90999985    2.11999989
   19.40055466  199.17399597    4.90999985    2.11999989
   19.40361023  208.87699890    4.90999985    2.11999989
   19.40694427  195.85099792    4.90999985    2.11999989
   19.41027832  199.91499329    4.90999985    2.11999989
   19.41083336  210.59700012    4.90999985    2.11999989
   19.41666603  210.59700012    4.90999985    2.11999989
   19.42083359  214.15800476    4.90999985    2.11999989
   19.42388916  194.93800354    4.90999985    2.11999989
   19.42722130  223.13000488    4.90999985    2.11999989
   19.43055534  199.13999939    4.90999985    2.11999989
   19.43361092  190.50700378    4.90999985    2.11999989
   19.43694305  214.17999268    4.90999985    2.11999989
   19.44027710  206.46899414    4.90999985    2.11999989
   19.44333267  186.95599365    4.90999985    2.11999989
   19.44416618  214.29699707    4.90999985    2.11999989
   19.44694328  198.07600403    4.90999985    2.11999989
   19.45027924  202.16799927    4.90999985    2.11999989
   19.45333481  211.07800293    4.90999985    2.11999989
   19.45944595  211.07800293    4.90999985    2.11999989
   19.46361160  195.78199768    4.90999985    2.11999989
   19.46666718  189.03799438    4.90999985    2.11999989
   19.47000122  214.37699890    4.90999985    2.11999989
   19.47333336  193.73199463    4.90999985    2.11999989
   19.47638893  187.63200378    4.90999985    2.11999989
   19.47750092  189.04299927    4.90999985    2.11999989
   19.48000145  214.61999512    4.90999985    2.11999989
   19.48333359  208.54600525    4.90999985    2.11999989
   19.48638916  218.35899353    4.90999985    2.11999989
   19.48972321  209.34100342    4.90999985    2.11999989
   19.49305534  198.65400696    4.90999985    2.11999989
   19.49611092  190.03199768    4.90999985    2.11999989
   19.50222206  190.03199768    4.90999985    2.11999989
   19.50638962  208.04200745    4.90999985    2.11999989
   19.50972176  198.82400513    4.90999985    2.11999989
   19.51083374  214.86199951    4.90999985    2.11999989
   19.51333427  208.21699524    4.90999985    2.11999989
   19.51666641  213.57699585    4.90999985    2.11999989
   19.52000046  202.84800720    4.90999985    2.11999989
   19.52333260  186.55099487    4.90999985    2.11999989
   19.52638817  204.02699280    4.90999985    2.11999989
   19.52972221  195.10899353    4.90999985    2.11999989
   19.53305435  218.00700378    4.90999985    2.11999989
   19.53610992  191.32899475    4.90999985    2.11999989
   19.53944397  212.15199280    4.90999985    2.11999989
   19.54500008  212.15199280    4.90999985    2.11999989
   19.54916573  188.41499329    4.90999985    2.11999989
   19.55249977  201.75999451    4.90999985    2.11999989
   19.55555534  211.03599548    4.90999985    2.11999989
   19.55888748  188.66799927    4.90999985    2.11999989
   19.56222153  196.01499939    4.90999985    2.11999989
   19.56527710  217.98100281    4.90999985    2.11999989
   19.56861115  194.26800537    4.90999985    2.11999989
   19.57194519  168.80299377    4.90999985    2.11999989
   19.57500076  201.58299255    4.90999985    2.11999989
   19.57750130  189.53199768    4.90999985    2.11999989
   19.59833336  189.53199768    4.90999985    2.11999989
   19.60250092  207.99200439    4.90999985    2.11999989
   19.60555649  202.78799438    4.90999985    2.11999989
   19.60888863  167.76400757    4.90999985    2.11999989
   19.61083412  200.42799377    4.90999985    2.11999989
   19.61250114  213.54200745    4.90999985    2.11999989
   19.61583328  189.51300049    4.90999985    2.11999989
   19.61916733  185.30200195    4.90999985    2.11999989
   19.62222290  187.49200439    4.90999985    2.11999989
   19.62555504  189.79100037    4.90999985    2.11999989
   19.62861061  180.59599304    4.90999985    2.11999989
   19.63194466  203.17199707    4.90999985    2.11999989
   19.63527679  205.63000488    4.90999985    2.11999989
   19.64111137  205.63000488    4.90999985    2.11999989
   19.64527702  185.11900330    4.90999985    2.11999989
   19.64833260  190.17799377    4.90999985    2.11999989
   19.65166664  185.98899841    4.90999985    2.11999989
   19.65499878  186.22799683    4.90999985    2.11999989
   19.65805435  184.91900635    4.90999985    2.11999989
   19.66138840  201.62199402    4.90999985    2.11999989
   19.66444397  185.85000610    4.90999985    2.11999989
   19.66777802  193.71699524    4.90999985    2.11999989
   19.67111015  206.45799255    4.90999985    2.11999989
   19.67416573  208.38699341    4.90999985    2.11999989
   19.67749977  191.44599915    4.90999985    2.11999989
   19.67805481  184.44500732    4.90999985    2.11999989
   19.68388748  184.44500732    4.90999985    2.11999989
   19.68805504  191.38200378    4.90999985    2.11999989
   19.69111061  197.61399841    4.90999985    2.11999989
   19.69444275  187.71899414    4.90999985    2.11999989
   19.69777679  195.76800537    4.90999985    2.11999989
   19.70083427  208.95199585    4.90999985    2.11999989
   19.70416832  207.88200378    4.90999985    2.11999989
   19.70750046  187.66799927    4.90999985    2.11999989
   19.71055603  184.64100647    4.90999985    2.11999989
   19.71138954  186.58099365    4.90999985    2.11999989
   19.71444511  211.52999878    4.90999985    2.11999989
   19.71750069  201.20799255    4.90999985    2.11999989
   19.72083473  170.14100647    4.90999985    2.11999989
   19.72666740  170.14100647    4.90999985    2.11999989
   19.73083305  196.14700317    4.90999985    2.11999989
   19.73416710  194.06599426    4.90999985    2.11999989
   19.73722267  171.22599792    4.90999985    2.11999989
   19.74055672  191.81700134    4.90999985    2.11999989
   19.74388885  185.91200256    4.90999985    2.11999989
   19.74472237  203.46400452    4.90999985    2.11999989
   19.74749947  184.09399414    4.90999985    2.11999989
   19.75055504  187.52799988    4.90999985    2.11999989
   19.75388908  185.98899841    4.90999985    2.11999989
   19.75694466  184.73300171    4.90999985    2.11999989
   19.76027870  187.82099915    4.90999985    2.11999989
   19.76361084  192.76300049    4.90999985    2.11999989
   19.76944351  192.76300049    4.90999985    2.11999989
   19.77361107  201.28599548    4.90999985    2.11999989
   19.77694511  178.05400085    4.90999985    2.11999989
   19.77805519  185.62500000    4.90999985    2.11999989
   19.78055573  189.83200073    4.90999985    2.11999989
   19.78361130  185.84300232    4.90999985    2.11999989
   19.78694344  189.46299744    4.90999985    2.11999989
   19.78999901  202.65299988    4.90999985    2.11999989
   19.79333305  198.46499634    4.90999985    2.11999989
   19.79666710  183.47599792    4.90999985    2.11999989
   19.79972076  201.12399292    4.90999985    2.11999989
   19.80305481  210.24200439    4.90999985    2.11999989
   19.80611038  204.07499695    4.90999985    2.11999989
   19.81250000  204.07499695    4.90999985    2.11999989
   19.81666756  199.20899963    4.90999985    2.11999989
   19.81972313  196.02499390    4.90999985    2.11999989
   19.82305717  202.53300476    4.90999985    2.11999989
   19.82611275  187.32699585    4.90999985    2.11999989
   19.82944489  189.49499512    4.90999985    2.11999989
   19.83277893  190.24400330    4.90999985    2.11999989
   19.83583450  186.43299866    4.90999985    2.11999989
   19.83916664  180.77099609    4.90999985    2.11999989
   19.84250069  177.40800476    4.90999985    2.11999989
   19.84472275  171.93499756    4.90999985    2.11999989
   19.84611130  178.31399536    4.90999985    2.11999989
   19.84916687  184.69700623    4.90999985    2.11999989
   19.85527802  184.69700623    4.90999985    2.11999989
   19.85944557  187.34800720    4.90999985    2.11999989
   19.86250114  174.11300659    4.90999985    2.11999989
   19.86583328  172.61099243    4.90999985    2.11999989
   19.86916733  193.54100037    4.90999985    2.11999989
   19.87222290  167.44500732    4.90999985    2.11999989
   19.87555504  191.09899902    4.90999985    2.11999989
   19.87805557  189.01699829    4.90999985    2.11999989
   19.87944412  172.24899292    4.90999985    2.11999989
   19.88249969  190.71200562    4.90999985    2.11999989
   19.88583374  176.34800720    4.90999985    2.11999989
   19.88888931  184.25599670    4.90999985    2.11999989
   19.89222145  196.05200195    4.90999985    2.11999989
   19.89805603  196.05200195    4.90999985    2.11999989
   19.90222168  199.59100342    4.90999985    2.11999989
   19.90555573  191.26899719    4.90999985    2.11999989
   19.90861130  178.20500183    4.90999985    2.11999989
   19.91138840  193.88099670    4.90999985    2.11999989
   19.91250038  188.54899597    4.90999985    2.11999989
   19.91555595  189.39799500    4.90999985    2.11999989
   19.91888809  183.38699341    4.90999985    2.11999989
   19.92194366  184.52699280    4.90999985    2.11999989
   19.92527771  184.09399414    4.90999985    2.11999989
   19.92860985  183.08000183    4.90999985    2.11999989
   19.93166542  179.42100525    4.90999985    2.11999989
   19.93499947  173.98300171    4.90999985    2.11999989
   19.94083214  173.98300171    4.90999985    2.11999989
   19.94499969  185.30999756    4.90999985    2.11999989
   19.94833183  183.26800537    4.90999985    2.11999989
   19.95166779  189.51699829    4.90999985    2.11999989
   19.95472336  184.22900391    4.90999985    2.11999989
   19.95805550  185.04800415    4.90999985    2.11999989
   19.96111107  195.00900269    4.90999985    2.11999989
   19.96444511  180.01899719    4.90999985    2.11999989
   19.96777916  182.78500366    4.90999985    2.11999989
   19.97083473  179.20700073    4.90999985    2.11999989
   19.97416687  177.39100647    4.90999985    2.11999989
   19.97750092  196.09399414    4.90999985    2.11999989
   19.97805595  186.54200745    4.90999985    2.11999989
   19.98388863  186.54200745    4.90999985    2.11999989
   19.98777771  179.37899780    4.90999985    2.11999989
   19.99111176  177.60699463    4.90999985    2.11999989
   19.99444389  169.86700439    4.90999985    2.11999989
   19.99749947  171.82299805    4.90999985    2.11999989
   20.00083351  174.88000488    4.90999985    2.11999989
   20.00416756  177.86599731    4.90999985    2.11999989
   20.00722313  173.88999939    4.90999985    2.11999989
   20.01055527  181.59500122    4.90999985    2.11999989
   20.01138878  195.47399902    4.90999985    2.11999989
   20.01416588  183.11799622    4.90999985    2.11999989
   20.01722145  184.60400391    4.90999985    2.11999989
   20.02055550  174.48699951    4.90999985    2.11999989
   20.02666664  174.48699951    4.90999985    2.11999989
   20.03083229  194.72700500    4.90999985    2.11999989
   20.03388786  191.85499573    4.90999985    2.11999989
   20.03722191  184.27600098    4.90999985    2.11999989
   20.04055595  184.70899963    4.90999985    2.11999989
   20.04361153  176.06700134    4.90999985    2.11999989
   20.04472160  176.57400513    4.90999985    2.11999989
   20.04749870  188.89900208    4.90999985    2.11999989
   20.05055428  181.13499451    4.90999985    2.11999989
   20.05388832  175.90199280    4.90999985    2.11999989
   20.05694389  175.02200317    4.90999985    2.11999989
   20.06027794  192.91900635    4.90999985    2.11999989
   20.06361008  176.72200012    4.90999985    2.11999989
   20.06944466  176.72200012    4.90999985    2.11999989
   20.07361221  173.72500610    4.90999985    2.11999989
   20.07694626  183.56399536    4.90999985    2.11999989
   20.07805634  171.85200500    4.90999985    2.11999989
   20.08055687  181.39100647    4.90999985    2.11999989
   20.08361244  183.90299988    4.90999985    2.11999989
   20.08694458  177.00199890    4.90999985    2.11999989
   20.09000015  176.18899536    4.90999985    2.11999989
   20.09333420  182.66499329    4.90999985    2.11999989
   20.09666824  181.66700745    4.90999985    2.11999989
   20.09972191  172.39399719    4.90999985    2.11999989
   20.10305595  175.14700317    4.90999985    2.11999989
   20.10639000  185.55299377    4.90999985    2.11999989
   20.11222267  185.55299377    4.90999985    2.11999989
   20.11638832  183.58000183    4.90999985    2.11999989
   20.11972237  168.11900330    4.90999985    2.11999989
   20.12277794  184.25900269    4.90999985    2.11999989
   20.12611198  177.09100342    4.90999985    2.11999989
   20.12944412  181.00700378    4.90999985    2.11999989
   20.13277817  178.20100403    4.90999985    2.11999989
   20.13583374  184.47300720    4.90999985    2.11999989
   20.13916588  180.86999512    4.90999985    2.11999989
   20.14249992  178.32699585    4.90999985    2.11999989
   20.14472198  184.51199341    4.90999985    2.11999989
   20.14611053  175.07000732    4.90999985    2.11999989
   20.14916611  180.18499756    4.90999985    2.11999989
   20.15527725  180.18499756    4.90999985    2.11999989
   20.15916634  186.54499817    4.90999985    2.11999989
   20.16250038  191.24200439    4.90999985    2.11999989
   20.16583252  179.04200745    4.90999985    2.11999989
   20.16888809  186.20399475    4.90999985    2.11999989
   20.17222214  192.29100037    4.90999985    2.11999989
   20.17555428  172.42199707    4.90999985    2.11999989
   20.17805481  179.34300232    4.90999985    2.11999989
   20.17916679  179.86799622    4.90999985    2.11999989
   20.18222237  185.29499817    4.90999985    2.11999989
   20.18555450  172.70899963    4.90999985    2.11999989
   20.18861008  176.14599609    4.90999985    2.11999989
   20.19194412  173.24600220    4.90999985    2.11999989
   20.19805527  173.24600220    4.90999985    2.11999989
   20.20222282  175.08299255    4.90999985    2.11999989
   20.20527840  185.14700317    4.90999985    2.11999989
   20.20861244  168.13400269    4.90999985    2.11999989
   20.21138954  183.95199585    4.90999985    2.11999989
   20.21222305  176.74000549    4.90999985    2.11999989
   20.21527863  193.61099243    4.90999985    2.11999989
   20.21861076  186.62500000    4.90999985    2.11999989
   20.22194481  194.04600525    4.90999985    2.11999989
   20.22500038  185.15199280    4.90999985    2.11999989
   20.22833443  194.25100708    4.90999985    2.11999989
   20.23166656  195.05599976    4.90999985    2.11999989
   20.23472214  200.06599426    4.90999985    2.11999989
   20.24083328  200.06599426    4.90999985    2.11999989
   20.24500084  192.44400024    4.90999985    2.11999989
   20.24833298  186.35800171    4.90999985    2.11999989
   20.25138855  176.88800049    4.90999985    2.11999989
   20.25472260  189.50700378    4.90999985    2.11999989
   20.25805473  184.63699341    4.90999985    2.11999989
   20.26111031  198.27799988    4.90999985    2.11999989
   20.26444435  227.95100403    4.90999985    2.11999989
   20.26749992  255.07899475    4.90999985    2.11999989
   20.27083397  279.64599609    4.90999985    2.11999989
   20.27416611  286.25799561    4.90999985    2.11999989
   20.27722168  320.85598755    4.90999985    2.11999989
   20.27805519  333.83898926    4.90999985    2.11999989
   20.28361130  333.83898926    4.90999985    2.11999989
   20.28777695   -1.00000000   -1.00000000   -1.00000000
   20.29111099   -1.00000000    4.90999985    2.11999989
   20.29444313   -1.00000000    4.90999985    2.11999989
   20.29749870   -1.00000000    4.90999985    2.11999989
   20.30083275   -1.00000000    4.90999985    2.11999989
   20.30388832   -1.00000000    4.90999985    2.11999989
   20.30722237   -1.00000000    4.90999985    2.11999989
   20.31055450   -1.00000000    4.90999985    2.11999989
   20.31416512   -1.00000000    4.90999985    2.11999989
   20.31750107   -1.00000000    4.90999985    2.11999989
   20.32055664   -1.00000000    4.90999985    2.11999989
   20.33055687   -1.00000000    4.90999985    2.11999989
   20.33388901   -1.00000000    4.90999985    2.11999989
   20.33694458   -1.00000000    4.90999985    2.11999989
   20.34027863   -1.00000000    4.90999985    2.11999989
   20.34361267   -1.00000000    4.90999985    2.11999989
   20.34694481   -1.00000000    4.90999985    2.11999989
