    HOUR (UT)   FLARE FACTOR    SKY TESTER    SUN TESTER
   11.81611156   -1.00000000   -1.00000000   -1.00000000
   11.95583344  177.16299438    2.09999990    2.26999998
   11.95972157  172.00700378    2.11999989    2.28999996
   11.96305561  165.65899658    2.11999989    2.28999996
   11.96611118  183.66600037    2.11999989    2.28999996
   11.96944427  185.83700562    2.11999989    2.26999998
   11.97277737  172.64399719    2.11999989    2.28999996
   11.97583294  177.50500488    2.11999989    2.28999996
   11.97916603  189.49000549    2.11999989    2.28999996
   11.98249912  178.91000366    2.11999989    2.28999996
   11.98555565  176.82299805    2.07999992    2.28999996
   11.98805618  178.89599609    2.05999994    2.28999996
   11.98916721  171.38600159    2.05999994    2.28999996
   11.99250031  178.99499512    2.05999994    2.30999994
   11.99555588  181.51499939    2.01999998    2.30999994
   11.99888897  167.91499329    2.01999998    2.30999994
   12.00222206  176.83799744    1.98000002    2.30999994
   12.00555515  173.78399658    1.98000002    2.30999994
   12.00888920  169.10800171    1.98000002    2.30999994
   12.01194477  174.08900452    1.98000002    2.30999994
   12.01527786  173.77000427    1.96000004    2.30999994
   12.01861095  176.38999939    1.96000004    2.30999994
   12.02138901  178.69200134    1.94000006    2.30999994
   12.02222157  174.34899902    1.94000006    2.30999994
   12.02555561  186.41700745    1.96000004    2.30999994
   12.02861118  177.59300232    1.96000004    2.30999994
   12.03194427  171.87600708    1.94000006    2.30999994
   12.03527832  182.50199890    1.94000006    2.30999994
   12.03833389  172.26100159    1.96000004    2.32999992
   12.04166698  163.13999939    1.98000002    2.32999992
   12.04500008  177.16700745    1.96000004    2.32999992
   12.04833412  179.26100159    1.98000002    2.32999992
   12.05166721  180.96299744    1.98000002    2.32999992
   12.05472279  175.43699646    1.96000004    2.32999992
   12.05527782  144.42799377    1.96000004    2.32999992
   12.05861092  171.24400330    1.96000004    2.32999992
   12.06222248  169.58000183    1.94000006    2.34999990
   12.06555557  166.60499573    1.94000006    2.34999990
   12.06861115  185.50900269    1.94000006    2.34999990
   12.07194424  179.50199890    1.94000006    2.34999990
   12.07527733  172.80900574    1.91999996    2.34999990
   12.07833290  165.78599548    1.91999996    2.34999990
   12.08166695  174.20100403    1.91999996    2.34999990
   12.08500004  179.27299500    1.89999998    2.34999990
   12.08805561  191.00900269    1.89999998    2.34999990
   12.08861065  182.58900452    1.89999998    2.34999990
   12.09194374  185.40199280    1.88000000    2.36999989
   12.09499931  193.07000732    1.88000000    2.36999989
   12.09833336  191.07200623    1.88000000    2.36999989
   12.10166740  195.22599792    1.88000000    2.36999989
   12.10472298  203.49499512    1.86000001    2.36999989
   12.10805607  189.41000366    1.88000000    2.36999989
   12.11138916  193.87300110    1.88000000    2.36999989
   12.11444473  198.14300537    1.89999998    2.36999989
   12.11777782  219.42199707    1.89999998    2.36999989
   12.12111092  195.86399841    1.89999998    2.36999989
   12.12166691  207.47099304    1.88000000    2.36999989
   12.12444496  181.51499939    1.89999998    2.36999989
   12.12777805  181.14500427    1.88000000    2.36999989
   12.13111115  202.47399902    1.88000000    2.36999989
   12.13416672  200.47999573    1.89999998    2.39000010
   12.13749981  196.24800110    1.88000000    2.39000010
   12.14083290  172.96200562    1.88000000    2.36999989
   12.14388847  210.81799316    1.86000001    2.39000010
   12.14722252  212.95399475    1.86000001    2.39000010
   12.15055561  194.15100098    1.86000001    2.39000010
   12.15361118  181.47599792    1.86000001    2.39000010
   12.15499973  186.06399536    1.86000001    2.39000010
   12.15722179  184.55900574    1.86000001    2.39000010
   12.16055489  165.70799255    1.88000000    2.39000010
   12.16388893  194.12300110    1.86000001    2.39000010
   12.16694450  154.75300598    1.86000001    2.39000010
   12.17027855  179.64300537    1.86000001    2.39000010
   12.17361164  163.92999268    1.86000001    2.39000010
   12.17666721  179.52600098    1.85000002    2.40000010
   12.18000031  153.90100098    1.83000004    2.40000010
   12.18305588  162.61199951    1.80999994    2.40000010
   12.18666649  174.94700623    1.75000000    2.40000010
   12.18916702  154.18299866    1.75000000    2.40000010
   12.19166660  170.08900452    1.75000000    2.40000010
   12.19499969  168.40199280    1.75000000    2.40000010
   12.19861126  155.00199890    1.75000000    2.40000010
   12.20194435  162.98300171    1.76999998    2.40000010
   12.20555496  156.78300476    1.75000000    2.40000010
   12.20888901  147.27099609    1.73000002    2.40000010
   12.21249962  158.43499756    1.73000002    2.42000008
   12.21555519  163.49800110    1.73000002    2.42000008
   12.21888828  163.00300598    1.73000002    2.42000008
   12.22166634  162.24099731    1.73000002    2.40000010
   12.22249985  160.52200317    1.75000000    2.42000008
   12.22583294  165.23699951    1.75000000    2.40000010
   12.22916603  155.58999634    1.75000000    2.42000008
   12.23222160  147.79699707    1.75000000    2.42000008
   12.23555565  162.64100647    1.75000000    2.42000008
   12.23888874  148.38299561    1.75000000    2.42000008
   12.24194431  165.84100342    1.75000000    2.42000008
   12.24527836  161.62699890    1.75000000    2.42000008
   12.24861145  140.10600281    1.75000000    2.42000008
   12.25166702  153.32499695    1.75000000    2.42000008
   12.25500011  156.53300476    1.75000000    2.42000008
   12.25527763  151.56599426    1.75000000    2.42000008
   12.25861073  153.49600220    1.76999998    2.42000008
   12.26194477  152.22300720    1.75000000    2.42000008
   12.26500034  158.74800110    1.75000000    2.44000006
   12.26833344  145.93299866    1.75000000    2.42000008
   12.27194405  146.27699280    1.75000000    2.42000008
   12.27527714  147.45899963    1.71000004    2.44000006
   12.27833271  151.47300720    1.71000004    2.42000008
   12.28166676  157.94299316    1.71000004    2.44000006
   12.28500080  139.76100159    1.71000004    2.44000006
   12.28805637  139.63200378    1.71000004    2.44000006
   12.28861141  144.66799927    1.71000004    2.44000006
   12.29194450  145.82699585    1.71000004    2.44000006
   12.29527855  149.88200378    1.71000004    2.44000006
   12.29833412  157.01800537    1.71000004    2.44000006
   12.30166721  144.40299988    1.73000002    2.44000006
   12.30472279  160.79499817    1.73000002    2.44000006
   12.30805588  148.75999451    1.73000002    2.44000006
   12.31138897  147.81799316    1.71000004    2.44000006
   12.31444454  157.91000366    1.73000002    2.46000004
   12.31777763  169.56399536    1.73000002    2.44000006
   12.32111073  174.34199524    1.71000004    2.46000004
   12.32194424  157.66200256    1.71000004    2.46000004
   12.32472229  151.75799561    1.71000004    2.46000004
   12.32805538  157.87100220    1.71000004    2.46000004
   12.33111095  166.26199341    1.71000004    2.46000004
   12.33444405  165.21800232    1.71000004    2.46000004
   12.33777714  158.28700256    1.71000004    2.46000004
   12.34083271  156.07299805    1.71000004    2.46000004
   12.34416676  174.58299255    1.71000004    2.46000004
   12.34749985  161.23899841    1.73000002    2.46000004
   12.35055637  166.02799988    1.75000000    2.46000004
   12.35388947  156.21499634    1.73000002    2.46000004
   12.35527802  159.85800171    1.73000002    2.46000004
   12.35750008  170.99499512    1.75000000    2.46000004
   12.36083412  163.26800537    1.75000000    2.46000004
   12.36388969  169.85000610    1.75000000    2.46000004
   12.36722279  158.11999512    1.75000000    2.46000004
   12.37055588  162.05599976    1.75000000    2.46000004
   12.37361145  157.03599548    1.73000002    2.46000004
   12.37694454  159.02499390    1.75000000    2.46000004
   12.38000011  150.25500488    1.75000000    2.46000004
   12.38333321  149.41600037    1.76999998    2.48000002
   12.38666630  155.39700317    1.75000000    2.46000004
   12.38861084  160.38999939    1.75000000    2.46000004
   12.39027786  150.58099365    1.75000000    2.48000002
   12.39361095  152.57099915    1.73000002    2.48000002
   12.39666653  159.87800598    1.73000002    2.46000004
   12.39999962  148.00599670    1.71000004    2.48000002
   12.40333271  145.17700195    1.71000004    2.48000002
   12.40638828  139.77400208    1.71000004    2.48000002
   12.40972137  155.64900208    1.69000006    2.48000002
   12.41305542  152.25900269    1.69000006    2.48000002
   12.41611099  156.39500427    1.69000006    2.48000002
   12.41944504  162.77299500    1.69000006    2.48000002
   12.42194462  154.08599854    1.69000006    2.48000002
   12.42305565  157.89399719    1.69000006    2.48000002
   12.42638874  153.12300110    1.69000006    2.48000002
   12.42944431  160.36300659    1.71000004    2.48000002
   12.43277836  153.06399536    1.73000002    2.48000002
   12.43583298  158.18600464    1.73000002    2.48000002
   12.43916702  150.41299438    1.75000000    2.48000002
   12.44250011  155.90400696    1.76999998    2.48000002
   12.44555569  156.24099731    1.75000000    2.50000000
   12.44888878  163.32800293    1.76999998    2.50000000
   12.45222187  156.31399536    1.75000000    2.50000000
   12.45527744  159.07000732    1.73000002    2.50000000
   12.45583344  151.99000549    1.73000002    2.50000000
   12.45916653  153.91200256    1.71000004    2.50000000
   12.46222210  152.14100647    1.71000004    2.50000000
   12.46555519  156.31700134    1.69000006    2.50000000
   12.46861076  152.07600403    1.69000006    2.50000000
   12.47194386  151.01699829    1.69000006    2.50000000
   12.47527695  148.59399414    1.66999996    2.50000000
   12.47833252  153.13999939    1.66999996    2.50000000
   12.48166656  155.12500000    1.66999996    2.51999998
   12.48500061  151.55900574    1.66999996    2.50000000
   12.48805618  142.91200256    1.66999996    2.50000000
   12.48888874  151.39300537    1.66999996    2.50000000
   12.49194431  145.92900085    1.66999996    2.50000000
   12.49499989  162.23800659    1.66999996    2.50000000
   12.49833393  148.19999695    1.66999996    2.50000000
   12.50166702  164.53500366    1.66999996    2.51999998
   12.50500011  146.23699951    1.69000006    2.50000000
   12.50833321  158.32899475    1.69000006    2.50000000
   12.51138878  136.70199585    1.66999996    2.51999998
   12.51472187  153.28999329    1.66999996    2.51999998
   12.51805496  160.17700195    1.66999996    2.51999998
   12.52111053  151.70300293    1.66999996    2.51999998
   12.52194405  157.67900085    1.66999996    2.51999998
   12.52472210  151.25000000    1.64999998    2.51999998
   12.52805519  153.69599915    1.64999998    2.51999998
   12.53111076  151.86700439    1.64999998    2.51999998
   12.53444481  160.27200317    1.64999998    2.51999998
   12.53777790  144.73800659    1.64999998    2.51999998
   12.54083347  147.94999695    1.64999998    2.51999998
   12.54416752  159.83000183    1.63000000    2.51999998
   12.54750061  157.29400635    1.63000000    2.51999998
   12.55055618  153.86399841    1.63000000    2.51999998
   12.55388927  147.94799805    1.63000000    2.51999998
   12.55527782  150.80499268    1.61000001    2.53999996
   12.55749989  137.67100525    1.61000001    2.53999996
   12.56083393  153.23500061    1.61000001    2.53999996
   12.56388950  162.38000488    1.60000002    2.53999996
   12.56722260  156.23599243    1.60000002    2.53999996
   12.57055569  160.07499695    1.60000002    2.53999996
   12.57361126  160.70100403    1.58000004    2.53999996
   12.57694435  154.67599487    1.58000004    2.53999996
   12.58027744  176.95599365    1.60000002    2.53999996
   12.58333302  163.00999451    1.60000002    2.53999996
   12.58666611  160.20399475    1.60000002    2.53999996
   12.58861065  164.29299927    1.58000004    2.53999996
   12.59027767  160.59500122    1.58000004    2.53999996
   12.59361076  160.83299255    1.58000004    2.53999996
   12.59666634  174.43699646    1.58000004    2.55999994
   12.60000038  169.43699646    1.58000004    2.53999996
   12.60333347  154.96099854    1.58000004    2.55999994
   12.60638905  163.07299805    1.58000004    2.53999996
   12.60972214  172.71699524    1.55999994    2.53999996
   12.61305618  158.90199280    1.55999994    2.53999996
   12.61611176  167.42300415    1.55999994    2.55999994
   12.61944485  173.19999695    1.55999994    2.55999994
   12.62222195  178.93099976    1.55999994    2.55999994
   12.62305546  166.25100708    1.55999994    2.55999994
   12.62638855  178.90100098    1.53999996    2.55999994
   12.62972260  168.33700562    1.51999998    2.55999994
   12.63277817  184.46400452    1.51999998    2.55999994
   12.63611126  158.68200684    1.51999998    2.55999994
   12.63944435  160.71299744    1.51999998    2.55999994
   12.64249992  155.80499268    1.50000000    2.57999992
   12.64583302  172.19900513    1.50000000    2.55999994
   12.64916611  182.45500183    1.50000000    2.55999994
   12.65222168  184.70799255    1.50000000    2.55999994
   12.65555477  180.54600525    1.48000002    2.55999994
   12.65583324  174.75799561    1.48000002    2.55999994
   12.65916634  153.53700256    1.50000000    2.57999992
   12.66249943  155.61300659    1.50000000    2.55999994
   12.66555500  184.42399597    1.50000000    2.57999992
   12.66888905  164.14300537    1.50000000    2.57999992
   12.67194462  175.46299744    1.48000002    2.57999992
   12.67527771  153.57899475    1.48000002    2.57999992
   12.67861176  157.03599548    1.48000002    2.57999992
   12.68166733  168.23199463    1.48000002    2.57999992
   12.68500042  163.60899353    1.48000002    2.57999992
   12.68833351  167.63499451    1.48000002    2.57999992
   12.68888855  148.26800537    1.48000002    2.57999992
   12.69166660  165.32099915    1.48000002    2.57999992
   12.69499969  178.27099609    1.48000002    2.57999992
   12.69833374  192.14700317    1.48000002    2.57999992
   12.70138836  199.83900452    1.48000002    2.57999992
   12.70472240  174.05200195    1.48000002    2.57999992
   12.70805550  169.84100342    1.48000002    2.57999992
   12.71111107  185.00399780    1.50000000    2.59999990
   12.71444416  189.28199768    1.50000000    2.57999992
   12.71749973  177.96000671    1.50000000    2.59999990
   12.72083282  186.94299316    1.50000000    2.59999990
   12.72222137  203.69200134    1.50000000    2.57999992
   12.72444439  184.16400146    1.50000000    2.57999992
   12.72777748  180.12399292    1.48000002    2.57999992
   12.73111057  166.68600464    1.48000002    2.57999992
   12.73416710  171.89500427    1.48000002    2.57999992
   12.73750019  181.53199768    1.48000002    2.57999992
   12.74083328  191.32299805    1.48000002    2.59999990
   12.74388885  178.62899780    1.48000002    2.57999992
   12.74722290  177.24400330    1.46000004    2.59999990
   12.75055599  196.23599243    1.44000006    2.59999990
   12.75361156  182.98500061    1.44000006    2.59999990
   12.75555515  180.38299561    1.44000006    2.59999990
   12.75722218  174.75500488    1.46000004    2.59999990
   12.76055527  177.36399841    1.46000004    2.59999990
   12.76388931  176.05200195    1.44000006    2.59999990
   12.76694393  161.90400696    1.44000006    2.59999990
   12.77027798  165.82299805    1.41999996    2.59999990
   12.77361107  173.20300293    1.41999996    2.59999990
   12.77666664  174.95300293    1.41999996    2.59999990
   12.77999973  168.31399536    1.41999996    2.59999990
   12.78333378  184.92300415    1.39999998    2.59999990
   12.78638935  176.87600708    1.39999998    2.61999989
   12.78888893  188.26699829    1.39999998    2.61999989
   12.79000092  173.66099548    1.39999998    2.61999989
   12.79333401  148.82800293    1.39999998    2.59999990
   12.79666710  167.17300415    1.38000000    2.61999989
   12.79972267  152.87399292    1.39999998    2.59999990
   12.80305576  177.53799438    1.39999998    2.61999989
   12.80611134  174.50999451    1.39999998    2.59999990
   12.80944443  159.19099426    1.39999998    2.59999990
   12.81277752  176.75900269    1.39999998    2.61999989
   12.81583309  155.42300415    1.39999998    2.61999989
   12.81916618  161.68600464    1.39999998    2.61999989
   12.82222176  156.25799561    1.38000000    2.61999989
   12.82277775  167.87500000    1.38000000    2.61999989
   12.82611084  164.60299683    1.38000000    2.61999989
   12.82944393  174.63800049    1.38000000    2.61999989
   12.83249950  164.54699707    1.38000000    2.61999989
   12.83583260  170.89900208    1.36000001    2.61999989
   12.83916664  152.59599304    1.36000001    2.61999989
   12.84222221  165.05499268    1.36000001    2.61999989
   12.84555531  165.36799622    1.36000001    2.61999989
   12.84888840  151.23500061    1.36000001    2.64000010
   12.85194492  154.30000305    1.36000001    2.64000010
   12.85527802  161.98500061    1.36000001    2.61999989
   12.85583401  159.63600159    1.38000000    2.64000010
   12.85916710  158.86599731    1.36000001    2.61999989
   12.86222267  135.65400696    1.36000001    2.64000010
   12.86555576  145.61199951    1.36000001    2.61999989
   12.86888885  151.22300720    1.34000003    2.61999989
   12.87194443  158.18600464    1.34000003    2.64000010
   12.87527752  158.33900452    1.34000003    2.61999989
   12.87833309  148.75599670    1.34000003    2.61999989
   12.88166714  158.11199951    1.34000003    2.64000010
   12.88500023  156.52900696    1.34000003    2.61999989
   12.88805580  183.60400391    1.34000003    2.64000010
   12.88916683  159.18899536    1.34000003    2.64000010
   12.89194393  162.16799927    1.34000003    2.64000010
   12.89499950  150.68400574    1.34000003    2.64000010
   12.89833355  166.79400635    1.33000004    2.64000010
   12.90138817  176.86999512    1.33000004    2.64000010
   12.90472221  160.01600647    1.34000003    2.64000010
   12.90805531  158.04100037    1.33000004    2.64000010
   12.91111088  156.30799866    1.33000004    2.64000010
   12.91444397  161.77999878    1.33000004    2.64000010
   12.91777802  172.12899780    1.33000004    2.61999989
   12.92083359  156.80799866    1.30999994    2.64000010
   12.92250061  155.97799683    1.30999994    2.64000010
   12.92472267  158.61099243    1.30999994    2.64000010
   12.92777824  167.32899475    1.30999994    2.64000010
   12.93138885  163.64799500    1.30999994    2.64000010
   12.93444443  157.39900208    1.30999994    2.64000010
   12.93777752  170.18499756    1.30999994    2.64000010
   12.94111156  170.62199402    1.30999994    2.66000009
   12.94416714  153.39999390    1.30999994    2.64000010
   12.94750023  164.19299316    1.30999994    2.64000010
   12.95055580  164.93400574    1.30999994    2.64000010
   12.95388889  148.68099976    1.30999994    2.66000009
   12.97166634  175.42900085    1.30999994    2.66000009
   12.97361088  162.35800171    1.28999996    2.66000009
   12.97694397  152.64100647    1.28999996    2.64000010
   12.98027706  155.69299316    1.28999996    2.66000009
   12.98333359  148.78500366    1.30999994    2.66000009
   12.98666668  152.34800720    1.28999996    2.66000009
   12.98972225  153.88999939    1.26999998    2.66000009
   12.99305534  155.63400269    1.26999998    2.66000009
   12.99638939  149.72300720    1.28999996    2.66000009
   12.99944496  164.72000122    1.26999998    2.66000009
   13.00305557  165.66900635    1.25000000    2.67000008
   13.00472260  160.07200623    1.26999998    2.66000009
   13.00666714  139.38299561    1.25000000    2.66000009
   13.00972176  162.19900513    1.25000000    2.66000009
   13.01305580  152.66499329    1.25000000    2.67000008
   13.01638889  146.61900330    1.25000000    2.66000009
   13.01944447  151.11000061    1.25000000    2.66000009
   13.02277756  153.13000488    1.25000000    2.66000009
   13.02611065  163.25500488    1.25000000    2.66000009
   13.02916622  157.98800659    1.25000000    2.67000008
   13.03249931  165.02299500    1.25000000    2.67000008
   13.03583336  160.47300720    1.25000000    2.67000008
   13.03805637  163.88400269    1.25000000    2.67000008
   13.03944492  160.46000671    1.25000000    2.67000008
   13.04277802  156.61999512    1.26999998    2.66000009
   13.04583359  154.72700500    1.26999998    2.66000009
   13.04916668  146.50199890    1.26999998    2.67000008
   13.05249977  157.30799866    1.26999998    2.67000008
   13.05555534  146.57400513    1.26999998    2.66000009
   13.05888939  155.83000183    1.26999998    2.67000008
   13.06222248  145.77699280    1.26999998    2.67000008
   13.06527805  153.66299438    1.28999996    2.66000009
   13.06861115  154.66799927    1.26999998    2.67000008
   13.07138920  155.33099365    1.26999998    2.67000008
   13.07222176  151.09300232    1.26999998    2.67000008
   13.07555580  170.75999451    1.26999998    2.67000008
   13.07861137  154.31799316    1.28999996    2.67000008
   13.08194447  158.69599915    1.28999996    2.67000008
   13.08527756  154.24899292    1.28999996    2.67000008
   13.08833313  145.33399963    1.28999996    2.67000008
   13.09166622  151.00399780    1.28999996    2.67000008
   13.09472179  151.28900146    1.28999996    2.67000008
   13.09805489  153.67700195    1.28999996    2.67000008
   13.10138893  148.35499573    1.28999996    2.67000008
   13.10444450  129.44000244    1.28999996    2.67000008
   13.10500050  137.84399414    1.28999996    2.67000008
   13.10833359  156.59599304    1.30999994    2.67000008
   13.11166668  141.80499268    1.28999996    2.67000008
   13.11500072  157.05499268    1.30999994    2.66000009
   13.11805534  139.53900146    1.33000004    2.67000008
   13.12138939  152.86399841    1.33000004    2.67000008
   13.12472248  151.07699585    1.33000004    2.67000008
   13.12777805  150.59899902    1.33000004    2.67000008
   13.13111115  148.52400208    1.34000003    2.67000008
   13.13444424  153.03999329    1.34000003    2.67000008
   13.13749981  137.83099365    1.34000003    2.67000008
   13.13833332  146.05599976    1.34000003    2.67000008
   13.14111137  155.45100403    1.36000001    2.67000008
   13.14444447  155.94099426    1.36000001    2.67000008
   13.14750004  163.00000000    1.36000001    2.67000008
   13.15083313  158.15800476    1.36000001    2.67000008
   13.15416622  153.33999634    1.36000001    2.67000008
   13.15722179  152.79800415    1.34000003    2.67000008
   13.16055489  155.27499390    1.34000003    2.66000009
   13.16388893  160.95300293    1.34000003    2.66000009
   13.16694450  164.70799255    1.34000003    2.67000008
   13.17027855  146.67700195    1.34000003    2.69000006
   13.17166710  146.03399658    1.34000003    2.69000006
   13.17388916  157.36000061    1.34000003    2.67000008
   13.17722225  153.42500305    1.33000004    2.67000008
   13.18055630  162.69000244    1.33000004    2.67000008
   13.18361092  159.53300476    1.33000004    2.67000008
   13.18694496  156.64599609    1.30999994    2.69000006
   13.19027805  150.35600281    1.30999994    2.67000008
   13.19333363  152.11199951    1.30999994    2.67000008
   13.19666672  140.40899658    1.30999994    2.67000008
   13.19999981  152.26600647    1.28999996    2.69000006
   13.20305538  156.59300232    1.26999998    2.69000006
   13.20527744  152.28599548    1.26999998    2.67000008
   13.20666695  146.15199280    1.26999998    2.67000008
   13.21000004  153.47999573    1.26999998    2.67000008
   13.21333313  146.93800354    1.26999998    2.69000006
   13.21638870  154.73300171    1.26999998    2.69000006
   13.21972179  148.76600647    1.26999998    2.69000006
   13.22277737  155.81599426    1.28999996    2.69000006
   13.22611046  161.05900574    1.28999996    2.69000006
   13.22944355  148.90699768    1.28999996    2.69000006
   13.23249912  160.30900574    1.28999996    2.69000006
   13.23583317  168.13600159    1.28999996    2.69000006
   13.23861122  157.23599243    1.28999996    2.69000006
   13.23944473  156.89100647    1.28999996    2.69000006
   13.24277782  150.89199829    1.28999996    2.69000006
   13.24583340  158.24099731    1.30999994    2.69000006
   13.24916649  153.66700745    1.33000004    2.69000006
   13.25249958  157.22000122    1.33000004    2.69000006
   13.25555515  149.65199280    1.33000004    2.69000006
   13.25888920  158.09100342    1.33000004    2.69000006
   13.26222229  164.83500671    1.30999994    2.69000006
   13.26527786  163.17999268    1.33000004    2.69000006
   13.26861095  161.38499451    1.33000004    2.67000008
   13.27194405  153.70700073    1.33000004    2.69000006
   13.27222157  155.75700378    1.34000003    2.69000006
   13.27555561  145.46099854    1.33000004    2.71000004
   13.27888870  158.01899719    1.33000004    2.69000006
   13.28194427  153.26400757    1.33000004    2.69000006
   13.28527832  145.09800720    1.33000004    2.69000006
   13.28833389  160.28900146    1.33000004    2.69000006
   13.29166698  161.41700745    1.34000003    2.69000006
   13.29500008  145.90600586    1.34000003    2.71000004
   13.29833412  152.86599731    1.34000003    2.69000006
   13.30138874  144.73699951    1.36000001    2.71000004
   13.30472279  133.15400696    1.34000003    2.69000006
   13.30527782  147.05200195    1.34000003    2.69000006
   13.30833340  155.10099792    1.34000003    2.69000006
   13.31138897  149.67300415    1.34000003    2.69000006
   13.31472206  157.22000122    1.36000001    2.71000004
   13.31805515  158.95199585    1.34000003    2.69000006
   13.32111073  154.14599609    1.34000003    2.69000006
   13.32444477  131.12399292    1.36000001    2.69000006
   13.32777786  142.38099670    1.36000001    2.69000006
   13.33083344  151.59199524    1.36000001    2.69000006
   13.33416653  157.32200623    1.36000001    2.69000006
   13.33749962  152.26100159    1.34000003    2.69000006
   13.33861065  132.88400269    1.34000003    2.69000006
   13.34111118  142.76199341    1.34000003    2.71000004
   13.34416676  153.36399841    1.33000004    2.71000004
   13.34749985  151.41400146    1.34000003    2.71000004
   13.35083389  146.71299744    1.34000003    2.71000004
   13.35388947  157.21899414    1.34000003    2.71000004
   13.35722256  155.22700500    1.33000004    2.71000004
   13.36055565  137.19599915    1.30999994    2.71000004
   13.36361122  141.95599365    1.28999996    2.69000006
   13.36694431  143.66400146    1.30999994    2.71000004
   13.37027836  155.47799683    1.28999996    2.69000006
   13.37194443  149.99600220    1.28999996    2.71000004
   13.37388897  145.33200073    1.28999996    2.71000004
   13.37694454  157.70799255    1.30999994    2.71000004
   13.38027763  150.24899292    1.28999996    2.71000004
   13.38361073  158.45599365    1.28999996    2.71000004
   13.38666630  160.31599426    1.28999996    2.71000004
   13.39000034  161.60699463    1.28999996    2.71000004
   13.39305496  141.20399475    1.28999996    2.69000006
   13.39638901  156.10299683    1.28999996    2.73000002
   13.39972210  147.19000244    1.30999994    2.71000004
   13.40277767  144.99299622    1.33000004    2.71000004
   13.40527725  153.30499268    1.34000003    2.71000004
   13.40666676  149.71600342    1.34000003    2.71000004
   13.40972137  145.48399353    1.36000001    2.73000002
   13.41305542  153.28399658    1.34000003    2.73000002
   13.41638851  172.23500061    1.36000001    2.71000004
   13.41944504  157.96200562    1.36000001    2.71000004
   13.42277813  149.21699524    1.38000000    2.71000004
   13.42583370  141.73300171    1.39999998    2.73000002
   13.42916679  138.22500610    1.39999998    2.71000004
   13.43249989  136.52400208    1.41999996    2.71000004
   13.43555546  149.50599670    1.41999996    2.71000004
   13.43861103  157.23599243    1.39999998    2.71000004
   13.43944454  158.02099609    1.39999998    2.71000004
   13.44277763  140.26199341    1.41999996    2.73000002
   13.44583321  151.30799866    1.46000004    2.71000004
   13.44916630  151.39700317    1.46000004    2.71000004
   13.45222187  140.31300354    1.46000004    2.71000004
   13.45555496  144.77799988    1.46000004    2.71000004
   13.45888901  147.67599487    1.48000002    2.71000004
   13.46194458  138.00900269    1.46000004    2.71000004
   13.46527767  142.14199829    1.46000004    2.71000004
   13.46861076  154.18699646    1.46000004    2.71000004
   13.47166634  151.91499329    1.44000006    2.71000004
   13.47222137  165.54800415    1.44000006    2.71000004
   13.47555542  133.59399414    1.44000006    2.71000004
   13.47888851  156.00399780    1.44000006    2.73000002
   13.48194408  168.04600525    1.44000006    2.71000004
   13.48527813  171.70599365    1.44000006    2.71000004
   13.48861122  154.68499756    1.44000006    2.71000004
   13.49166679  160.24400330    1.44000006    2.73000002
   13.49499989  178.21899414    1.44000006    2.71000004
   13.49833393  172.61799622    1.44000006    2.73000002
   13.50166702  155.49299622    1.41999996    2.71000004
   13.50500011  202.01499939    1.41999996    2.71000004
   13.50555515  222.19799805    1.41999996    2.71000004
   13.50861073  206.45399475    1.41999996    2.73000002
   13.51194477  210.82099915    1.41999996    2.73000002
   13.51500034  204.75999451    1.41999996    2.73000002
   13.51833344  218.47500610    1.39999998    2.71000004
   13.52166653  221.61599731    1.39999998    2.71000004
   13.52472210  211.85000610    1.38000000    2.71000004
   13.52805519  195.31399536    1.39999998    2.71000004
   13.53111076  207.16799927    1.39999998    2.75000000
   13.53444481  188.63600159    1.39999998    2.71000004
   13.53777790  232.59500122    1.39999998    2.73000002
   13.53888893  206.29800415    1.39999998    2.71000004
   13.54138947  208.38000488    1.39999998    2.71000004
   13.54472256  251.03199768    1.38000000    2.73000002
   13.54777813  246.52799988    1.38000000    2.73000002
   13.55111122  243.27200317    1.39999998    2.71000004
   13.55444431  276.37899780    1.39999998    2.73000002
   13.55749989  259.31799316    1.39999998    2.73000002
   13.56083393  231.64399719    1.41999996    2.73000002
   13.56388950  321.74499512    1.41999996    2.73000002
   13.56722260  294.01300049    1.41999996    2.73000002
   13.57055569  292.87100220    1.41999996    2.73000002
   13.57222176  284.88000488    1.41999996    2.71000004
   13.57416630  291.44400024    1.41999996    2.71000004
   13.57750034  347.75698853    1.41999996    2.71000004
   13.58055592  308.34399414    1.44000006    2.73000002
   13.58388901  350.48001099    1.44000006    2.73000002
   13.58722210  359.08999634    1.46000004    2.73000002
   13.59027767  236.95399475    1.46000004    2.71000004
   13.59361076  308.67401123    1.44000006    2.73000002
   13.59666634  390.03601074    1.46000004    2.73000002
   13.60000038  425.86499023    1.46000004    2.73000002
   15.31361103  291.44400024    1.41999996    2.71000004
   15.31361103  347.75698853    1.41999996    2.71000004
   15.31361103  308.34399414    1.44000006    2.73000002
   15.31388950  350.48001099    1.44000006    2.73000002
   15.31388950  359.08999634    1.46000004    2.73000002
   15.31416702  236.95399475    1.46000004    2.71000004
   15.31416702  308.67401123    1.44000006    2.73000002
   15.31416702  390.03601074    1.46000004    2.73000002
   15.31444454  425.86499023    1.46000004    2.73000002
   15.41972256   -1.00000000   -1.00000000   -1.00000000
   15.63166714   -1.00000000   -1.00000000   -1.00000000
   15.79777813   -1.00000000   -1.00000000   -1.00000000
   15.87333393   74.49150085    1.11000001    2.86999989
   15.87666702  149.16299438    1.11000001    2.86999989
   15.88000011  145.35899353    1.11000001    2.86999989
   15.88333321  142.37199402    1.13000000    2.86999989
   15.88666630  132.65800476    1.13000000    2.86999989
   15.88972187  143.37899780    1.13000000    2.86999989
   15.89305496  141.19999695    1.14999998    2.89000010
   15.89638901  140.46200562    1.14999998    2.86999989
   15.89944458  137.60000610    1.19000006    2.86999989
   15.90277767  146.70199585    1.19000006    2.84999990
   15.90611076  135.87300110    1.21000004    2.86999989
   15.90666676  138.16799927    1.21000004    2.89000010
   15.90972137  125.77700043    1.26999998    2.86999989
   15.91305542  139.03700256    1.25000000    2.86999989
   15.91611099  131.65899658    1.25000000    2.86999989
   15.91944504  144.70899963    1.23000002    2.86999989
   15.92277813  157.65699768    1.23000002    2.86999989
   15.92583370  139.54299927    1.23000002    2.84999990
   15.92916679  145.75100708    1.26999998    2.86999989
   15.93249989  133.06199646    1.26999998    2.86999989
   15.93555546  148.52999878    1.33000004    2.86999989
   15.93888855  142.78300476    1.21000004    2.86999989
   15.94000053  134.69400024    1.21000004    2.86999989
   15.94250011  142.36099243    1.19000006    2.86999989
   15.94583321  137.52099609    1.19000006    2.86999989
   15.94888878  144.02999878    1.19000006    2.86999989
   15.95222187  135.87800598    1.19000006    2.89000010
   15.95555496  145.72099304    1.19000006    2.84999990
   15.95861053  144.08099365    1.21000004    2.86999989
   15.96194458  137.29600525    1.21000004    2.86999989
   15.96527767  137.09800720    1.21000004    2.86999989
   15.96861076  142.47500610    1.23000002    2.86999989
   15.97166634  144.10800171    1.23000002    2.86999989
   15.97333336  147.08900452    1.23000002    2.86999989
   15.97527695  143.62800598    1.23000002    2.86999989
   15.97861099  146.70899963    1.23000002    2.86999989
   15.98166656  151.98199463    1.25000000    2.86999989
   15.98500061  146.18499756    1.25000000    2.86999989
   15.98833370  136.09300232    1.25000000    2.86999989
   15.99138927  141.60400391    1.25000000    2.86999989
   15.99472237  154.61700439    1.25000000    2.86999989
   15.99805546  147.35600281    1.23000002    2.86999989
   16.00138855  140.07699585    1.25000000    2.84999990
   16.00499916  153.48899841    1.23000002    2.86999989
   16.00749969  148.01800537    1.23000002    2.86999989
   16.00972176  144.05900574    1.21000004    2.86999989
   16.01333427  137.21299744    1.23000002    2.86999989
   16.01666641  140.74000549    1.21000004    2.86999989
   16.02027702  145.00599670    1.21000004    2.86999989
   16.02361107  147.23500061    1.19000006    2.86999989
   16.02722168  149.31100464    1.19000006    2.86999989
   16.03083229  162.07000732    1.21000004    2.89000010
   16.03416634  146.24200439    1.21000004    2.89000010
   16.03777695  137.88099670    1.23000002    2.89000010
   16.04083252  152.60400391    1.25000000    2.86999989
   16.04249954  151.68099976    1.25000000    2.86999989
   16.04611015  148.54699707    1.23000002    2.89000010
   16.04944420  147.46000671    1.23000002    2.86999989
   16.05305481  139.32400513    1.21000004    2.86999989
   16.05638885  157.67300415    1.21000004    2.86999989
   16.05999947  155.29699707    1.19000006    2.86999989
   16.06333351  141.19900513    1.16999996    2.86999989
   16.06694603  144.62800598    1.14999998    2.86999989
   16.07027817  140.72000122    1.13000000    2.89000010
   16.07416725  155.76199341    1.11000001    2.89000010
   16.07500076  142.47900391    1.11000001    2.89000010
   16.07833481  145.25199890    1.11000001    2.89000010
   16.08194542  155.61300659    1.09000003    2.89000010
   16.08527756  127.16300201    1.09000003    2.86999989
   16.08889008  148.18200684    1.09000003    2.86999989
   16.09222221  152.14999390    1.09000003    2.86999989
   16.09583473  140.88099670    1.09000003    2.89000010
   16.09916687  154.41099548    1.07000005    2.89000010
   16.10277748  142.37300110    1.05999994    2.86999989
   16.10611153  165.44599915    1.05999994    2.89000010
   16.10750008  156.96499634    1.05999994    2.89000010
   16.11083412  150.33900452    1.05999994    2.89000010
   16.11444473  145.80799866    1.05999994    2.89000010
   16.11777878  153.55700684    1.05999994    2.89000010
   16.12111092  133.12399292    1.01999998    2.89000010
   16.12444496  134.10299683    1.01999998    2.89000010
   16.12750053  133.43699646    1.00000000    2.89000010
   16.13083267  142.41900635    0.98000002    2.91000009
   16.13416672  143.08599854    0.98000002    2.89000010
   16.13722229  142.36099243    0.95999998    2.91000009
   16.13999939  139.82499695    0.95999998    2.91000009
   16.14111137  135.51499939    0.95999998    2.91000009
   16.14444351  146.63099670    0.95999998    2.91000009
   16.14749908  143.58200073    0.95999998    2.91000009
   16.15083313  151.77600098    0.94000000    2.91000009
   16.15416718  143.99699402    0.95999998    2.89000010
   16.15722275  151.42100525    0.98000002    2.91000009
   16.16055489  159.82499695    0.98000002    2.91000009
   16.16361046  148.24400330    0.98000002    2.89000010
   16.16694450  147.98300171    0.98000002    2.89000010
   16.17027664  145.49400330    1.00000000    2.89000010
   16.17333221  142.58000183    0.98000002    2.91000009
   16.17388916  139.61700439    0.98000002    2.89000010
   16.17722130  134.52000427    0.98000002    2.89000010
   16.18027687  142.47700500    0.98000002    2.89000010
   16.18361092  142.35099792    0.98000002    2.89000010
   16.18694305  138.15299988    0.95999998    2.91000009
   16.18999863  135.88499451    0.98000002    2.86999989
   16.19333267  126.53800201    0.95999998    2.89000010
   16.19666672  130.17599487    0.95999998    2.89000010
   16.19972038  140.64999390    0.95999998    2.89000010
   16.20305634  133.56199646    0.95999998    2.89000010
   16.20639038  133.19299316    0.95999998    2.89000010
   16.20694542  135.11199951    0.95999998    2.89000010
   16.20972252  135.78900146    0.95999998    2.89000010
   16.21305656  129.47799683    0.94000000    2.91000009
   16.21638870  128.41200256    0.94000000    2.91000009
   16.21944427  138.64500427    0.92000002    2.89000010
   16.22277832  140.92700195    0.92000002    2.89000010
   16.22583389  139.46200562    0.92000002    2.91000009
   16.22916794  129.07699585    0.94000000    2.91000009
   16.23250008  138.33200073    0.92000002    2.91000009
   16.23555565  139.41499329    0.92000002    2.91000009
   16.23888969  140.26600647    0.92000002    2.91000009
   16.24027824  139.17900085    0.94000000    2.91000009
   16.24250031  135.02299500    0.95999998    2.91000009
   16.24583435  140.53700256    0.95999998    2.89000010
   16.24916649  137.55799866    1.00000000    2.91000009
   16.25222206  136.83299255    1.01999998    2.91000009
   16.25555611  149.30400085    1.01999998    2.91000009
   16.25888824  129.99800110    1.01999998    2.91000009
   16.26194382  147.15400696    1.01999998    2.89000010
   16.26527786  129.05700684    1.01999998    2.89000010
   16.26861000  129.02999878    1.03999996    2.89000010
   16.27166557  150.13800049    1.03999996    2.89000010
   16.27361107  129.46600342    1.03999996    2.89000010
   16.27527809  135.65600586    1.05999994    2.89000010
   16.27861023  136.25399780    1.05999994    2.89000010
   16.28194427  130.36900330    1.05999994    2.86999989
   16.28499985  138.33500671    1.03999996    2.91000009
   16.28833199  138.32800293    1.03999996    2.89000010
   16.29166603  129.29100037    1.03999996    2.89000010
   16.29472160  141.79499817    1.05999994    2.86999989
   16.29805565  132.27000427    1.05999994    2.86999989
   16.30138779  150.56100464    1.05999994    2.89000010
   16.30444336  139.13999939    1.05999994    2.89000010
   16.30694389  138.71899414    1.07000005    2.89000010
   16.30805397  149.06199646    1.09000003    2.89000010
   16.31138802  152.25399780    1.11000001    2.89000010
   16.31472206  123.01999664    1.11000001    2.89000010
   16.31777954  139.33399963    1.13000000    2.86999989
   16.32111168  120.36100006    1.13000000    2.91000009
   16.32416725  128.16799927    1.13000000    2.89000010
   16.32750130  132.05700684    1.13000000    2.89000010
   16.33083344  146.48500061    1.14999998    2.89000010
   16.33388901  146.08399963    1.14999998    2.89000010
   16.33722305  131.99400330    1.13000000    2.86999989
   16.34027863  128.08599854    1.13000000    2.89000010
   16.34083366  142.11099243    1.14999998    2.89000010
   16.34416771  132.72399902    1.13000000    2.89000010
   16.34749985  134.01800537    1.13000000    2.89000010
   16.35055542  132.46400452    1.13000000    2.86999989
   16.35388947  117.40000153    1.13000000    2.89000010
   16.35694504  123.37999725    1.13000000    2.89000010
   16.36027908  132.25399780    1.11000001    2.89000010
   16.36361122  146.65600586    1.09000003    2.89000010
   16.36666679  138.49200439    1.07000005    2.89000010
   16.37000084  127.40200043    1.09000003    2.89000010
   16.37333298  131.92999268    1.01999998    2.89000010
   16.37388992  136.92599487    1.01999998    2.89000010
   16.37694550  135.98699951    1.03999996    2.89000010
   16.38027763  137.36999512    1.01999998    2.89000010
   16.38361168  141.94099426    1.00000000    2.89000010
   16.38666725  138.71699524    0.98000002    2.89000010
   16.38999939  134.66000366    0.94000000    2.89000010
   16.39333344  126.40799713    0.92000002    2.89000010
   16.39638901  129.18299866    0.89999998    2.89000010
   16.39972115  129.07499695    0.88000000    2.91000009
   16.40277672  133.74800110    0.88000000    2.91000009
   16.40611076  125.16899872    0.81999999    2.91000009
   16.40722275  147.00199890    0.83999997    2.91000009
   16.40972137  129.82800293    0.81999999    2.91000009
   16.41305542  140.75399780    0.81999999    2.91000009
   16.41638756  124.72799683    0.81999999    2.91000009
   16.41944313  126.02999878    0.81999999    2.89000010
   16.42277718  131.80999756    0.81999999    2.91000009
   16.42611122  128.81900024    0.81999999    2.91000009
   16.42916679  141.95599365    0.81999999    2.91000009
   16.43249893  135.75700378    0.81999999    2.91000009
   16.43583298  132.55099487    0.81999999    2.91000009
   16.43888855  126.24099731    0.83999997    2.91000009
   16.44055557  130.96000671    0.83999997    2.91000009
   16.44249916  134.25199890    0.83999997    2.91000009
   16.44583321  132.40199280    0.81999999    2.91000009
   16.44916534  132.47999573    0.80000001    2.89000010
   16.45250130  122.38200378    0.80000001    2.93000007
   16.45555687  126.90399933    0.80000001    2.91000009
   16.45888901  116.83300018    0.80000001    2.91000009
   16.46194458  134.69099426    0.79000002    2.91000009
   16.46527863  128.61799622    0.79000002    2.93000007
   16.46861076  132.65600586    0.79000002    2.93000007
   16.47166634  140.57800293    0.76999998    2.91000009
   16.47389030  139.77200317    0.76999998    2.91000009
   16.47527885  134.13099670    0.76999998    2.91000009
   16.47861099  126.40899658    0.76999998    2.91000009
   16.48194504  131.96400452    0.76999998    2.93000007
   16.48500061  125.77899933    0.79000002    2.91000009
   16.48833275  131.87500000    0.79000002    2.91000009
   16.49166679  134.21800232    0.79000002    2.91000009
   16.49472237  131.58799744    0.80000001    2.91000009
   16.49805641  137.00799561    0.80000001    2.93000007
   16.50138855  143.87199402    0.80000001    2.91000009
   16.50499916  130.93699646    0.80000001    2.91000009
   16.50722313  125.45200348    0.81999999    2.91000009
   16.50861168  136.94400024    0.81999999    2.91000009
   16.51194382  129.75300598    0.81999999    2.93000007
   16.51527786  135.71899414    0.81999999    2.91000009
   16.51833344  143.61500549    0.83999997    2.93000007
   16.52166557  135.77299500    0.83999997    2.91000009
   16.52499962  137.15899658    0.83999997    2.91000009
   16.52805519  118.42099762    0.86000001    2.91000009
   16.53138924  126.17500305    0.86000001    2.91000009
   16.53472137  127.62400055    0.86000001    2.91000009
   16.53777695  139.39599609    0.86000001    2.93000007
   16.54055595  129.98599243    0.86000001    2.89000010
   16.54166603  137.46200562    0.86000001    2.91000009
   16.54472160  137.27099609    0.86000001    2.89000010
   16.54805565  132.20199585    0.88000000    2.89000010
   16.55111122  140.82400513    0.88000000    2.91000009
   16.55444336  142.47099304    0.88000000    2.91000009
   16.55777740  134.74800110    0.88000000    2.91000009
   16.56083298  145.38600159    0.88000000    2.91000009
   16.56416512  132.83700562    0.88000000    2.91000009
   16.56750107  141.09899902    0.89999998    2.91000009
   16.57055664  140.08599854    0.88000000    2.91000009
   16.57389069  148.55299377    0.88000000    2.91000009
   16.57444572  137.20599365    0.88000000    2.91000009
   16.57750130  143.32699585    0.88000000    2.89000010
   16.58083344  129.75999451    0.88000000    2.91000009
   16.58416748  145.68299866    0.88000000    2.91000009
   16.58722305  133.96099854    0.88000000    2.91000009
   16.59055710  146.22200012    0.86000001    2.89000010
   16.59388924  131.78300476    0.88000000    2.91000009
   16.59694481  136.85200500    0.86000001    2.91000009
   16.60027885  139.08799744    0.86000001    2.91000009
   16.60333443  143.71800232    0.88000000    2.89000010
   16.60666656  152.25199890    0.88000000    2.91000009
   16.60722351  135.13200378    0.88000000    2.91000009
   16.61027908  138.39599609    0.88000000    2.89000010
   16.61361122  129.72200012    0.88000000    2.91000009
   16.61666679  136.07099915    0.88000000    2.91000009
   16.62000084  129.45399475    0.88000000    2.91000009
   16.62305641  125.48200226    0.88000000    2.91000009
   16.62638855  136.37800598    0.88000000    2.91000009
   16.62972260  139.92599487    0.88000000    2.91000009
   16.63277817  139.28399658    0.89999998    2.89000010
   16.63611031  125.41400146    0.89999998    2.89000010
   16.63944435  130.86700439    0.89999998    2.91000009
   16.64055634  138.54699707    0.89999998    2.91000009
   16.64305496  131.77299500    0.89999998    2.91000009
   16.64638901  138.48800659    0.89999998    2.91000009
   16.64944458  135.12899780    0.89999998    2.89000010
   16.65277672  144.32200623    0.89999998    2.91000009
   16.65583229  149.04400635    0.88000000    2.91000009
   16.65916634  150.52900696    0.88000000    2.91000009
   16.66250038  160.65100098    0.88000000    2.91000009
   16.66583252  149.88499451    0.86000001    2.91000009
   16.66888809  151.42900085    0.86000001    2.91000009
   16.67222214  160.63999939    0.86000001    2.91000009
   16.67388916  154.59399414    0.83999997    2.91000009
   16.67583275  159.49699402    0.83999997    2.91000009
   16.67916679  136.46400452    0.81999999    2.91000009
   16.68222237  136.33299255    0.80000001    2.91000009
   16.68555450  158.16600037    0.81999999    2.91000009
   16.68888855  135.92999268    0.80000001    2.91000009
   16.69194412  139.78799438    0.76999998    2.91000009
   16.69527626  145.08000183    0.76999998    2.91000009
   16.69861031  142.84199524    0.75000000    2.91000009
   16.70166779  139.09300232    0.75000000    2.91000009
   16.70499992  135.69900513    0.79000002    2.93000007
   16.70722389  128.34100342    0.79000002    2.93000007
   16.70861244  136.42599487    0.79000002    2.91000009
   16.71166801  139.78700256    0.79000002    2.93000007
   16.71500015  129.00999451    0.79000002    2.91000009
   16.71833420  129.84399414    0.79000002    2.91000009
   16.72138977  141.10099792    0.80000001    2.91000009
   16.72472191  135.25599670    0.79000002    2.91000009
   16.72805595  135.78900146    0.79000002    2.91000009
   16.73111153  132.42900085    0.79000002    2.91000009
   16.73444557  131.40400696    0.79000002    2.91000009
   16.73777771  134.77000427    0.79000002    2.91000009
   16.74055672  131.42300415    0.79000002    2.91000009
   16.74138832  126.20999908    0.79000002    2.91000009
   16.74444389  127.13999939    0.79000002    2.91000009
   16.74777794  135.95700073    0.76999998    2.91000009
   16.75111198  140.28100586    0.79000002    2.91000009
   16.75416756  135.36199951    0.76999998    2.93000007
   16.75749969  132.35200500    0.76999998    2.93000007
   16.76083374  134.86700439    0.76999998    2.91000009
   16.76388931  137.69799805    0.79000002    2.93000007
   16.76722145  133.60400391    0.79000002    2.91000009
   16.77055550  134.34700012    0.79000002    2.91000009
   16.77361107  133.04600525    0.79000002    2.91000009
   16.77416611  128.94799805    0.79000002    2.91000009
   16.77750015  143.96899414    0.79000002    2.91000009
   16.78083229  133.39599609    0.80000001    2.91000009
   16.78416634  131.55599976    0.80000001    2.91000009
   16.78722191  134.68800354    0.80000001    2.91000009
   16.79055595  136.19000244    0.79000002    2.91000009
   16.79388809  133.20700073    0.79000002    2.91000009
   16.79694366  133.75900269    0.79000002    2.91000009
   16.80027771  136.83299255    0.79000002    2.91000009
   16.80360985  138.48300171    0.79000002    2.91000009
   16.80666542  136.17999268    0.79000002    2.91000009
   16.80749893  138.10200500    0.79000002    2.93000007
   16.81027794  149.70199585    0.79000002    2.91000009
   16.81361008  130.84800720    0.80000001    2.91000009
   16.81694603  143.54100037    0.80000001    2.91000009
   16.82000160  139.13699341    0.81999999    2.91000009
   16.82333374  142.44799805    0.81999999    2.91000009
   16.82638931  137.28300476    0.81999999    2.91000009
   16.82972336  139.96800232    0.86000001    2.89000010
   16.83305550  137.54699707    0.86000001    2.91000009
   16.83611107  144.86599731    0.86000001    2.91000009
   16.83944511  141.12199402    0.86000001    2.91000009
   16.84083366  138.29299927    0.88000000    2.91000009
   16.84305573  141.23500061    0.86000001    2.91000009
   16.84638977  142.25199890    0.86000001    2.91000009
   16.84944534  147.73100281    0.86000001    2.91000009
   16.85277748  148.10200500    0.86000001    2.91000009
   16.85611153  140.83500671    0.86000001    2.91000009
   16.85916710  138.77900696    0.86000001    2.91000009
   16.86250114  133.37399292    0.88000000    2.91000009
   16.86583328  139.91799927    0.88000000    2.91000009
   16.86888885  132.75799561    0.86000001    2.91000009
   16.87222290  132.87699890    0.86000001    2.93000007
   16.89027786  142.69099426    0.83999997    2.91000009
   16.89194489  137.28599548    0.83999997    2.89000010
   16.89527702  135.85299683    0.83999997    2.89000010
   16.89861107  131.93899536    0.83999997    2.91000009
   16.90166664  131.68400574    0.81999999    2.91000009
   16.90499878  128.75500488    0.81999999    2.91000009
   16.90833282  132.63699341    0.81999999    2.91000009
   16.91138840  130.01800537    0.81999999    2.91000009
   16.91472244  133.97700500    0.83999997    2.91000009
   16.91805458  131.52999878    0.83999997    2.91000009
   16.92111015  135.15100098    0.83999997    2.91000009
   16.92333221  129.95300293    0.83999997    2.89000010
   16.92472076  133.49699402    0.83999997    2.89000010
   16.92805481  135.54600525    0.83999997    2.91000009
   16.93111038  143.18400574    0.83999997    2.93000007
   16.93444443  142.77400208    0.83999997    2.91000009
   16.93777657  133.56199646    0.83999997    2.91000009
   16.94083214  129.50000000    0.86000001    2.91000009
   16.94416618  136.30099487    0.88000000    2.91000009
   16.94749832  134.56700134    0.88000000    2.91000009
   16.95055580  132.60200500    0.88000000    2.91000009
   16.95388985  134.56599426    0.89999998    2.91000009
   16.95694542  137.22999573    0.88000000    2.91000009
   16.95750046  138.69900513    0.88000000    2.91000009
   16.96083450  138.59199524    0.88000000    2.91000009
   16.96416664  143.87500000    0.89999998    2.89000010
   16.96722221  129.19500732    0.89999998    2.91000009
   16.97055626  125.09899902    0.89999998    2.91000009
   16.97361183  115.20800018    0.89999998    2.91000009
   16.97694588  128.58099365    0.89999998    2.91000009
   16.98027802  132.07800293    0.89999998    2.91000009
   16.98333359  127.46900177    0.89999998    2.89000010
   16.98666763  132.87899780    0.88000000    2.91000009
   16.98999977  126.38300323    0.89999998    2.91000009
   16.99055672  135.06599426    0.89999998    2.91000009
   16.99388885  139.80099487    0.89999998    2.91000009
   16.99694443  131.25700378    0.92000002    2.91000009
   17.00055504  129.60600281    0.92000002    2.91000009
   17.00388908  135.10499573    0.94000000    2.91000009
   17.00694466  126.82700348    0.95999998    2.91000009
   17.01027870  135.03799438    0.98000002    2.91000009
   17.01361084  123.44599915    0.98000002    2.91000009
   17.01666641  132.16000366    0.98000002    2.89000010
   17.02000046  134.96699524    1.05999994    2.91000009
   17.02333260  126.35700226    1.07000005    2.89000010
   17.02388954  132.02900696    1.07000005    2.89000010
   17.02694511  128.31399536    1.07000005    2.91000009
   17.03000069  127.83000183    1.11000001    2.89000010
   17.03333282  121.86000061    1.13000000    2.91000009
   17.03638840  118.69999695    1.13000000    2.89000010
   17.03972244  117.58499908    1.14999998    2.91000009
   17.04305458  119.74600220    1.14999998    2.89000010
   17.04611015  124.29199982    1.16999996    2.89000010
   17.04944420  127.13099670    1.16999996    2.89000010
   17.05277634  120.86599731    1.16999996    2.89000010
   17.05583191  127.96600342    1.16999996    2.91000009
   17.05722237  128.23399353    1.16999996    2.91000009
   17.05972099  127.63800049    1.16999996    2.89000010
   17.06277657  127.56600189    1.21000004    2.91000009
   17.06611061  127.48300171    1.21000004    2.89000010
   17.06944466  129.91600037    1.21000004    2.89000010
   17.07250023  131.69200134    1.21000004    2.89000010
   17.07583427  126.71099854    1.21000004    2.89000010
   17.07916832  132.25799561    1.23000002    2.91000009
   17.08222389  125.98799896    1.23000002    2.89000010
   17.08555603  134.86199951    1.23000002    2.89000010
   17.08889008  130.29600525    1.23000002    2.89000010
   17.09055710  130.36500549    1.25000000    2.89000010
   17.09250069  137.69599915    1.26999998    2.89000010
   17.09555626  127.06199646    1.26999998    2.91000009
   17.09889030  122.57900238    1.26999998    2.89000010
   17.10222244  123.88700104    1.26999998    2.89000010
   17.10527802  116.97399902    1.26999998    2.89000010
   17.10861206  126.84400177    1.25000000    2.91000009
   17.11194420  131.69500732    1.25000000    2.91000009
   17.11499977  143.53700256    1.25000000    2.89000010
   17.11833382  122.85600281    1.25000000    2.91000009
   17.12166595  128.17599487    1.25000000    2.89000010
   17.12388992  131.43899536    1.25000000    2.89000010
   17.12527847  131.06399536    1.25000000    2.91000009
   17.12833405  134.20300293    1.25000000    2.91000009
   17.13166618  129.30200195    1.23000002    2.89000010
   17.13500023  139.16499329    1.23000002    2.89000010
   17.13805580  132.29600525    1.23000002    2.91000009
   17.14138794  134.84599304    1.23000002    2.91000009
   17.14472198  122.38700104    1.23000002    2.89000010
   17.14777756  137.49600220    1.25000000    2.89000010
   17.15111160  138.76400757    1.25000000    2.89000010
   17.15416718  150.05999756    1.25000000    2.91000009
   17.15722275  146.61199951    1.25000000    2.89000010
   17.15805435  142.96200562    1.25000000    2.89000010
   17.16110992  145.13800049    1.25000000    2.89000010
   17.16444397  136.41000366    1.26999998    2.89000010
   17.16749954  138.50500488    1.25000000    2.89000010
   17.17083359  149.81799316    1.26999998    2.89000010
   17.17416573  153.93299866    1.25000000    2.89000010
   17.17722130  148.65299988    1.25000000    2.91000009
   17.18055534  146.12800598    1.25000000    2.89000010
   17.18388748  168.80799866    1.25000000    2.89000010
   17.18694305  146.78900146    1.25000000    2.91000009
   17.19027710  159.58500671    1.25000000    2.89000010
   17.19083214  159.98399353    1.25000000    2.89000010
   17.19416618  152.92900085    1.25000000    2.91000009
   17.19722176  162.00199890    1.26999998    2.89000010
   17.20055580  157.01499939    1.26999998    2.89000010
   17.20388985  161.27000427    1.26999998    2.89000010
   17.20694542  162.85600281    1.28999996    2.89000010
   17.21027946  136.64100647    1.28999996    2.89000010
   17.21333504  124.78500366    1.28999996    2.89000010
   17.21666718  142.69599915    1.30999994    2.89000010
   17.22000122  125.66600037    1.30999994    2.91000009
   17.22305679  143.76400757    1.30999994    2.91000009
   17.22416687  134.22700500    1.30999994    2.91000009
   17.22694588  135.10400391    1.33000004    2.89000010
   17.23000145  140.01499939    1.33000004    2.89000010
   17.23333359  142.95899963    1.33000004    2.89000010
   17.23638916  153.32899475    1.33000004    2.89000010
   17.23972321  120.47100067    1.33000004    2.89000010
   17.24305534  130.50599670    1.33000004    2.91000009
   17.24611092  138.32200623    1.33000004    2.89000010
   17.24944496  136.99800110    1.34000003    2.91000009
   17.25277710  137.14500427    1.34000003    2.89000010
   17.25583267  123.77600098    1.33000004    2.89000010
   17.25749969  148.73399353    1.33000004    2.89000010
   17.25972176  128.19200134    1.33000004    2.89000010
   17.26277733  145.86599731    1.33000004    2.89000010
   17.26611137  135.59100342    1.33000004    2.89000010
   17.26916695  131.56700134    1.30999994    2.89000010
   17.27249908  134.62899780    1.30999994    2.86999989
   17.27583313  126.35600281    1.30999994    2.89000010
   17.27888870  129.78100586    1.30999994    2.89000010
   17.28222275  142.51499939    1.33000004    2.89000010
   17.28555489  132.55099487    1.30999994    2.89000010
   17.28861046  139.80000305    1.30999994    2.89000010
   17.29083252  130.82400513    1.30999994    2.89000010
   17.29249954  138.66200256    1.30999994    2.89000010
   17.29555511  128.17799377    1.28999996    2.89000010
   17.29888916  131.27499390    1.28999996    2.91000009
   17.30194283  124.15699768    1.26999998    2.91000009
   17.30527687  139.97700500    1.28999996    2.89000010
   17.30861092  137.76300049    1.26999998    2.89000010
   17.31166649  133.86999512    1.28999996    2.89000010
   17.31499863  132.38800049    1.28999996    2.89000010
   17.31833458  124.95999908    1.28999996    2.89000010
   17.32139015  135.64399719    1.28999996    2.91000009
   17.32416725  134.32200623    1.30999994    2.91000009
   17.32527924  121.90899658    1.28999996    2.89000010
   17.32833481  129.21099854    1.30999994    2.89000010
   17.33166695  127.83100128    1.30999994    2.89000010
   17.33472252  127.72100067    1.30999994    2.89000010
   17.33805656  131.43099976    1.30999994    2.89000010
   17.34138870  126.16999817    1.33000004    2.89000010
   17.34444427  126.83999634    1.33000004    2.89000010
   17.34777832  130.17500305    1.30999994    2.89000010
   17.35111237  125.91500092    1.30999994    2.89000010
   17.35416794  127.22599792    1.33000004    2.89000010
   17.35750008  136.89900208    1.33000004    2.89000010
   17.35805511  129.88200378    1.33000004    2.89000010
   17.36111069  135.90699768    1.33000004    2.89000010
   17.36444473  137.73300171    1.33000004    2.89000010
   17.36777878  146.50700378    1.33000004    2.89000010
   17.37083435  123.43099976    1.33000004    2.89000010
   17.37416649  140.45500183    1.33000004    2.89000010
   17.37750053  138.92100525    1.33000004    2.89000010
   17.38055611  134.00999451    1.33000004    2.89000010
   17.38388824  130.66600037    1.34000003    2.89000010
   17.38722229  129.40699768    1.34000003    2.89000010
   17.39027786  125.73200226    1.34000003    2.89000010
   17.39083290  128.98399353    1.33000004    2.89000010
   17.39388847  120.47399902    1.33000004    2.89000010
   17.39722252  129.50199890    1.33000004    2.89000010
   17.40027809  119.59899902    1.33000004    2.86999989
   17.40361023  123.09899902    1.30999994    2.89000010
   17.40694427  101.87799835    1.30999994    2.89000010
   17.40999985  117.95899963    1.30999994    2.89000010
   17.41333389  134.49899292    1.30999994    2.91000009
   17.41638756  132.72200012    1.28999996    2.89000010
   17.41972160  127.55400085    1.28999996    2.89000010
   17.42305565  139.05000305    1.30999994    2.89000010
   17.42416573  131.44299316    1.33000004    2.89000010
   17.42666626  127.09700012    1.30999994    2.89000010
   17.43000031  119.89299774    1.30999994    2.91000009
   17.43305397  123.38099670    1.36000001    2.89000010
   17.43638802  126.37300110    1.36000001    2.91000009
   17.43944359  127.26899719    1.33000004    2.89000010
   17.44277763  130.07000732    1.36000001    2.89000010
   17.44610977  129.73399353    1.36000001    2.89000010
   17.44916534  125.66899872    1.36000001    2.89000010
   17.45250130  127.86799622    1.36000001    2.86999989
   17.45583344  130.57499695    1.36000001    2.89000010
   17.45750046  132.65299988    1.36000001    2.89000010
   17.45944595  127.98999786    1.36000001    2.89000010
   17.46277809  129.21200562    1.34000003    2.89000010
   17.46583366  124.39600372    1.34000003    2.89000010
   17.46916771  132.36000061    1.34000003    2.89000010
   17.47249985  140.38800049    1.34000003    2.89000010
   17.47555542  126.33599854    1.34000003    2.89000010
   17.47888947  140.08099365    1.34000003    2.89000010
   17.48194504  136.68200684    1.34000003    2.89000010
   17.48527718  129.25700378    1.33000004    2.89000010
   17.48861122  137.66600037    1.33000004    2.89000010
   17.49083328  134.90400696    1.33000004    2.89000010
   17.49222183  134.46000671    1.30999994    2.89000010
   17.49555588  136.90199280    1.28999996    2.91000009
   17.49861145  121.79499817    1.30999994    2.89000010
   17.50222206  126.93000031    1.28999996    2.89000010
   17.50527763  141.49200439    1.28999996    2.89000010
   17.50861168  133.30299377    1.28999996    2.89000010
   17.51194382  132.49800110    1.28999996    2.89000010
   17.51499939  131.68299866    1.30999994    2.89000010
   17.51833344  134.71699524    1.30999994    2.89000010
   17.52166557  127.07199860    1.33000004    2.89000010
   17.52416611  142.61300659    1.33000004    2.89000010
   17.52527809  139.36000061    1.33000004    2.89000010
   17.52861023  129.27299500    1.34000003    2.89000010
   17.53166580  135.52400208    1.34000003    2.89000010
   17.53499985  140.97900391    1.34000003    2.89000010
   17.53833199  136.47999573    1.34000003    2.86999989
   17.54138756  129.49899292    1.33000004    2.89000010
   17.54472160  136.14799500    1.33000004    2.89000010
   17.54805565  136.78700256    1.30999994    2.89000010
   17.55111122  135.28599548    1.28999996    2.89000010
   17.55444336  142.93400574    1.30999994    2.89000010
   17.55749893  145.05400085    1.28999996    2.89000010
   17.55805397  132.52499390    1.28999996    2.89000010
   17.56138802  132.01699829    1.28999996    2.89000010
   17.56444359  137.58299255    1.28999996    2.89000010
   17.56777954  135.71800232    1.30999994    2.89000010
   17.57083511  121.11199951    1.30999994    2.89000010
   17.57416725  139.53300476    1.30999994    2.91000009
   17.57750130  129.64900208    1.28999996    2.89000010
   17.58055687  130.56199646    1.28999996    2.89000010
   17.58388901  142.32099915    1.30999994    2.89000010
   17.58722305  147.91000366    1.30999994    2.89000010
   17.59027863  127.74299622    1.30999994    2.89000010
   17.59083366  134.51800537    1.30999994    2.89000010
   17.59388924  137.46400452    1.30999994    2.89000010
   17.59722328  140.85899353    1.30999994    2.89000010
   17.60027885  152.64100647    1.30999994    2.89000010
   17.60361099  137.67399597    1.30999994    2.89000010
   17.60666656  146.00300598    1.30999994    2.89000010
   17.61000061  144.03300476    1.30999994    2.91000009
   17.61333466  142.88499451    1.30999994    2.89000010
   17.61638832  133.84700012    1.30999994    2.89000010
   17.61972237  141.40400696    1.33000004    2.89000010
   17.62305641  130.36300659    1.33000004    2.89000010
   17.62416649  132.10299683    1.33000004    2.89000010
   17.62666702  140.05099487    1.33000004    2.89000010
   17.63000107  131.20500183    1.33000004    2.89000010
   17.63305473  134.88200378    1.33000004    2.89000010
   17.63638878  138.55099487    1.33000004    2.86999989
   17.63972282  136.99000549    1.33000004    2.89000010
   17.64277840  122.26599884    1.30999994    2.91000009
   17.64611053  133.42500305    1.33000004    2.86999989
   17.64916611  142.85600281    1.33000004    2.89000010
   17.65250015  129.95700073    1.33000004    2.89000010
   17.65583229  123.51699829    1.33000004    2.89000010
   17.65749931  138.37399292    1.33000004    2.89000010
   17.65944481  139.40800476    1.33000004    2.89000010
   17.66277695  137.60000610    1.30999994    2.86999989
   17.66611099  144.18699646    1.30999994    2.89000010
   17.66916656  158.33599854    1.28999996    2.89000010
   17.67249870  143.85000610    1.28999996    2.89000010
   17.67583275  149.35600281    1.28999996    2.89000010
   17.67888832  152.07800293    1.28999996    2.89000010
   17.68222237  159.71899414    1.28999996    2.86999989
   17.68555450  176.79899597    1.28999996    2.86999989
   17.68861008  158.49899292    1.33000004    2.89000010
   17.69083214  180.50599670    1.33000004    2.89000010
   17.69222069  164.98500061    1.33000004    2.89000010
   17.69555473  148.08000183    1.33000004    2.89000010
   17.69861031  174.37199402    1.33000004    2.86999989
   17.70194435  145.00199890    1.33000004    2.89000010
   17.70527840  158.25500488    1.34000003    2.89000010
   17.70833397  139.72700500    1.34000003    2.89000010
   17.71166801  136.97700500    1.34000003    2.89000010
   17.71500015  140.82899475    1.34000003    2.89000010
   17.71805573  144.91000366    1.34000003    2.86999989
   17.72138977  134.04499817    1.34000003    2.86999989
   17.72416687  141.72999573    1.34000003    2.89000010
   17.72500038  141.06599426    1.34000003    2.89000010
   17.72833443  133.73899841    1.34000003    2.89000010
   17.73139000  137.02799988    1.34000003    2.89000010
   17.73472214  131.68200684    1.34000003    2.89000010
   17.73805618  138.53700256    1.34000003    2.89000010
   17.74111176  145.82899475    1.33000004    2.89000010
   17.74444389  143.66299438    1.30999994    2.89000010
   17.74777794  137.76899719    1.30999994    2.89000010
   17.75083351  145.00999451    1.28999996    2.89000010
   17.75416756  130.69599915    1.26999998    2.89000010
   17.75749969  134.25799561    1.26999998    2.89000010
   17.75805473  132.72200012    1.26999998    2.89000010
   17.76111031  141.68800354    1.26999998    2.89000010
   17.76444435  134.04100037    1.26999998    2.89000010
   17.76777840  142.21200562    1.25000000    2.89000010
   17.77083397  147.16099548    1.25000000    2.89000010
   17.77416611  139.12699890    1.25000000    2.89000010
   17.77750015  151.80499268    1.25000000    2.89000010
   17.78055573  138.60499573    1.25000000    2.89000010
   17.78388786  141.13099670    1.23000002    2.89000010
   17.78722191  140.31500244    1.25000000    2.86999989
   17.79027748  140.44700623    1.25000000    2.86999989
   17.79138756  142.26699829    1.25000000    2.91000009
   17.79388809  140.90600586    1.25000000    2.91000009
   17.79722214  138.05400085    1.25000000    2.89000010
   17.80055428  143.46699524    1.25000000    2.89000010
   17.80360985  143.81199646    1.23000002    2.89000010
   17.80694389  141.40800476    1.26999998    2.89000010
   17.81027794  135.88099670    1.23000002    2.86999989
   17.81333351  139.44000244    1.23000002    2.86999989
   17.81666756  142.68200684    1.21000004    2.89000010
   17.82000160  152.91400146    1.21000004    2.89000010
   17.82305717  141.39100647    1.21000004    2.89000010
   17.82472229  151.02000427    1.16999996    2.89000010
   17.82666779  149.57400513    1.19000006    2.91000009
   17.83000183  148.53100586    1.16999996    2.89000010
   17.83333397  143.35899353    1.19000006    2.89000010
   17.83638954  148.00700378    1.19000006    2.89000010
   17.83972359  148.82400513    1.14999998    2.89000010
   17.84277916  149.23100281    1.13000000    2.89000010
   17.84611130  131.17599487    1.13000000    2.89000010
   17.84944534  157.02600098    1.13000000    2.89000010
   17.85250092  158.98300171    1.11000001    2.89000010
   17.85583305  156.19500732    1.11000001    2.89000010
   17.85805511  141.15499878    1.11000001    2.89000010
   17.85944557  141.89599609    1.11000001    2.89000010
   17.86277771  166.80599976    1.11000001    2.89000010
   17.86611176  146.38099670    1.07000005    2.89000010
   17.86916733  136.23399353    1.05999994    2.89000010
   17.87249947  152.34100342    1.05999994    2.89000010
   17.87583351  144.38499451    1.05999994    2.89000010
   17.87916756  147.19599915    1.03999996    2.86999989
   17.88249969  154.73100281    1.03999996    2.89000010
   17.88555527  145.56700134    1.01999998    2.89000010
   17.88888931  139.58599854    1.01999998    2.89000010
   17.90666580  134.25599670    1.00000000    2.89000010
   17.90861130  139.38400269    1.00000000    2.89000010
   17.91194344  144.19599915    1.00000000    2.89000010
   17.91527748  138.21600342    1.00000000    2.89000010
   17.91833305  137.55099487    1.01999998    2.89000010
   17.92166519  142.31900024    1.00000000    2.89000010
   17.92472076  136.21899414    1.00000000    2.89000010
   17.92805481  139.28700256    1.00000000    2.89000010
   17.93138885  140.83900452    0.98000002    2.89000010
   17.93444443  142.34100342    1.00000000    2.89000010
   17.93777657  143.68699646    0.98000002    2.89000010
   17.93999863  135.13099670    0.98000002    2.89000010
   17.94138718  135.45599365    1.00000000    2.89000010
   17.94444275  143.49299622    0.98000002    2.89000010
   17.94777679  150.35499573    1.00000000    2.89000010
   17.95111275  153.63800049    1.01999998    2.89000010
   17.95416832  151.84899902    1.01999998    2.86999989
   17.95750046  148.76300049    1.00000000    2.89000010
   17.96083450  136.49699402    1.01999998    2.89000010
   17.96389008  145.32299805    1.00000000    2.86999989
   17.96722221  144.36099243    1.01999998    2.89000010
   17.97055626  144.56199646    1.03999996    2.86999989
   17.97333336  151.06900024    1.03999996    2.86999989
   17.97416687  145.89700317    1.03999996    2.86999989
   17.97750092  156.50300598    1.03999996    2.89000010
   17.98055649  142.01600647    1.03999996    2.89000010
   17.98388863  153.82800293    1.03999996    2.89000010
   17.98722267  146.52200317    1.03999996    2.86999989
   17.99027824  154.44700623    1.05999994    2.89000010
   17.99361229  141.03900146    1.05999994    2.86999989
   17.99694443  140.38999939    1.07000005    2.89000010
   18.00000000  135.67999268    1.07000005    2.89000010
   18.00361061  135.14900208    1.07000005    2.89000010
   18.00666618  139.70300293    1.07000005    2.89000010
   18.00722313  134.26499939    1.07000005    2.89000010
   18.01055527  135.98100281    1.05999994    2.86999989
   18.01361084  138.51400757    1.07000005    2.89000010
   18.01694489  142.11099243    1.07000005    2.89000010
   18.02027702  135.13000488    1.05999994    2.89000010
   18.02333260  137.07000732    1.05999994    2.89000010
   18.02666664  122.68099976    1.07000005    2.89000010
   18.03000069  133.56799316    1.05999994    2.86999989
   18.03305435  142.23599243    1.05999994    2.89000010
   18.03638840  136.11599731    1.05999994    2.89000010
   18.03972244  132.11300659    1.05999994    2.89000010
   18.04027748  130.29200745    1.05999994    2.89000010
   18.04305458  134.38299561    1.05999994    2.89000010
   18.04638863  130.48100281    1.05999994    2.89000010
   18.04972076  140.10499573    1.03999996    2.89000010
   18.05277634  136.60000610    1.00000000    2.89000010
   18.05611038  133.81399536    1.00000000    2.89000010
   18.05944443  147.39999390    1.00000000    2.89000010
   18.06250000  123.83499908    0.98000002    2.89000010
   18.06583214  137.81900024    0.98000002    2.89000010
   18.06916809  138.87500000    0.95999998    2.89000010
   18.07222366  135.13600159    0.95999998    2.91000009
   18.07361221  128.02200317    0.95999998    2.89000010
   18.07583427  138.83500671    0.94000000    2.89000010
   18.07916832  140.64599609    0.94000000    2.86999989
   18.08250046  139.93299866    0.94000000    2.86999989
   18.08555603  145.90800476    0.94000000    2.89000010
   18.08889008  147.90699768    0.94000000    2.89000010
   18.09222221  143.54499817    0.94000000    2.86999989
   18.09527779  140.66600037    0.94000000    2.89000010
   18.09861183  157.04600525    0.94000000    2.89000010
   18.10194397  140.43200684    0.94000000    2.89000010
   18.10499954  148.90400696    0.94000000    2.91000009
   18.10694504  140.71099854    0.94000000    2.91000009
   18.10861206  147.74000549    0.94000000    2.91000009
   18.11194420  150.12300110    0.92000002    2.89000010
   18.11527824  153.54200745    0.94000000    2.89000010
   18.11833382  138.70100403    0.92000002    2.89000010
   18.12166595  142.67500305    0.92000002    2.89000010
   18.12472153  143.28500366    0.92000002    2.89000010
   18.12805557  138.85800171    0.89999998    2.89000010
   18.13138962  131.62899780    0.89999998    2.89000010
   18.13444519  133.12500000    0.89999998    2.89000010
   18.13777733  139.24899292    0.89999998    2.89000010
   18.14027786  132.82400513    0.89999998    2.89000010
   18.14138794  162.70199585    0.89999998    2.89000010
   18.14472198  150.55099487    0.88000000    2.89000010
   18.14805603  142.20700073    0.89999998    2.89000010
   18.15111160  147.83900452    0.89999998    2.86999989
   18.15444374  147.89100647    0.88000000    2.89000010
   18.15777779  156.18099976    0.89999998    2.89000010
   18.16083336  142.06500244    0.88000000    2.89000010
   18.16416550  146.32000732    0.88000000    2.89000010
   18.16722107  159.64399719    0.86000001    2.89000010
   18.17055511  160.13299561    0.86000001    2.89000010
   18.17361069  160.70199585    0.86000001    2.89000010
   18.17416573  135.25900269    0.86000001    2.86999989
   18.17749977  159.31900024    0.83999997    2.89000010
   18.18083191  166.86799622    0.83999997    2.91000009
   18.18388748  143.21000671    0.83999997    2.89000010
   18.18722153  138.37800598    0.81999999    2.91000009
   18.19055557  137.89999390    0.81999999    2.89000010
   18.19361115  146.47500610    0.81999999    2.89000010
   18.19694328  159.58599854    0.81999999    2.89000010
   18.20027924  148.14599609    0.81999999    2.89000010
   18.20333481  191.28799438    0.81999999    2.89000010
   18.20666695  170.04899597    0.80000001    2.89000010
   18.20722389  178.51600647    0.80000001    2.89000010
   18.21055603  166.79800415    0.80000001    2.89000010
   18.21389008  163.55099487    0.80000001    2.89000010
   18.21694565  171.66000366    0.80000001    2.89000010
   18.22027779  169.17700195    0.80000001    2.89000010
   18.22361183  181.45199585    0.80000001    2.89000010
   18.22666740  160.36799622    0.80000001    2.89000010
   18.23000145  171.05900574    0.80000001    2.89000010
   18.23333359  162.95799255    0.80000001    2.89000010
   18.23638916  164.53900146    0.80000001    2.89000010
   18.23972321  158.20799255    0.80000001    2.89000010
   18.24055672  153.12100220    0.80000001    2.89000010
   18.24333382  138.68800354    0.81999999    2.89000010
   18.24638939  152.64599609    0.81999999    2.86999989
   18.24972153  167.39599609    0.81999999    2.89000010
   18.25277710  164.43499756    0.81999999    2.86999989
   18.25611115  160.71899414    0.81999999    2.86999989
   18.25944519  173.40299988    0.81999999    2.89000010
   18.26250076  163.09399414    0.81999999    2.86999989
   18.26583290  157.01800537    0.83999997    2.89000010
   18.26916695  167.45199585    0.81999999    2.89000010
   18.27222252  166.25500488    0.81999999    2.89000010
   18.27388954  161.07299805    0.81999999    2.89000010
   18.27611160  160.67700195    0.81999999    2.89000010
   18.27916718  163.74200439    0.81999999    2.89000010
   18.28249931  166.02000427    0.81999999    2.89000010
   18.28555489  182.02299500    0.81999999    2.89000010
   18.28888893  203.25100708    0.81999999    2.89000010
   18.29222107  207.34199524    0.81999999    2.86999989
   18.29527664  192.43299866    0.81999999    2.86999989
   18.29861069  211.41000366    0.81999999    2.89000010
   18.30194283  183.64199829    0.83999997    2.86999989
   18.30499840  208.35000610    0.86000001    2.86999989
   18.30722237  203.70500183    0.86000001    2.89000010
   18.30888748  184.88099670    0.86000001    2.89000010
   18.31194305  172.05200195    0.86000001    2.89000010
   18.31527710  151.83500671    0.86000001    2.86999989
   18.31833458  140.52099609    0.88000000    2.89000010
   18.32166672  139.67399597    0.86000001    2.89000010
   18.32500076  156.58099365    0.86000001    2.89000010
   18.32805634  150.67399597    0.86000001    2.89000010
   18.33139038  157.42900085    0.86000001    2.86999989
   18.33472252  149.47300720    0.86000001    2.89000010
   18.33777809  148.63800049    0.86000001    2.89000010
   18.34055710  141.56500244    0.88000000    2.89000010
   18.34166718  150.97000122    0.88000000    2.89000010
   18.34472275  138.72900391    0.88000000    2.89000010
   18.34805679  144.99499512    0.88000000    2.89000010
   18.35111237  147.73100281    0.86000001    2.89000010
   18.35444450  157.61700439    0.83999997    2.89000010
   18.35777855  150.19700623    0.86000001    2.89000010
   18.36083412  149.34599304    0.83999997    2.86999989
   18.36416626  151.74200439    0.86000001    2.86999989
   18.36750031  137.54699707    0.86000001    2.86999989
   18.37083435  140.60200500    0.86000001    2.89000010
   18.37388992  172.19099426    0.86000001    2.89000010
   18.37444496  143.13000488    0.86000001    2.86999989
   18.37750053  141.56700134    0.86000001    2.86999989
   18.38083267  142.27499390    0.86000001    2.86999989
   18.38388824  147.23800659    0.88000000    2.89000010
   18.38722229  157.77099609    0.88000000    2.89000010
   18.39055634  147.83399963    0.88000000    2.86999989
   18.39361191  146.41900635    0.88000000    2.86999989
   18.39694405  146.73399353    0.88000000    2.86999989
   18.40027809  152.91999817    0.89999998    2.89000010
   18.40333366  145.32099915    0.89999998    2.86999989
   18.40666580  133.75300598    0.89999998    2.86999989
   18.40722275  156.39599609    0.89999998    2.86999989
   18.41027832  154.41900635    0.89999998    2.86999989
   18.41333389  144.44999695    0.89999998    2.89000010
   18.41666603  141.14700317    0.89999998    2.86999989
   18.42000008  153.27900696    0.89999998    2.84999990
   18.42305565  161.26899719    0.89999998    2.86999989
   18.42638779  167.48599243    0.89999998    2.86999989
   18.42944336  153.41999817    0.89999998    2.89000010
   18.43277740  149.32299805    0.89999998    2.86999989
   18.43610954  140.57600403    0.89999998    2.86999989
   18.43944359  145.30200195    0.92000002    2.86999989
   18.44055557  146.02600098    0.92000002    2.86999989
   18.44305420  144.05799866    0.92000002    2.86999989
   18.44610977  143.30400085    0.92000002    2.86999989
   18.44944382  143.49800110    0.92000002    2.86999989
   18.45277786  156.73399353    0.92000002    2.86999989
   18.45583344  150.75999451    0.92000002    2.86999989
   18.45916748  147.12699890    0.92000002    2.86999989
   18.46250153  153.08799744    0.94000000    2.86999989
   18.46555710  155.41999817    0.92000002    2.86999989
   18.46888924  149.18699646    0.92000002    2.86999989
   18.47222328  152.45100403    0.92000002    2.86999989
   18.47389030  153.27799988    0.92000002    2.86999989
   18.47583389  158.62100220    0.92000002    2.86999989
   18.47916794  160.71400452    0.92000002    2.86999989
   18.48222351  154.27999878    0.89999998    2.86999989
   18.48555565  149.72000122    0.89999998    2.86999989
   18.48861122  166.17500305    0.88000000    2.86999989
   18.49194527  158.74699402    0.88000000    2.86999989
   18.49527740  159.93400574    0.88000000    2.86999989
   18.49833298  139.88499451    0.86000001    2.86999989
   18.50194359  160.80499268    0.86000001    2.86999989
   18.50499916  172.75500488    0.86000001    2.86999989
   18.50722313  158.74200439    0.83999997    2.86999989
   18.50888824  139.86500549    0.83999997    2.86999989
   18.51194382  133.30700684    0.86000001    2.86999989
   18.51527786  155.20199585    0.83999997    2.86999989
   18.51861000  139.21299744    0.83999997    2.86999989
   18.52166557  154.70899963    0.83999997    2.86999989
   18.52499962  138.08099365    0.81999999    2.86999989
   18.52805519  140.67500305    0.81999999    2.86999989
   18.53138924  133.73899841    0.81999999    2.86999989
   18.53472137  141.71099854    0.81999999    2.86999989
   18.53777695  148.12399292    0.83999997    2.86999989
   18.54055595  125.50499725    0.83999997    2.86999989
   18.54166603  143.68400574    0.86000001    2.86999989
   18.54472160  140.98100281    0.83999997    2.89000010
   18.54805565  139.00900269    0.86000001    2.86999989
   18.55138779  136.10200500    0.88000000    2.86999989
   18.55444336  135.62100220    0.88000000    2.86999989
   18.55777740  135.75000000    0.89999998    2.89000010
   18.56110954  148.24200439    0.89999998    2.86999989
   18.56416512  136.10699463    0.89999998    2.86999989
   18.56750107  140.04499817    0.89999998    2.86999989
   18.57083511  138.21699524    0.92000002    2.86999989
   18.57389069  137.73500061    0.92000002    2.86999989
   18.57444572  141.20199585    0.92000002    2.86999989
   18.57750130  142.95500183    0.92000002    2.86999989
   18.58083344  139.53500366    0.94000000    2.84999990
   18.58416748  143.86000061    0.94000000    2.86999989
   18.58722305  145.17199707    0.92000002    2.86999989
   18.59055710  143.76899719    0.94000000    2.86999989
   18.59388924  145.72399902    0.94000000    2.86999989
   18.59694481  148.42199707    0.89999998    2.84999990
   18.60027885  138.91600037    0.92000002    2.86999989
   18.60361099  145.69200134    0.92000002    2.86999989
   18.60666656  146.30700684    0.92000002    2.86999989
   18.60750008  142.13699341    0.92000002    2.86999989
   18.61027908  148.82800293    0.92000002    2.86999989
   18.61361122  139.07299805    0.92000002    2.86999989
   18.61694527  144.64700317    0.92000002    2.86999989
   18.62000084  139.19700623    0.92000002    2.86999989
   18.62333298  130.70100403    0.92000002    2.86999989
   18.62666702  140.77499390    0.92000002    2.86999989
   18.62972260  145.46499634    0.89999998    2.86999989
   18.63305473  131.36500549    0.89999998    2.86999989
   18.63638878  142.03799438    0.89999998    2.86999989
   18.63944435  141.55599976    0.92000002    2.86999989
   18.64055634  139.64300537    0.89999998    2.84999990
   18.64305496  150.02900696    0.89999998    2.86999989
   18.64638901  141.12100220    0.88000000    2.86999989
   18.64972115  146.75399780    0.88000000    2.86999989
   18.65277672  134.47000122    0.88000000    2.86999989
   18.65611076  151.86300659    0.86000001    2.86999989
   18.65916634  131.78599548    0.86000001    2.86999989
   18.66250038  140.17100525    0.86000001    2.86999989
   18.66583252  146.49299622    0.86000001    2.86999989
   18.66888809  140.44799805    0.86000001    2.86999989
   18.67222214  136.51899719    0.86000001    2.84999990
   18.67388916  140.33799744    0.86000001    2.84999990
   18.67583275  146.18800354    0.86000001    2.84999990
   18.67916679  141.99800110    0.83999997    2.86999989
   18.68222237  140.02900696    0.86000001    2.86999989
   18.68555450  135.13200378    0.86000001    2.86999989
   18.68888855  140.40499878    0.86000001    2.86999989
   18.69194412  129.32600403    0.86000001    2.86999989
   18.69527626  140.74099731    0.86000001    2.86999989
   18.69861031  138.61700439    0.86000001    2.86999989
   18.70166779  141.01899719    0.86000001    2.86999989
   18.70499992  146.60899353    0.86000001    2.86999989
   18.70722389  136.04499817    0.86000001    2.86999989
   18.70861244  143.37100220    0.86000001    2.86999989
   18.71194458  138.01699829    0.86000001    2.86999989
   18.71500015  142.20100403    0.86000001    2.86999989
   18.71833420  134.29699707    0.86000001    2.86999989
   18.72166634  137.51100159    0.86000001    2.86999989
   18.72472191  139.30000305    0.86000001    2.86999989
   18.72805595  135.01800537    0.86000001    2.86999989
   18.73139000  143.94700623    0.86000001    2.86999989
   18.73444557  131.21400452    0.86000001    2.86999989
   18.73777771  135.61300659    0.86000001    2.86999989
   18.74055672  136.01199341    0.88000000    2.86999989
   18.74138832  135.84100342    0.88000000    2.86999989
   18.74472237  130.42700195    0.88000000    2.86999989
   18.74777794  140.47300720    0.86000001    2.86999989
   18.75111198  141.61199951    0.88000000    2.86999989
   18.75444412  133.57899475    0.86000001    2.86999989
   18.75749969  141.21000671    0.88000000    2.86999989
   18.76083374  138.41000366    0.86000001    2.86999989
   18.76416588  126.77899933    0.86000001    2.86999989
   18.76722145  131.90699768    0.86000001    2.86999989
   18.77055550  135.12199402    0.83999997    2.86999989
   18.77361107  148.47200012    0.86000001    2.86999989
   18.77444458  133.65400696    0.86000001    2.86999989
   18.77750015  134.87100220    0.83999997    2.86999989
   18.78083229  136.68200684    0.86000001    2.86999989
   18.78388786  135.42700195    0.86000001    2.86999989
   18.78722191  121.16500092    0.86000001    2.86999989
   18.79055595  119.37799835    0.86000001    2.86999989
   18.79361153  131.11599731    0.86000001    2.86999989
   18.79694366  123.46399689    0.86000001    2.84999990
   18.80027771  126.98600006    0.88000000    2.86999989
   18.80333328  136.14700317    0.89999998    2.86999989
   18.80666542  132.29100037    0.89999998    2.84999990
   18.80777740  138.36000061    0.89999998    2.84999990
   18.81027794  124.82199860    0.92000002    2.84999990
   18.81361008  138.13900757    0.94000000    2.86999989
   18.81694603  139.47500610    0.94000000    2.86999989
   18.82000160  137.25000000    0.94000000    2.84999990
   18.82333374  140.35400391    0.94000000    2.84999990
   18.82666779  143.12199402    0.95999998    2.86999989
   18.82972336  145.90699768    0.95999998    2.86999989
   18.83305550  158.11199951    0.95999998    2.86999989
   18.83611107  157.42799377    0.95999998    2.86999989
   18.83944511  137.34100342    0.95999998    2.86999989
   18.84111214  139.75399780    0.95999998    2.84999990
   18.84305573  148.43499756    0.95999998    2.84999990
   18.84638977  145.51800537    0.98000002    2.86999989
   18.84972191  141.80900574    1.00000000    2.84999990
   18.85277748  151.07600403    0.98000002    2.86999989
   18.85611153  136.87600708    0.98000002    2.84999990
   18.85944557  133.13800049    1.00000000    2.84999990
   18.86250114  128.07499695    0.98000002    2.84999990
   18.86583328  137.68499756    0.98000002    2.86999989
   18.86888885  144.14999390    0.98000002    2.86999989
   18.87222290  144.44999695    0.98000002    2.84999990
   18.87444496  134.80799866    0.98000002    2.84999990
   18.87583351  125.27799988    0.98000002    2.86999989
   18.87916756  137.70100403    0.98000002    2.84999990
   18.88222313  131.57099915    0.98000002    2.84999990
   18.88555527  144.10800171    0.98000002    2.86999989
   18.88888931  133.15600586    1.00000000    2.84999990
   18.89194489  134.55000305    1.01999998    2.84999990
   18.89527702  128.16099548    1.01999998    2.84999990
   18.89861107  134.73500061    1.01999998    2.84999990
   18.90166664  124.90499878    1.01999998    2.84999990
   18.90499878  127.62100220    1.01999998    2.84999990
   18.92333221  139.76499939    1.01999998    2.84999990
   18.92499924  138.12399292    1.01999998    2.84999990
   18.92833328  149.86799622    1.00000000    2.84999990
   18.93138885  158.85699463    1.00000000    2.84999990
   18.93472099  142.42500305    1.00000000    2.84999990
   18.93805504  144.26300049    1.01999998    2.84999990
   18.94111061  146.23199463    1.01999998    2.86999989
   18.94444275  157.80099487    1.01999998    2.86999989
   18.94777679  146.02499390    1.01999998    2.84999990
   18.95083427  141.73500061    1.01999998    2.84999990
   18.95416832  143.22999573    1.01999998    2.84999990
   18.95666695  158.65600586    1.03999996    2.84999990
   18.95805550  156.89399719    1.01999998    2.84999990
   18.96111107  156.94599915    1.01999998    2.84999990
   18.96444511  157.14199829    1.01999998    2.84999990
   18.96777916  152.46099854    1.03999996    2.84999990
   18.97083473  142.54800415    1.03999996    2.84999990
   18.97416687  141.88699341    1.03999996    2.84999990
   18.97750092  136.43800354    1.03999996    2.84999990
   18.98055649  129.71800232    1.05999994    2.84999990
   18.98388863  132.11399841    1.05999994    2.84999990
   18.98722267  148.41600037    1.07000005    2.82999992
   18.98999977  145.73100281    1.07000005    2.84999990
   18.99083328  143.84100342    1.07000005    2.84999990
   18.99416733  139.21699524    1.07000005    2.84999990
   18.99722290  148.11399841    1.07000005    2.84999990
   19.00083351  147.38699341    1.07000005    2.84999990
   19.00416756  138.22399902    1.07000005    2.86999989
   19.00749969  149.39599609    1.09000003    2.84999990
   19.01055527  142.08999634    1.07000005    2.84999990
   19.01388931  157.23100281    1.09000003    2.82999992
   19.01722145  157.13200378    1.09000003    2.82999992
   19.02027702  166.03100586    1.09000003    2.82999992
   19.02333260  152.65699768    1.09000003    2.84999990
   19.02388954  147.30900574    1.09000003    2.80999994
   19.02722168  138.67900085    1.09000003    2.82999992
   19.03027725  146.12899780    1.09000003    2.82999992
   19.03361130  145.06100464    1.09000003    2.84999990
   19.03694344  140.67399597    1.09000003    2.84999990
   19.03999901  159.24299622    1.11000001    2.82999992
   19.04333305  127.53299713    1.11000001    2.82999992
   19.04638863  154.37600708    1.11000001    2.84999990
   19.04972076  154.47500610    1.11000001    2.84999990
   19.05305481  152.38000488    1.13000000    2.84999990
   19.05611038  152.11999512    1.11000001    2.82999992
   19.05666542  132.16400146    1.11000001    2.82999992
   19.05972099  152.94400024    1.13000000    2.82999992
   19.06305504  144.56199646    1.13000000    2.82999992
   19.06611061  155.24899292    1.13000000    2.84999990
   19.06944466  166.07000732    1.13000000    2.84999990
   19.07277870  150.35699463    1.13000000    2.82999992
   19.07583427  162.75799561    1.13000000    2.82999992
   19.07916832  151.94000244    1.13000000    2.84999990
   19.08222389  152.85400391    1.13000000    2.84999990
   19.08555603  152.06500244    1.14999998    2.84999990
   19.08889008  151.73500061    1.14999998    2.84999990
   19.09000015  138.47599792    1.14999998    2.82999992
   19.09250069  131.22399902    1.14999998    2.82999992
   19.09583473  142.78399658    1.14999998    2.82999992
   19.09889030  149.81500244    1.14999998    2.82999992
   19.10222244  155.52999878    1.16999996    2.82999992
   19.10555649  138.39500427    1.16999996    2.82999992
   19.10861206  146.36099243    1.16999996    2.82999992
   19.11194420  156.68699646    1.16999996    2.82999992
   19.11527824  145.91400146    1.16999996    2.82999992
   19.11833382  152.32200623    1.16999996    2.84999990
   19.12166595  139.30499268    1.19000006    2.82999992
   19.12333298  146.42399597    1.19000006    2.82999992
   19.12527847  139.00500488    1.19000006    2.82999992
   19.12861061  145.75999451    1.19000006    2.84999990
   19.13166618  154.97300720    1.21000004    2.84999990
   19.13500023  151.88600159    1.21000004    2.82999992
   19.13833237  155.78700256    1.23000002    2.82999992
   19.14138794  158.76199341    1.25000000    2.82999992
   19.14472198  162.21699524    1.23000002    2.82999992
   19.14805603  176.89999390    1.25000000    2.82999992
   19.15111160  172.88299561    1.25000000    2.82999992
   19.15444374  169.79400635    1.25000000    2.82999992
   19.15666580  156.00199890    1.25000000    2.82999992
   19.15805435  164.55200195    1.25000000    2.84999990
   19.16138840  164.59800720    1.25000000    2.80999994
   19.16444397  159.05400085    1.25000000    2.80999994
   19.16777802  170.38099670    1.25000000    2.82999992
   19.17111015  152.42900085    1.25000000    2.82999992
   19.17416573  160.78500366    1.25000000    2.82999992
   19.17749977  167.19500732    1.25000000    2.82999992
   19.18083191  136.04800415    1.25000000    2.82999992
   19.18388748  145.27499390    1.25000000    2.80999994
   19.18722153  138.53799438    1.25000000    2.80999994
   19.18999863  141.64500427    1.25000000    2.80999994
   19.19083214  147.83200073    1.25000000    2.80999994
   19.19416618  145.02200317    1.26999998    2.82999992
   19.19722176  152.03900146    1.28999996    2.82999992
   19.20055580  134.57400513    1.28999996    2.82999992
   19.20388985  144.61500549    1.30999994    2.84999990
   19.20694542  153.76400757    1.34000003    2.80999994
   19.21027946  151.72000122    1.34000003    2.82999992
   19.21361160  132.09399414    1.33000004    2.82999992
   19.21666718  145.36300659    1.33000004    2.82999992
   19.22000122  156.38099670    1.33000004    2.82999992
   19.22305679  136.97799683    1.33000004    2.82999992
   19.22389030  177.95300293    1.33000004    2.82999992
   19.22694588  160.64300537    1.33000004    2.82999992
   19.23027802  148.17100525    1.30999994    2.82999992
   19.23333359  159.40600586    1.33000004    2.82999992
   19.23666763  158.89999390    1.33000004    2.82999992
   19.23999977  152.33299255    1.33000004    2.82999992
   19.24305534  161.78399658    1.33000004    2.80999994
   19.24638939  155.97500610    1.33000004    2.82999992
   19.24972153  163.44500732    1.33000004    2.78999996
   19.25277710  149.43699646    1.33000004    2.82999992
   19.25611115  162.86799622    1.34000003    2.80999994
   19.25694466  164.01499939    1.34000003    2.82999992
   19.25972176  175.31599426    1.34000003    2.80999994
   19.26305580  165.93400574    1.36000001    2.82999992
   19.26611137  176.88000488    1.36000001    2.80999994
   19.26944351  180.52200317    1.36000001    2.82999992
   19.27277756  178.44599915    1.38000000    2.82999992
   19.27583313  167.44500732    1.36000001    2.80999994
   19.27916718  174.41299438    1.39999998    2.80999994
   19.28249931  190.80200195    1.38000000    2.80999994
   19.28555489  156.35499573    1.39999998    2.80999994
   19.28888893  200.95899963    1.39999998    2.80999994
   19.29055595  152.25799561    1.39999998    2.80999994
   19.29249954  157.73800659    1.41999996    2.80999994
   19.29583359  148.73899841    1.39999998    2.80999994
   19.29888916  160.36999512    1.39999998    2.78999996
   19.30222130  166.14199829    1.39999998    2.82999992
   19.30555534  153.58900452    1.39999998    2.80999994
   19.30861092  163.98300171    1.39999998    2.82999992
   19.31194305  152.76699829    1.39999998    2.80999994
   19.31527710  139.88299561    1.39999998    2.80999994
   19.31833458  149.33500671    1.41999996    2.80999994
   19.32166672  153.25000000    1.41999996    2.80999994
   19.32389069  144.73300171    1.41999996    2.80999994
   19.32527924  157.79299927    1.44000006    2.80999994
   19.32861137  131.49899292    1.46000004    2.80999994
   19.33166695  147.89399719    1.44000006    2.80999994
   19.33500099  139.25000000    1.44000006    2.82999992
   19.33833313  134.69999695    1.41999996    2.80999994
   19.34138870  134.93299866    1.41999996    2.80999994
   19.34472275  127.32199860    1.41999996    2.80999994
   19.34805679  140.76100159    1.41999996    2.80999994
   19.35111237  144.23500061    1.41999996    2.80999994
   19.35444450  140.83000183    1.39999998    2.80999994
   19.35722351  139.33000183    1.39999998    2.80999994
   19.35833359  132.35000610    1.39999998    2.80999994
   19.36166763  132.92100525    1.36000001    2.80999994
   19.36472321  150.72999573    1.36000001    2.80999994
   19.36805534  139.47300720    1.36000001    2.80999994
   19.37138939  139.78100586    1.34000003    2.82999992
   19.37444496  128.54800415    1.34000003    2.82999992
   19.37777710  135.79100037    1.33000004    2.78999996
   19.38111115  136.12800598    1.33000004    2.82999992
   19.38416672  142.40299988    1.36000001    2.80999994
   19.38750076  124.32800293    1.36000001    2.80999994
   19.39055634  114.07599640    1.36000001    2.80999994
   19.39111137  130.82899475    1.36000001    2.80999994
   19.39444351  134.84100342    1.36000001    2.82999992
   19.39777756  136.38600159    1.30999994    2.80999994
   19.40083313  144.66999817    1.33000004    2.82999992
   19.40416718  132.51100159    1.30999994    2.80999994
   19.40722275  135.46099854    1.30999994    2.80999994
   19.41055489  141.19799805    1.30999994    2.80999994
   19.41388893  139.23800659    1.28999996    2.80999994
   19.41722107  136.97599792    1.28999996    2.80999994
   19.42027664  140.14199829    1.26999998    2.80999994
   19.42361069  146.39799500    1.26999998    2.80999994
   19.42416573  128.85099792    1.28999996    2.80999994
   19.42749977  132.21000671    1.25000000    2.78999996
   19.43055534  142.88900757    1.25000000    2.80999994
   19.43388748  154.62600708    1.26999998    2.80999994
   19.43722153  140.70899963    1.26999998    2.80999994
   19.44027710  131.38200378    1.26999998    2.80999994
   19.44361115  141.44700623    1.26999998    2.80999994
   19.44694328  147.82200623    1.28999996    2.78999996
   19.45000076  136.62399292    1.26999998    2.80999994
   19.45333481  140.89799500    1.26999998    2.80999994
   19.45666695  138.95899963    1.26999998    2.80999994
   19.45750046  142.41400146    1.26999998    2.80999994
   19.46027946  138.83799744    1.26999998    2.80999994
   19.46333504  141.88699341    1.26999998    2.80999994
   19.46666718  145.64799500    1.26999998    2.78999996
   19.47000122  136.21499634    1.26999998    2.80999994
   19.47305679  147.94500732    1.26999998    2.80999994
   19.47638893  133.02400208    1.26999998    2.80999994
   19.47972298  146.69200134    1.28999996    2.80999994
   19.48277855  135.81399536    1.28999996    2.78999996
   19.48611069  129.64399719    1.26999998    2.78999996
   19.48944473  138.07400513    1.26999998    2.80999994
   19.49083328  127.23500061    1.26999998    2.80999994
   19.49305534  141.39199829    1.28999996    2.78999996
   19.49611092  123.62999725    1.28999996    2.78999996
   19.49944496  122.18800354    1.28999996    2.78999996
   19.50305557  132.38999939    1.28999996    2.78999996
   19.50611115  133.03700256    1.26999998    2.78999996
   19.50944519  120.31700134    1.28999996    2.78999996
   19.51277733  126.56199646    1.30999994    2.78999996
   19.51583290  131.30400085    1.30999994    2.80999994
   19.51916695  136.82600403    1.33000004    2.78999996
   19.52249908  128.14799500    1.33000004    2.78999996
   19.52416611  144.97300720    1.34000003    2.78999996
   19.52611160  124.96499634    1.34000003    2.78999996
   19.52944374  120.38600159    1.34000003    2.78999996
   19.53249931  143.84700012    1.34000003    2.78999996
   19.53583336  132.87699890    1.34000003    2.78999996
   19.53888893  131.56199646    1.34000003    2.78999996
   19.54222107  129.26899719    1.30999994    2.78999996
   19.54555511  134.32600403    1.30999994    2.78999996
   19.54861069  134.40699768    1.30999994    2.78999996
   19.55194283  130.36999512    1.30999994    2.78999996
   19.55527687  132.99200439    1.28999996    2.78999996
   19.55749893  118.41600037    1.28999996    2.78999996
   19.55888748  116.14499664    1.28999996    2.78999996
   19.56194305  126.26399994    1.28999996    2.78999996
   19.56527710  133.96200562    1.28999996    2.78999996
   19.56861115  140.74200439    1.28999996    2.78999996
   19.57166672  129.96699524    1.28999996    2.78999996
   19.57500076  127.13200378    1.28999996    2.78999996
   19.57805634  131.66900635    1.28999996    2.78999996
   19.58139038  126.75299835    1.28999996    2.78999996
   19.58472252  122.36499786    1.26999998    2.78999996
   19.58777809  134.63400269    1.26999998    2.78999996
   19.59083366  132.97900391    1.26999998    2.78999996
   19.59166718  131.73500061    1.26999998    2.78999996
   19.59472275  127.47100067    1.26999998    2.78999996
   19.59805679  126.43499756    1.25000000    2.78999996
   19.60138893  131.07000732    1.25000000    2.78999996
   19.60444450  132.48100281    1.25000000    2.78999996
   19.60777855  132.31799316    1.25000000    2.78999996
   19.61111069  126.24600220    1.25000000    2.78999996
   19.61416626  131.17199707    1.25000000    2.78999996
   19.61750031  133.52499390    1.25000000    2.78999996
   19.62083435  129.10699463    1.25000000    2.78999996
   19.62388992  124.51000214    1.26999998    2.78999996
   19.62444496  122.27600098    1.26999998    2.78999996
   19.62777710  137.94299316    1.26999998    2.78999996
   19.63111115  125.02600098    1.26999998    2.78999996
   19.63416672  129.45500183    1.26999998    2.78999996
   19.63750076  134.44700623    1.26999998    2.78999996
   19.64083290  124.32099915    1.26999998    2.78999996
   19.64388847  135.56799316    1.26999998    2.78999996
   19.64722252  134.49600220    1.28999996    2.78999996
   19.65055466  128.28799438    1.28999996    2.78999996
   19.65361023  134.70500183    1.28999996    2.78999996
   19.65694427  132.27400208    1.30999994    2.78999996
   19.65777779  129.68200684    1.30999994    2.78999996
   19.66055489  128.59599304    1.28999996    2.78999996
   19.66388893  142.07200623    1.28999996    2.78999996
   19.66694450  142.48300171    1.28999996    2.78999996
   19.67027664  138.54699707    1.28999996    2.76999998
   19.67361069  160.19400024    1.33000004    2.76999998
   19.67666626  140.34700012    1.30999994    2.78999996
   19.68000031  154.16000366    1.30999994    2.78999996
   19.68333244  151.19299316    1.30999994    2.76999998
   19.68638802  152.42799377    1.33000004    2.76999998
   19.68972206  133.78199768    1.30999994    2.76999998
   19.69111061  136.11999512    1.30999994    2.78999996
   19.69333267  149.84899902    1.30999994    2.78999996
   19.69666672  152.58299255    1.33000004    2.78999996
   19.69972038  137.20100403    1.33000004    2.76999998
   19.70305634  155.05299377    1.33000004    2.78999996
   19.70611191  143.98800659    1.34000003    2.78999996
   19.70944595  153.16400146    1.36000001    2.76999998
   19.71277809  137.78900146    1.36000001    2.76999998
   19.71583366  162.58200073    1.39999998    2.76999998
   19.71916771  143.38299561    1.39999998    2.76999998
   19.72249985  153.75100708    1.39999998    2.78999996
   19.72444534  145.21299744    1.39999998    2.76999998
   19.72611237  155.03399658    1.39999998    2.76999998
   19.72944450  156.98599243    1.39999998    2.76999998
   19.73250008  150.75000000    1.39999998    2.78999996
   19.73583412  149.21200562    1.44000006    2.78999996
   19.73888969  145.94299316    1.41999996    2.76999998
   19.74222183  151.35600281    1.41999996    2.76999998
   19.74555588  153.75900269    1.44000006    2.76999998
   19.74861145  143.72799683    1.46000004    2.76999998
   19.75194359  148.97799683    1.44000006    2.75000000
   19.75527763  141.77099609    1.46000004    2.76999998
   19.75777817  153.76600647    1.46000004    2.76999998
   19.75888824  154.27000427    1.46000004    2.76999998
   19.76222229  150.58099365    1.46000004    2.76999998
   19.76527786  149.78999329    1.46000004    2.76999998
   19.76861000  147.24499512    1.48000002    2.76999998
   19.77166557  139.05900574    1.48000002    2.76999998
   19.77499962  144.24899292    1.48000002    2.76999998
   19.77833366  147.29600525    1.48000002    2.76999998
   19.78138924  152.00399780    1.46000004    2.76999998
   19.78472137  144.47599792    1.46000004    2.76999998
   19.78805542  143.63699341    1.46000004    2.76999998
   19.79111099  138.30499268    1.44000006    2.75000000
   19.79166603  155.80700684    1.44000006    2.76999998
   19.79500008  122.17199707    1.44000006    2.75000000
   19.79805565  116.80699921    1.44000006    2.75000000
   19.80138779  130.76400757    1.44000006    2.76999998
   19.80472183  134.39199829    1.44000006    2.76999998
   19.80777740  127.06199646    1.44000006    2.76999998
   19.81110954  125.94999695    1.44000006    2.75000000
   19.81416512  138.51899719    1.46000004    2.75000000
   19.81750107  146.27499390    1.46000004    2.75000000
   19.82083511  134.74400330    1.46000004    2.76999998
   19.82389069  142.41799927    1.46000004    2.75000000
   19.82472229  130.54200745    1.46000004    2.75000000
   19.82750130  136.32200623    1.46000004    2.75000000
   19.83083344  136.63900757    1.46000004    2.75000000
   19.83416748  133.81199646    1.46000004    2.75000000
   19.83722305  143.42500305    1.46000004    2.76999998
   19.84055710  150.20899963    1.48000002    2.75000000
   19.84388924  144.16200256    1.48000002    2.76999998
   19.84694481  140.99699402    1.48000002    2.76999998
   19.85027885  143.01400757    1.48000002    2.75000000
   19.85333443  136.47700500    1.46000004    2.75000000
   19.85666656  132.48500061    1.46000004    2.76999998
   19.85805511  141.51600647    1.46000004    2.75000000
   19.86027908  130.49499512    1.46000004    2.75000000
   19.86361122  147.33000183    1.46000004    2.75000000
   19.86666679  142.05000305    1.46000004    2.76999998
   19.87000084  141.82099915    1.46000004    2.76999998
   19.87333298  137.74600220    1.46000004    2.75000000
   19.87638855  139.75799561    1.46000004    2.75000000
   19.87972260  154.44599915    1.46000004    2.75000000
   19.88305473  148.75199890    1.46000004    2.75000000
   19.88611031  134.68400574    1.46000004    2.75000000
   19.88944435  147.45300293    1.46000004    2.75000000
   19.89111137  138.42799377    1.46000004    2.75000000
   19.89305496  147.10200500    1.48000002    2.75000000
   19.89638901  165.36000061    1.48000002    2.75000000
   19.89972115  146.67199707    1.48000002    2.75000000
   19.90277672  139.28799438    1.48000002    2.75000000
   19.90611076  138.31500244    1.50000000    2.75000000
   19.90944481  139.44099426    1.50000000    2.76999998
   19.91250038  165.09500122    1.50000000    2.75000000
   19.91583252  137.14999390    1.50000000    2.75000000
   19.91888809  146.18099976    1.51999998    2.75000000
   19.92222214  143.46800232    1.51999998    2.75000000
   19.93999863  144.86599731    1.53999996    2.75000000
   19.94222069  139.97000122    1.53999996    2.75000000
   19.94527626  139.55499268    1.53999996    2.75000000
   19.94861031  135.72700500    1.55999994    2.75000000
   19.95194435  132.08900452    1.55999994    2.75000000
   19.95527840  147.49800110    1.60000002    2.75000000
   19.95861244  139.38099670    1.60000002    2.75000000
   19.96166801  141.84899902    1.60000002    2.75000000
   19.96500015  163.77299500    1.58000004    2.73000002
   19.96805573  151.98399353    1.58000004    2.75000000
   19.97138977  138.00000000    1.58000004    2.75000000
   19.97333336  116.50800323    1.58000004    2.75000000
   19.97500038  150.03900146    1.60000002    2.73000002
   19.97833443  138.75999451    1.60000002    2.73000002
   19.98166656  150.38000488    1.58000004    2.75000000
   19.98472214  138.69299316    1.58000004    2.75000000
   19.98805618  143.16099548    1.58000004    2.75000000
   19.99138832  144.50900269    1.60000002    2.75000000
   19.99444389  153.50399780    1.58000004    2.75000000
   19.99777794  148.91600037    1.60000002    2.73000002
   20.00138855  140.78799438    1.60000002    2.73000002
   20.00444412  130.45700073    1.61000001    2.73000002
   20.00666618  145.33599854    1.63000000    2.73000002
   20.00833321  143.96099854    1.64999998    2.73000002
   20.01138878  124.77999878    1.66999996    2.73000002
   20.01472282  114.74600220    1.69000006    2.73000002
   20.01777840  148.20799255    1.69000006    2.73000002
   20.02111053  137.13000488    1.66999996    2.75000000
   20.02444458  128.08799744    1.64999998    2.75000000
   20.02750015  136.44200134    1.64999998    2.73000002
   20.03083229  142.16299438    1.64999998    2.73000002
   20.03416634  142.58399963    1.63000000    2.73000002
   20.03722191  154.58000183    1.63000000    2.73000002
   20.03999901  137.64100647    1.63000000    2.73000002
   20.04111099  148.40600586    1.63000000    2.73000002
   20.04416656  138.19099426    1.63000000    2.73000002
   20.04749870  137.36300659    1.63000000    2.71000004
   20.05055428  134.10000610    1.60000002    2.73000002
   20.05388832  138.93499756    1.61000001    2.73000002
   20.05722237  142.05499268    1.60000002    2.73000002
   20.06055450  139.71099854    1.60000002    2.73000002
   20.06361008  139.97500610    1.60000002    2.71000004
   20.06694603  130.85000610    1.60000002    2.73000002
   20.07000160  129.46699524    1.60000002    2.73000002
   20.07333374  132.21000671    1.61000001    2.73000002
   20.07389069  142.91700745    1.60000002    2.73000002
   20.07694626  132.00999451    1.60000002    2.73000002
   20.08027840  149.73199463    1.60000002    2.73000002
   20.08333397  139.88800049    1.60000002    2.73000002
   20.08666801  136.34100342    1.60000002    2.73000002
   20.09000015  143.21499634    1.58000004    2.73000002
   20.09305573  139.44200134    1.60000002    2.73000002
   20.09638977  141.23599243    1.58000004    2.73000002
   20.09972191  146.08999634    1.58000004    2.73000002
   20.10277748  140.69299316    1.60000002    2.71000004
   20.10611153  135.19099426    1.60000002    2.73000002
   20.10666656  139.45899963    1.60000002    2.73000002
   20.10972214  144.32499695    1.60000002    2.73000002
   20.11277771  133.89100647    1.60000002    2.71000004
   20.11611176  125.01699829    1.60000002    2.71000004
   20.11944389  137.15800476    1.60000002    2.73000002
   20.12249947  143.44599915    1.60000002    2.73000002
   20.12583351  134.46899414    1.60000002    2.73000002
   20.12916756  142.62100220    1.61000001    2.73000002
   20.13222313  153.43800354    1.61000001    2.73000002
   20.13555527  138.20199585    1.60000002    2.73000002
   20.13861084  135.14500427    1.60000002    2.71000004
   20.13999939  142.13999939    1.60000002    2.71000004
   20.14249992  140.60800171    1.58000004    2.73000002
   20.14555550  136.28199768    1.58000004    2.71000004
   20.14888954  144.66600037    1.58000004    2.71000004
   20.15222168  138.62100220    1.60000002    2.71000004
   20.15527725  134.01800537    1.58000004    2.71000004
   20.15861130  143.19799805    1.60000002    2.71000004
   20.16194344  142.97599792    1.60000002    2.71000004
   20.16499901  137.94299316    1.60000002    2.71000004
   20.16833305  140.76600647    1.61000001    2.71000004
   20.17166519  136.00900269    1.63000000    2.71000004
   20.17333221  158.46499634    1.63000000    2.71000004
   20.17527771  138.66600037    1.63000000    2.71000004
   20.17833328  146.47099304    1.64999998    2.71000004
   20.18166542  146.72599792    1.64999998    2.71000004
   20.18499947  143.49400330    1.64999998    2.71000004
   20.18805504  159.57499695    1.66999996    2.71000004
   20.19138718  135.69299316    1.66999996    2.71000004
   20.19472122  147.93600464    1.66999996    2.71000004
   20.19777679  135.23699951    1.66999996    2.71000004
   20.20111275  142.16400146    1.64999998    2.71000004
   20.20444489  135.45199585    1.66999996    2.71000004
   20.20666695  142.07600403    1.69000006    2.71000004
   20.20805550  144.64300537    1.69000006    2.71000004
   20.21111107  139.99499512    1.69000006    2.71000004
   20.21444511  150.69900513    1.69000006    2.71000004
   20.21777916  133.60699463    1.71000004    2.69000006
   20.22083473  141.72500610    1.71000004    2.69000006
   20.22416687  142.30400085    1.71000004    2.69000006
   20.22722244  136.76100159    1.73000002    2.69000006
   20.23055649  124.80599976    1.73000002    2.69000006
   20.23388863  135.76300049    1.73000002    2.71000004
   20.23694420  140.56700134    1.73000002    2.71000004
   20.23999977  128.41700745    1.71000004    2.69000006
   20.24083328  135.53999329    1.73000002    2.71000004
   20.24388885  141.07699585    1.71000004    2.71000004
   20.24722290  135.86500549    1.71000004    2.71000004
   20.25055504  139.48599243    1.71000004    2.71000004
   20.25361061  146.88499451    1.71000004    2.69000006
   20.25694466  141.61999512    1.71000004    2.69000006
   20.26027870  129.28900146    1.69000006    2.69000006
   20.26361084  151.42199707    1.69000006    2.69000006
   20.26666641  150.45100403    1.69000006    2.69000006
   20.27000046  139.63099670    1.71000004    2.69000006
   20.27333260  141.14500427    1.71000004    2.71000004
   20.27388954  158.19799805    1.71000004    2.71000004
   20.27694511  146.33200073    1.71000004    2.71000004
   20.28027725  139.29899597    1.71000004    2.69000006
   20.28333282  137.84500122    1.71000004    2.69000006
   20.28666687  139.64599609    1.71000004    2.69000006
   20.28999901  134.32699585    1.73000002    2.69000006
   20.29333305  125.44400024    1.73000002    2.69000006
   20.29638863  118.26200104    1.73000002    2.69000006
   20.29972076  116.77799988    1.73000002    2.69000006
   20.30305481  133.73300171    1.75000000    2.69000006
   20.30611038  139.16000366    1.76999998    2.69000006
   20.30722237  122.87999725    1.76999998    2.69000006
   20.30972099  157.35800171    1.76999998    2.69000006
   20.31305504  277.21301270    1.75000000    2.69000006
   20.31638718   69.54340363    1.76999998    2.69000006
   20.31944466   -1.00000000    1.75000000    2.69000006
   20.32277870   -1.00000000    1.75000000    2.67000008
   20.32611275   -1.00000000    1.75000000    2.67000008
   20.32916832   -1.00000000    1.76999998    2.67000008
   20.33250046   -1.00000000    1.76999998    2.69000006
   20.33555603   -1.00000000    1.76999998    2.67000008
   20.33889008   -1.00000000    1.78999996    2.67000008
   20.34250069   -1.00000000    1.80999994    2.67000008
   20.34583473   -1.00000000    1.80999994    2.69000006
   20.34889030   -1.00000000    1.80999994    2.67000008
   20.35222244   -1.00000000    1.83000004    2.67000008
   20.35527802   -1.00000000    1.83000004    2.67000008
   20.35861206   -1.00000000    1.83000004    2.67000008
   20.36194420   -1.00000000    1.83000004    2.67000008
   20.36499977   -1.00000000    1.80999994    2.67000008
   20.36833382   -1.00000000    1.80999994    2.67000008
   20.37166595   -1.00000000    1.83000004    2.67000008
   20.37527847   -1.00000000    1.85000002    2.67000008
   20.37861061   -1.00000000    1.85000002    2.67000008
   20.38166618   -1.00000000    1.85000002    2.66000009
   20.38500023   -1.00000000    1.86000001    2.67000008
   20.38805580   -1.00000000    1.86000001    2.67000008
   20.39138794   -1.00000000    1.88000000    2.66000009
   20.39472198   -1.00000000    1.89999998    2.67000008
   20.39777756   -1.00000000    1.91999996    2.66000009
   20.40111160   -1.00000000    1.88000000    2.66000009
   20.40444374   -1.00000000    1.88000000    2.66000009
   20.40777779   -1.00000000    1.89999998    2.67000008
   20.41110992   -1.00000000    1.88000000    2.67000008
   20.41416550   -1.00000000    1.88000000    2.66000009
   20.41749954   -1.00000000    1.88000000    2.66000009
   20.42055511   -1.00000000    1.88000000    2.67000008
   20.42388916   -1.00000000    1.89999998    2.66000009
   20.42722130   -1.00000000    1.89999998    2.66000009
   20.43027687   -1.00000000    1.89999998    2.66000009
   20.43361092   -1.00000000    1.91999996    2.66000009
   20.43694305   -1.00000000    1.91999996    2.66000009
   20.43999863   -1.00000000    1.94000006    2.66000009
   20.44388771   -1.00000000    1.94000006    2.66000009
   20.44694328   -1.00000000    1.96000004    2.66000009
   20.45027924   -1.00000000    1.96000004    2.64000010
   20.45361137   -1.00000000    1.96000004    2.66000009
   20.45666695   -1.00000000    1.96000004    2.66000009
   20.46000099   -1.00000000    1.96000004    2.66000009
   20.46305656   -1.00000000    1.98000002    2.66000009
   20.46638870   -1.00000000    1.98000002    2.66000009
   20.46972275   -1.00000000    1.98000002    2.66000009
   20.47277832   -1.00000000    1.98000002    2.66000009
   20.47638893   -1.00000000    2.00000000    2.64000010
   20.47944450   -1.00000000    2.00000000    2.66000009
   20.48277855   -1.00000000    2.00000000    2.64000010
   20.48611069   -1.00000000    2.01999998    2.66000009
   20.48916626   -1.00000000    2.03999996    2.64000010
   20.49250031   -1.00000000    2.03999996    2.66000009
   20.49555588   -1.00000000    2.05999994    2.64000010
   20.49888992   -1.00000000    2.07999992    2.64000010
   20.50222206   -1.00000000    2.07999992    2.64000010
   20.50555611   -1.00000000    2.07999992    2.64000010
   20.50916672   -1.00000000    2.07999992    2.64000010
   20.51222229   -1.00000000    2.09999990    2.64000010
   20.51555634   -1.00000000    2.09999990    2.64000010
   20.51888847   -1.00000000    2.09999990    2.64000010
   20.52194405   -1.00000000    2.11999989    2.64000010
   20.52527809   -1.00000000    2.11999989    2.64000010
   20.52833366   -1.00000000    2.13000011    2.64000010
   20.53166580   -1.00000000    2.13000011    2.64000010
   20.53499985   -1.00000000    2.13000011    2.61999989
   20.53805542   -1.00000000    2.15000010    2.64000010
   20.54166603   -1.00000000    2.15000010    2.61999989
   20.54472160   -1.00000000    2.17000008    2.61999989
   20.54805565   -1.00000000    2.15000010    2.61999989
   20.55111122   -1.00000000    2.17000008    2.61999989
   20.55444336   -1.00000000    2.17000008    2.64000010
   20.55777740   -1.00000000    2.17000008    2.64000010
   20.56083298   -1.00000000    2.15000010    2.64000010
   20.56416512   -1.00000000    2.15000010    2.64000010
   20.56750107   -1.00000000    2.15000010    2.64000010
   20.57055664   -1.00000000    2.17000008    2.61999989
   20.57389069   -1.00000000    2.15000010    2.61999989
   20.57750130   -1.00000000    2.15000010    2.61999989
   20.58083344   -1.00000000    2.15000010    2.61999989
   20.58388901   -1.00000000    2.13000011    2.64000010
   20.58722305   -1.00000000    2.15000010    2.61999989
   20.59055710   -1.00000000    2.13000011    2.64000010
   20.59361267   -1.00000000    2.13000011    2.61999989
   20.59694481   -1.00000000    2.13000011    2.64000010
   20.60027885   -1.00000000    2.13000011    2.61999989
   20.60333443   -1.00000000    2.13000011    2.61999989
   20.60666656   -1.00000000    2.13000011    2.61999989
   20.61000061   -1.00000000    2.15000010    2.61999989
   20.61333466   -1.00000000    2.13000011    2.61999989
   20.61638832   -1.00000000    2.13000011    2.61999989
   20.61972237   -1.00000000    2.13000011    2.59999990
   20.62305641   -1.00000000    2.15000010    2.61999989
   20.62611198   -1.00000000    2.15000010    2.61999989
   20.62944412   -1.00000000    2.15000010    2.61999989
   20.63277817   -1.00000000    2.15000010    2.61999989
   20.63583374   -1.00000000    2.15000010    2.61999989
   20.63916588   -1.00000000    2.15000010    2.61999989
   20.64249992   -1.00000000    2.17000008    2.61999989
   20.64583397   -1.00000000    2.17000008    2.61999989
   20.64888954   -1.00000000    2.17000008    2.61999989
   20.65222168   -1.00000000    2.19000006    2.59999990
   20.65555573   -1.00000000    2.19000006    2.59999990
   20.65861130   -1.00000000    2.19000006    2.59999990
   20.66194344   -1.00000000    2.21000004    2.59999990
   20.66499901   -1.00000000    2.23000002    2.59999990
   20.66833305   -1.00000000    2.23000002    2.59999990
   20.67166519   -1.00000000    2.25000000    2.59999990
   20.67499924   -1.00000000    2.25000000    2.59999990
   20.67833328   -1.00000000    2.26999998    2.59999990
   20.68138885   -1.00000000    2.26999998    2.59999990
   20.68472099   -1.00000000    2.28999996    2.59999990
   20.68805504   -1.00000000    2.28999996    2.59999990
   20.69111061   -1.00000000    2.28999996    2.59999990
   20.69444275   -1.00000000    2.30999994    2.57999992
   20.69777679   -1.00000000    2.30999994    2.59999990
   20.70083427   -1.00000000    2.28999996    2.59999990
   20.70416832   -1.00000000    2.28999996    2.59999990
   20.70722389   -1.00000000    2.28999996    2.59999990
   20.71083450   -1.00000000    2.28999996    2.59999990
   20.71389008   -1.00000000    2.30999994    2.59999990
   20.71722221   -1.00000000    2.32999992    2.57999992
   20.72055626   -1.00000000    2.32999992    2.59999990
   20.72361183   -1.00000000    2.32999992    2.57999992
   20.72694588   -1.00000000    2.32999992    2.57999992
   20.73027802   -1.00000000    2.28999996    2.57999992
   20.73333359   -1.00000000    2.30999994    2.57999992
   20.73666763   -1.00000000    2.30999994    2.59999990
   20.73972321   -1.00000000    2.30999994    2.57999992
   20.74333382   -1.00000000    2.32999992    2.59999990
   20.74638939   -1.00000000    2.34999990    2.57999992
   20.74972153   -1.00000000    2.34999990    2.57999992
   20.75305557   -1.00000000    2.36999989    2.57999992
   20.75611115   -1.00000000    2.36999989    2.57999992
   20.75944519   -1.00000000    2.40000010    2.57999992
   20.76277733   -1.00000000    2.40000010    2.57999992
   20.76583290   -1.00000000    2.40000010    2.57999992
   20.76916695   -1.00000000    2.40000010    2.55999994
   20.77222252   -1.00000000    2.40000010    2.57999992
   20.77583313   -1.00000000    2.42000008    2.57999992
   20.77888870   -1.00000000    2.44000006    2.55999994
   20.78222275   -1.00000000    2.42000008    2.55999994
   20.78555489   -1.00000000    2.42000008    2.55999994
   20.78861046   -1.00000000    2.42000008    2.55999994
   20.79194450   -1.00000000    2.40000010    2.55999994
   20.79527664   -1.00000000    2.42000008    2.55999994
   20.79833221   -1.00000000    2.42000008    2.55999994
   20.80166626   -1.00000000    2.44000006    2.55999994
   20.80472183   -1.00000000    2.46000004    2.55999994
   20.80833244   -1.00000000    2.50000000    2.55999994
   20.81138802   -1.00000000    2.51999998    2.55999994
   20.81472206   -1.00000000    2.51999998    2.55999994
   20.81805611   -1.00000000    2.53999996    2.55999994
   20.82111168   -1.00000000    2.55999994    2.53999996
   20.82444572   -1.00000000    2.57999992    2.55999994
   20.82777786   -1.00000000    2.59999990    2.55999994
   20.83083344   -1.00000000    2.59999990    2.53999996
   20.83416748   -1.00000000    2.66000009    2.55999994
   20.83722305   -1.00000000    2.64000010    2.53999996
   20.84055710   -1.00000000    2.64000010    2.53999996
   20.84416771   -1.00000000    2.66000009    2.53999996
   20.84722328   -1.00000000    2.64000010    2.53999996
   20.85055542   -1.00000000    2.64000010    2.55999994
   20.85388947   -1.00000000    2.66000009    2.53999996
   20.85694504   -1.00000000    2.67000008    2.53999996
   20.86027908   -1.00000000    2.69000006    2.53999996
   20.86361122   -1.00000000    2.69000006    2.53999996
   20.86666679   -1.00000000    2.71000004    2.53999996
   20.87000084   -1.00000000    2.71000004    2.51999998
   20.87305641   -1.00000000    2.75000000    2.53999996
   20.87666702   -1.00000000    2.75000000    2.51999998
   20.87972260   -1.00000000    2.76999998    2.53999996
   20.88305473   -1.00000000    2.76999998    2.53999996
   20.88638878   -1.00000000    2.78999996    2.53999996
   20.88944435   -1.00000000    2.80999994    2.51999998
   20.89277840   -1.00000000    2.80999994    2.51999998
   20.89611053   -1.00000000    2.82999992    2.51999998
   20.89916611   -1.00000000    2.82999992    2.51999998
   20.90250015   -1.00000000    2.82999992    2.51999998
   20.90555573   -1.00000000    2.84999990    2.51999998
   20.90916634   -1.00000000    2.84999990    2.51999998
   20.91222191   -1.00000000    2.84999990    2.51999998
   20.91555595   -1.00000000    2.84999990    2.51999998
   20.91888809   -1.00000000    2.86999989    2.51999998
   20.92194366   -1.00000000    2.91000009    2.51999998
   20.92527771   -1.00000000    2.91000009    2.51999998
   20.92860985   -1.00000000    2.91000009    2.51999998
   20.93166542   -1.00000000    2.89000010    2.51999998
   20.93499947   -1.00000000    2.89000010    2.51999998
   20.93805504   -1.00000000    2.86999989    2.50000000
   20.95805550   -1.00000000    2.84999990    2.51999998
   20.96138954   -1.00000000    2.84999990    2.51999998
   20.96444511   -1.00000000    2.84999990    2.50000000
   20.96777916   -1.00000000    2.84999990    2.50000000
   20.97111130   -1.00000000    2.82999992    2.50000000
   20.97416687   -1.00000000    2.82999992    2.50000000
   20.97750092   -1.00000000    2.82999992    2.50000000
   20.98055649   -1.00000000    2.82999992    2.50000000
   20.98388863   -1.00000000    2.84999990    2.50000000
   20.98722267   -1.00000000    2.82999992    2.50000000
   20.99083328   -1.00000000    2.84999990    2.50000000
   20.99388885   -1.00000000    2.86999989    2.50000000
   20.99722290   -1.00000000    2.86999989    2.50000000
   21.00055504   -1.00000000    2.86999989    2.48000002
   21.00388908   -1.00000000    2.86999989    2.50000000
   21.00722313   -1.00000000    2.86999989    2.48000002
   21.01027870   -1.00000000    2.86999989    2.48000002
   21.01361084   -1.00000000    2.86999989    2.48000002
   21.01694489   -1.00000000    2.86999989    2.48000002
   21.02000046   -1.00000000    2.89000010    2.48000002
   21.02361107   -1.00000000    2.89000010    2.48000002
   21.02666664   -1.00000000    2.89000010    2.48000002
   21.03000069   -1.00000000    2.89000010    2.48000002
   21.03333282   -1.00000000    2.91000009    2.48000002
   21.03638840   -1.00000000    2.89000010    2.48000002
   21.03972244   -1.00000000    2.89000010    2.48000002
   21.04277802   -1.00000000    2.91000009    2.48000002
   21.04611015   -1.00000000    2.89000010    2.46000004
   21.04944420   -1.00000000    2.89000010    2.48000002
   21.05249977   -1.00000000    2.89000010    2.48000002
   21.05583191   -1.00000000    2.91000009    2.46000004
   21.05944443   -1.00000000    2.93000007    2.46000004
   21.06250000   -1.00000000    2.93000007    2.46000004
   21.06583214   -1.00000000    2.91000009    2.46000004
   21.06916809   -1.00000000    2.91000009    2.46000004
   21.07222366   -1.00000000    2.91000009    2.46000004
   21.07555580   -1.00000000    2.91000009    2.48000002
   21.07888985   -1.00000000    2.89000010    2.46000004
   21.08194542   -1.00000000    2.89000010    2.46000004
   21.08527756   -1.00000000    2.91000009    2.48000002
   21.08833313   -1.00000000    2.91000009    2.48000002
   21.09194565   -1.00000000    2.91000009    2.46000004
   21.09500122   -1.00000000    2.89000010    2.46000004
   21.09833336   -1.00000000    2.89000010    2.46000004
   21.10166740   -1.00000000    2.89000010    2.46000004
   21.10472298   -1.00000000    2.91000009    2.46000004
   21.10805511   -1.00000000    2.91000009    2.46000004
   21.11138916   -1.00000000    2.93000007    2.46000004
   21.11444473   -1.00000000    2.94000006    2.46000004
   21.11777878   -1.00000000    2.94000006    2.46000004
   21.12083435   -1.00000000    2.96000004    2.46000004
   21.12444496   -1.00000000    2.98000002    2.46000004
   21.12750053   -1.00000000    3.00000000    2.46000004
   21.13083267   -1.00000000    3.01999998    2.46000004
   21.13416672   -1.00000000    3.03999996    2.44000006
   21.13722229   -1.00000000    3.05999994    2.44000006
   21.14055634   -1.00000000    3.05999994    2.44000006
   21.14388847   -1.00000000    3.07999992    2.44000006
   21.14694405   -1.00000000    3.07999992    2.44000006
   21.15027809   -1.00000000    3.09999990    2.44000006
   21.15333366   -1.00000000    3.09999990    2.42000008
   21.15694427   -1.00000000    3.11999989    2.42000008
   21.15999985   -1.00000000    3.14000010    2.42000008
   21.16333389   -1.00000000    3.16000009    2.42000008
   21.16666603   -1.00000000    3.14000010    2.42000008
   21.16972160   -1.00000000    3.16000009    2.42000008
   21.17305565   -1.00000000    3.16000009    2.42000008
   21.17638779   -1.00000000    3.18000007    2.42000008
   21.17944336   -1.00000000    3.18000007    2.42000008
   21.18277740   -1.00000000    3.18000007    2.42000008
   21.18583298   -1.00000000    2.64000010    2.55999994
   21.18916512   -1.00000000    0.19000000    0.40000001
   21.19277763   -1.00000000    0.11000000    0.11000000
   21.19583321   -1.00000000    0.11000000    0.11000000
   21.19916534   -1.00000000    0.11000000    0.11000000
   21.20250130   -1.00000000    0.11000000    0.11000000
   21.20555687   -1.00000000    0.11000000    0.11000000
   21.20888901   -1.00000000    0.11000000    0.11000000
   21.21222305   -1.00000000    0.11000000    0.11000000
   21.21527863   -1.00000000    0.11000000    0.11000000
   21.21861076   -1.00000000    0.11000000    0.11000000
   21.22166634   -1.00000000    0.11000000    0.11000000
   21.22527885   -1.00000000    0.11000000    0.11000000
   21.22861099   -1.00000000    0.11000000    0.11000000
   21.23166656   -1.00000000    0.11000000    0.11000000
   21.23500061   -1.00000000    0.11000000    0.11000000
   21.23805618   -1.00000000    0.11000000    0.11000000
   21.24138832   -1.00000000    0.11000000    0.11000000
   21.24472237   -1.00000000    0.11000000    0.11000000
   21.24777794   -1.00000000    0.11000000    0.11000000
   21.25111198   -1.00000000    0.11000000    0.11000000
   21.25444412   -1.00000000    0.11000000    0.11000000
   21.25805473   -1.00000000    0.11000000    0.11000000
   21.26111031   -1.00000000    0.11000000    0.11000000
   21.26444435   -1.00000000    0.11000000    0.11000000
   21.26777840   -1.00000000    0.11000000    0.11000000
   21.27083397   -1.00000000    0.11000000    0.11000000
   21.27416611   -1.00000000    0.11000000    0.11000000
   21.27750015   -1.00000000    0.11000000    0.11000000
   21.28055573   -1.00000000    0.11000000    0.11000000
   21.28388786   -1.00000000    0.11000000    0.11000000
   21.28722191   -1.00000000    0.11000000    0.11000000
   21.29055595   -1.00000000    0.11000000    0.11000000
   21.29388809   -1.00000000    0.11000000    0.11000000
   21.29694366   -1.00000000    0.11000000    0.11000000
   21.30027771   -1.00000000    0.11000000    0.11000000
   21.30333328   -1.00000000    0.11000000    0.11000000
   21.30666542   -1.00000000    0.11000000    0.11000000
   21.30999947   -1.00000000    0.11000000    0.11000000
   21.31305504   -1.00000000    0.11000000    0.11000000
   21.31638718   -1.00000000    0.11000000    0.11000000
   21.31972313   -1.00000000    0.11000000    0.11000000
   21.32277870   -1.00000000    0.11000000    0.11000000
   21.32611275   -1.00000000    0.11000000    0.11000000
   21.32944489   -1.00000000    0.11000000    0.11000000
   21.33277893   -1.00000000    0.11000000    0.11000000
   21.33583450   -1.00000000    0.11000000    0.11000000
   21.33916664   -1.00000000    0.11000000    0.11000000
   21.34250069   -1.00000000    0.11000000    0.11000000
   21.34555626   -1.00000000    0.11000000    0.11000000
   21.34889030   -1.00000000    0.11000000    0.11000000
   21.35194397   -1.00000000    0.11000000    0.11000000
   21.35527802   -1.00000000    0.11000000    0.11000000
   21.35888863   -1.00000000    0.11000000    0.11000000
   21.36194420   -1.00000000    0.11000000    0.11000000
   21.36527824   -1.00000000    0.11000000    0.11000000
   21.36833382   -1.00000000    0.11000000    0.11000000
   21.37166595   -1.00000000    0.11000000    0.11000000
   21.37500000   -1.00000000    0.11000000    0.11000000
   21.37805557   -1.00000000    0.11000000    0.11000000
   21.38138962   -1.00000000    0.11000000    0.11000000
   21.38472176   -1.00000000    0.11000000    0.11000000
   21.38777733   -1.00000000    0.11000000    0.11000000
   21.39111137   -1.00000000    0.11000000    0.11000000
   21.39444351   -1.00000000    0.11000000    0.11000000
   21.39777756   -1.00000000    0.11000000    0.11000000
   21.40083313   -1.00000000    0.11000000    0.11000000
   21.40416718   -1.00000000    0.11000000    0.11000000
   21.40749931   -1.00000000    0.11000000    0.11000000
   21.41055489   -1.00000000    0.11000000    0.11000000
   21.41388893   -1.00000000    0.11000000    0.11000000
   21.41722107   -1.00000000    0.11000000    0.11000000
   21.42027664   -1.00000000    0.11000000    0.11000000
   21.42361069   -1.00000000    0.11000000    0.11000000
   21.42694473   -1.00000000    0.11000000    0.11000000
   21.43027687   -1.00000000    0.11000000    0.11000000
   21.43333244   -1.00000000    0.11000000    0.11000000
   21.43666649   -1.00000000    0.11000000    0.11000000
   21.43999863   -1.00000000    0.11000000    0.11000000
   21.44305420   -1.00000000    0.11000000    0.11000000
   21.44638824   -1.00000000    0.11000000    0.11000000
   21.44972038   -1.00000000    0.11000000    0.11000000
   21.45277786   -1.00000000    0.11000000    0.11000000
   21.45611191   -1.00000000    0.11000000    0.11000000
   21.45972252   -1.00000000    0.11000000    0.11000000
   21.46277809   -1.00000000    0.11000000    0.11000000
   21.46611214   -1.00000000    0.11000000    0.11000000
   21.46916771   -1.00000000    0.11000000    0.11000000
   21.47249985   -1.00000000    0.11000000    0.11000000
   21.47583389   -1.00000000    0.11000000    0.11000000
   21.47888947   -1.00000000    0.11000000    0.11000000
   21.48222351   -1.00000000    0.11000000    0.11000000
   21.48555565   -1.00000000    0.11000000    0.11000000
   21.48861122   -1.00000000    0.11000000    0.11000000
   21.49194527   -1.00000000    0.11000000    0.11000000
   21.49527740   -1.00000000    0.11000000    0.11000000
   21.49861145   -1.00000000    0.11000000    0.11000000
   21.50194359   -1.00000000    0.11000000    0.11000000
   21.50527763   -1.00000000    0.11000000    0.11000000
   21.50833321   -1.00000000    0.11000000    0.11000000
   21.51166725   -1.00000000    0.11000000    0.11000000
   21.51499939   -1.00000000    0.11000000    0.11000000
   21.51805496   -1.00000000    0.11000000    0.11000000
   21.52138901   -1.00000000    0.11000000    0.11000000
   21.52499962   -1.00000000    0.11000000    0.11000000
   21.52805519   -1.00000000    0.11000000    0.11000000
   21.53138924   -1.00000000    0.11000000    0.11000000
   21.53444481   -1.00000000    0.11000000    0.11000000
   21.53777695   -1.00000000    0.11000000    0.11000000
   21.54111099   -1.00000000    0.11000000    0.11000000
   21.54416656   -1.00000000    0.11000000    0.11000000
   21.54749870   -1.00000000    0.11000000    0.11000000
   21.55055428   -1.00000000    0.11000000    0.11000000
   21.55388832   -1.00000000    0.11000000    0.11000000
   21.55722237   -1.00000000    0.11000000    0.11000000
   21.56055450   -1.00000000    0.11000000    0.11000000
   21.56388855   -1.00000000    0.11000000    0.11000000
   21.56694603   -1.00000000    0.11000000    0.11000000
   21.57027817   -1.00000000    0.11000000    0.11000000
   21.57361221   -1.00000000    0.11000000    0.11000000
   21.57666779   -1.00000000    0.11000000    0.11000000
   21.58000183   -1.00000000    0.11000000    0.11000000
   21.58333397   -1.00000000    0.11000000    0.11000000
   21.58638954   -1.00000000    0.11000000    0.11000000
   21.58972359   -1.00000000    0.11000000    0.11000000
   21.59305573   -1.00000000    0.11000000    0.11000000
   21.59638977   -1.00000000    0.11000000    0.11000000
   21.59944534   -1.00000000    0.11000000    0.11000000
   21.60277748   -1.00000000    0.11000000    0.11000000
   21.60611153   -1.00000000    0.11000000    0.11000000
   21.60916710   -1.00000000    0.11000000    0.11000000
   21.61250114   -1.00000000    0.11000000    0.11000000
   21.61555672   -1.00000000    0.11000000    0.11000000
   21.61888885   -1.00000000    0.11000000    0.11000000
   21.62222290   -1.00000000    0.11000000    0.11000000
   21.62555504   -1.00000000    0.11000000    0.11000000
   21.62888908   -1.00000000    0.11000000    0.11000000
   21.63194466   -1.00000000    0.11000000    0.11000000
   21.63527679   -1.00000000    0.11000000    0.11000000
   21.63861084   -1.00000000    0.11000000    0.11000000
   21.64166641   -1.00000000    0.11000000    0.11000000
   21.64500046   -1.00000000    0.11000000    0.11000000
   21.64833260   -1.00000000    0.11000000    0.11000000
   21.65138817   -1.00000000    0.11000000    0.11000000
   21.65472221   -1.00000000    0.11000000    0.11000000
   21.65805435   -1.00000000    0.11000000    0.11000000
   21.66138840   -1.00000000    0.11000000    0.11000000
   21.66444397   -1.00000000    0.11000000    0.11000000
   21.66777802   -1.00000000    0.11000000    0.11000000
