    HOUR (UT)   FLARE FACTOR    SKY TESTER    SUN TESTER
   10.72222137   -1.00000000   -1.00000000   -1.00000000
   10.83277798  162.41400146    4.90999985    0.89999998
   10.83611107  229.07000732    4.90999985    0.92000002
   10.83916664  130.56599426    4.90999985    0.89999998
   10.84249973  114.80500031    4.90999985    0.67000002
   10.84583282   56.23440170    4.90999985    0.75000000
   10.84888840   -1.00000000    4.90999985    0.36000001
   10.85722256  115.87699890    4.90999985    0.55000001
   10.86027813  115.40899658    4.90999985    1.38000000
   10.86361122  148.42300415    4.90999985    1.69000006
   10.86611176  116.34799957    4.90999985    1.71000004
   10.86694431  113.77700043    4.90999985    1.69000006
   10.87027836  102.85399628    4.90999985    1.51999998
   10.87361145   -1.00000000    4.90999985    1.14999998
   10.87666702   -1.00000000    4.90999985    0.79000002
   10.88000011   23.57019997    4.90999985    0.94000000
   10.88333321   -1.00000000   -1.00000000   -1.00000000
   10.88638878   -1.00000000    4.90999985    1.50000000
   10.88972187   -1.00000000    4.90999985    1.38000000
   10.89999962   -1.00000000    4.90999985    0.23000000
   10.90305519   -1.00000000    4.90999985    0.13000000
   10.90638828   -1.00000000    4.90999985    0.09000000
   10.90972137   -1.00000000    4.90999985    0.09000000
   10.91277695   -1.00000000    4.90999985    0.09000000
   11.29833412  166.80000305    1.89999998    2.25000000
   11.30166721  181.57000732    2.17000008    2.25000000
   11.30472279  180.87899780    2.32999992    2.25000000
   11.30805588  173.76100159    2.55999994    2.25000000
   11.31111145  194.85200500    2.67000008    2.25000000
   11.31444454  190.18400574    2.89000010    2.25000000
   11.31861115  190.18400574    2.40000010    2.25000000
   11.32277775  171.89999390    1.51999998    2.25000000
   11.32583332  183.18299866    1.48000002    2.25000000
   11.32916641  170.93499756    1.48000002    2.25000000
   11.33166695  177.71899414    1.50000000    2.25000000
   11.33305550  189.19700623    1.50000000    2.25000000
   11.33611107  193.60499573    1.53999996    2.25000000
   11.33944416  170.47799683    1.53999996    2.25000000
   11.34249973  180.55900574    1.53999996    2.25000000
   11.34583282  183.34199524    1.51999998    2.26999998
   11.34916592  167.23399353    1.51999998    2.26999998
   11.35222244  176.98500061    1.51999998    2.26999998
   11.35555553  187.26899719    1.53999996    2.26999998
   11.36138916  187.26899719    1.50000000    2.26999998
   11.36555576  170.80299377    1.51999998    2.26999998
   11.36888885  181.41099548    1.50000000    2.26999998
   11.37222195  178.32099915    1.50000000    2.26999998
   11.37555599  170.77400208    1.50000000    2.26999998
   11.37861156  188.42799377    1.50000000    2.26999998
   11.38194466  171.64999390    1.50000000    2.26999998
   11.38500023  171.26499939    1.50000000    2.26999998
   11.38833332  172.02400208    1.48000002    2.26999998
   11.39166641  176.43099976    1.48000002    2.28999996
   11.39472198  185.65199280    1.50000000    2.28999996
   11.39805508  171.16900635    1.50000000    2.28999996
   11.39861107  182.68600464    1.50000000    2.28999996
   11.40444374  182.68600464    1.50000000    2.28999996
   11.40861034  169.11399841    1.46000004    2.28999996
   11.41194439  185.47999573    1.46000004    2.28999996
   11.41499996  171.63400269    1.48000002    2.28999996
   11.41833401  172.58099365    1.48000002    2.28999996
   11.42138958  178.10600281    1.46000004    2.28999996
   11.42472267  177.80999756    1.46000004    2.28999996
   11.42805576  160.25799561    1.44000006    2.30999994
   11.43111134  172.36599731    1.44000006    2.30999994
   11.43194485  172.01699829    1.44000006    2.30999994
   11.43500042  164.66299438    1.46000004    2.30999994
   11.43805599  171.93200684    1.46000004    2.30999994
   11.44138908  178.28700256    1.51999998    2.30999994
   11.44722271  178.28700256    1.48000002    2.30999994
   11.45138836  162.73699951    1.50000000    2.30999994
   11.45444393  173.40299988    1.53999996    2.30999994
   11.45777798  163.44500732    1.53999996    2.32999992
   11.46083355  182.87100220    1.51999998    2.32999992
   11.46416664  169.57499695    1.53999996    2.32999992
   11.46527767  162.60099792    1.53999996    2.32999992
   11.46805477  156.19000244    1.53999996    2.30999994
   11.47111034  159.43299866    1.53999996    2.32999992
   11.47444439  171.89199829    1.53999996    2.32999992
   11.47749996  172.07200623    2.57999992    2.34999990
   11.48083305  172.45399475    3.48000002    2.32999992
   11.48416710  160.95599365    4.73999977    2.34999990
   11.49000072  160.95599365    4.90999985    2.36999989
   11.49416733  177.79699707    4.90999985    2.36999989
   11.49722290  170.30299377    4.90999985    2.36999989
   11.49861145  167.07499695    4.90999985    2.36999989
   11.50111103  171.53599548    4.90999985    2.36999989
   11.50416660  171.19200134    2.82999992    2.34999990
   11.50749969  166.78100586    1.44000006    2.34999990
   11.51055527  176.91299438    1.46000004    2.34999990
   11.51388931  172.74899292    1.46000004    2.34999990
   11.51722240  165.00399780    1.41999996    2.34999990
   11.52027798  170.72300720    1.44000006    2.34999990
   11.52361107  168.03100586    1.41999996    2.36999989
   11.52694416  170.05999756    1.41999996    2.34999990
   11.53277779  170.05999756    1.41999996    2.34999990
   11.53694534  150.49800110    1.39999998    2.34999990
   11.54027843  161.64100647    1.39999998    2.34999990
   11.54333401  158.72999573    1.41999996    2.36999989
   11.54666710  163.85000610    1.39999998    2.36999989
   11.55000019  169.86900330    1.39999998    2.34999990
   11.55305576  160.30299377    1.41999996    2.36999989
   11.55638885  162.37399292    1.41999996    2.34999990
   11.55944443  162.31100464    1.39999998    2.36999989
   11.56277752  167.88999939    1.39999998    2.36999989
   11.56527805  163.06100464    1.38000000    2.34999990
   11.56666660  166.40100098    1.38000000    2.34999990
   11.56972218  168.31700134    1.39999998    2.36999989
   11.57555580  168.31700134    1.38000000    2.36999989
   11.57972240  180.62600708    1.38000000    2.36999989
   11.58305550  161.87399292    1.39999998    2.36999989
   11.58638859  169.25500488    1.34000003    2.39000010
   11.58944416  163.21099854    1.36000001    2.39000010
   11.59277725  165.25799561    1.36000001    2.39000010
   11.59583282  166.86599731    1.36000001    2.39000010
   11.59861088  161.01199341    1.36000001    2.39000010
   11.59972191  170.14599609    1.36000001    2.39000010
   11.60277843  161.82000732    1.36000001    2.39000010
   11.60611153  157.58500671    1.36000001    2.39000010
   11.60916710  165.12699890    1.33000004    2.39000010
   11.61250019  161.88999939    1.34000003    2.39000010
   11.61861134  161.88999939    1.34000003    2.39000010
   11.62277794  159.85099792    1.36000001    2.39000010
   11.62583351  161.15400696    1.38000000    2.39000010
   11.62916660  165.33500671    1.38000000    2.39000010
   11.63194466  156.32499695    1.38000000    2.39000010
   11.63277817  171.38299561    1.38000000    2.39000010
   11.63583279  160.22300720    1.36000001    2.40000010
   11.63916683  155.75300598    1.38000000    2.40000010
   11.64222240  149.05499268    1.36000001    2.40000010
   11.64555550  156.51300049    1.36000001    2.40000010
   11.64888859  152.22000122    1.36000001    2.39000010
   11.65194416  155.62100220    1.36000001    2.40000010
   11.65527725  159.54699707    1.36000001    2.40000010
   11.66138840  159.54699707    1.36000001    2.40000010
   11.66555500  159.57200623    1.34000003    2.40000010
   11.66888905  158.25300598    1.34000003    2.40000010
   11.67194462  160.24600220    1.34000003    2.40000010
   11.67527771  163.80700684    1.33000004    2.40000010
   11.67833328  164.10099792    1.28999996    2.42000008
   11.68166733  160.34899902    1.28999996    2.40000010
   11.68500042  165.60099792    1.28999996    2.40000010
   11.68805599  157.41900635    1.28999996    2.40000010
   11.69138908  158.94000244    1.28999996    2.40000010
   11.69472218  164.67300415    1.33000004    2.42000008
   11.69777775  153.93499756    1.33000004    2.42000008
   11.69861126  159.89599609    1.33000004    2.42000008
   11.70416641  159.89599609    1.33000004    2.42000008
   11.70833302  160.64900208    1.33000004    2.42000008
   11.71166611  161.49299622    1.33000004    2.42000008
   11.71472168  161.88099670    1.33000004    2.42000008
   11.71805477  157.45300293    1.33000004    2.40000010
   11.72138882  171.58299255    1.33000004    2.42000008
   11.72444439  157.19000244    1.33000004    2.42000008
   11.72777748  156.78300476    1.33000004    2.42000008
   11.73111057  153.83399963    1.30999994    2.42000008
   11.73194408  158.17199707    1.30999994    2.42000008
   11.73472214  158.76400757    1.30999994    2.42000008
   11.73777771  154.85400391    1.30999994    2.42000008
   11.74111176  156.27600098    1.30999994    2.44000006
   11.74694443  156.27600098    1.26999998    2.44000006
   11.75111103  162.56799316    1.26999998    2.44000006
   11.75444412  169.44299316    1.26999998    2.44000006
   11.75777817  167.34399414    1.26999998    2.44000006
   11.76083374  157.44200134    1.28999996    2.44000006
   11.76416683  158.85000610    1.28999996    2.44000006
   11.76527786  159.02299500    1.26999998    2.46000004
   11.76777744  155.16299438    1.26999998    2.46000004
   11.77083302  159.79299927    1.26999998    2.46000004
   11.77416611  158.35600281    1.25000000    2.46000004
   11.77750015  158.99499512    1.25000000    2.46000004
   11.78055573  160.86900330    1.25000000    2.46000004
   11.78388977  160.56599426    1.25000000    2.46000004
   11.79000092  160.56599426    1.21000004    2.46000004
   11.79416752  157.76100159    1.23000002    2.46000004
   11.79722309  158.78900146    1.23000002    2.46000004
   11.79861164  159.72700500    1.23000002    2.46000004
   11.80111122  158.90600586    1.23000002    2.46000004
   11.80416679  154.56599426    1.23000002    2.46000004
   11.80749989  157.22200012    1.23000002    2.46000004
   11.81083393  160.11500549    1.23000002    2.46000004
   11.81388950  154.65100098    1.23000002    2.46000004
   11.81722260  163.48300171    1.21000004    2.46000004
   11.82027817  156.20899963    1.23000002    2.46000004
   11.82361126  168.63600159    1.25000000    2.46000004
   11.82694435  166.77900696    1.25000000    2.46000004
   11.83277798  166.77900696    1.26999998    2.46000004
   11.83694458  159.63499451    1.28999996    2.48000002
   11.84000015  154.17799377    1.28999996    2.48000002
   11.84333324  156.91700745    1.28999996    2.48000002
   11.84666634  150.42500305    1.28999996    2.48000002
   11.84972191  165.68899536    1.30999994    2.48000002
   11.85305595  155.69299316    1.30999994    2.46000004
   11.85638905  160.01699829    1.26999998    2.48000002
   11.85944462  158.98399353    1.26999998    2.48000002
   11.86277771  152.44000244    1.26999998    2.46000004
   11.86527824  161.00300598    1.26999998    2.48000002
   11.86638927  155.62899780    1.26999998    2.48000002
   11.86944485  159.07299805    1.26999998    2.48000002
   11.87555599  159.07299805    1.26999998    2.46000004
   11.87972260  163.89700317    1.28999996    2.48000002
   11.88305569  171.06100464    1.28999996    2.48000002
   11.88611126  157.57699585    1.28999996    2.48000002
   11.88944435  162.00199890    1.34000003    2.48000002
   11.89277744  160.15100098    1.33000004    2.48000002
   11.89583302  150.71099854    1.30999994    2.48000002
   11.89861107  162.09700012    1.30999994    2.48000002
   11.89972210  162.73599243    1.30999994    2.48000002
   11.90277767  157.06199646    1.28999996    2.48000002
   11.90611076  155.46499634    1.28999996    2.48000002
   11.90944386  151.95300293    1.30999994    2.48000002
   11.91249943  165.51100159    1.30999994    2.48000002
   11.91833401  165.51100159    1.28999996    2.50000000
   11.92250061  163.52099609    1.30999994    2.50000000
   11.92583370  164.09599304    1.30999994    2.50000000
   11.92916679  160.43600464    1.30999994    2.50000000
   11.93194485  163.48599243    1.30999994    2.50000000
   11.93277836  158.50500488    1.30999994    2.48000002
   11.93583298  163.35299683    1.34000003    2.50000000
   11.93916702  160.20100403    1.34000003    2.50000000
   11.94250011  151.84399414    1.34000003    2.50000000
   11.94555569  153.99499512    1.34000003    2.50000000
   11.94888878  151.67700195    1.30999994    2.50000000
   11.95194435  165.38800049    1.30999994    2.50000000
   11.95527744  164.11900330    1.30999994    2.50000000
   11.96138859  164.11900330    1.30999994    2.50000000
   11.96527767  155.63099670    1.30999994    2.50000000
   11.96861076  160.21899414    1.33000004    2.50000000
   11.97194386  155.55900574    1.36000001    2.51999998
   11.97499943  157.43400574    1.38000000    2.51999998
   11.97833252  154.93899536    1.38000000    2.51999998
   11.98166656  154.15600586    1.38000000    2.50000000
   11.98472214  160.36399841    1.34000003    2.50000000
   11.98805618  158.13400269    1.33000004    2.51999998
   11.99111176  160.00599670    1.33000004    2.50000000
   11.99444485  142.29499817    1.33000004    2.51999998
   11.99777794  148.74299622    1.30999994    2.51999998
   11.99861145  145.02299500    1.30999994    2.50000000
   12.00416660  145.02299500    1.30999994    2.50000000
   12.00833321  147.64399719    1.28999996    2.51999998
   12.01138878  155.78700256    1.28999996    2.51999998
   12.01472187  155.33099365    1.26999998    2.51999998
   12.01805496  150.01800537    1.26999998    2.51999998
   12.02111053  158.49000549    1.28999996    2.51999998
   12.02444458  156.59800720    1.28999996    2.51999998
   12.02750015  161.06799316    1.28999996    2.51999998
   12.03083324  153.47000122    1.26999998    2.51999998
   12.03194427  154.96899414    1.26999998    2.51999998
   12.03444481  157.12399292    1.26999998    2.51999998
   12.03750038  147.21299744    1.25000000    2.51999998
   12.04083347  157.34500122    1.25000000    2.51999998
   12.04694462  157.34500122    1.26999998    2.53999996
   12.05111122  147.15600586    1.26999998    2.53999996
   12.05444431  148.91799927    1.26999998    2.53999996
   12.05749989  153.54200745    1.26999998    2.53999996
   12.06083393  152.96099854    1.28999996    2.53999996
   12.06388950  149.04100037    1.28999996    2.53999996
   12.06527805  156.05200195    1.28999996    2.53999996
   12.06777763  149.75199890    1.28999996    2.51999998
   12.07083321  151.85800171    1.26999998    2.53999996
   12.07416630  145.55400085    1.28999996    2.53999996
   12.07750034  152.02000427    1.30999994    2.53999996
   12.08055592  147.99400330    1.30999994    2.53999996
   12.08388901  149.18099976    1.30999994    2.53999996
   12.08972168  149.18099976    1.25000000    2.55999994
   12.09388828  147.35600281    1.25000000    2.53999996
   12.09722233  153.57200623    1.25000000    2.53999996
   12.09861088  156.29600525    1.25000000    2.53999996
   12.10083389  153.69700623    1.26999998    2.53999996
   12.10388947  160.08099365    1.26999998    2.53999996
   12.10722256  155.96499634    1.26999998    2.53999996
   12.11055565  155.80000305    1.26999998    2.53999996
   12.11388969  150.72300720    1.25000000    2.55999994
   12.11694431  163.24899292    1.26999998    2.55999994
   12.12027836  155.63600159    1.25000000    2.55999994
   12.12361145  156.48100281    1.25000000    2.55999994
   12.12666702  153.18299866    1.25000000    2.55999994
   12.13277817  153.18299866    1.25000000    2.53999996
   12.13666630  157.45700073    1.25000000    2.55999994
   12.14000034  154.80400085    1.25000000    2.55999994
   12.14333344  157.24000549    1.25000000    2.55999994
   12.14638901  162.81199646    1.28999996    2.55999994
   12.14972210  153.76400757    1.26999998    2.55999994
   12.15305519  156.72099304    1.28999996    2.55999994
   12.15611076  157.74499512    1.28999996    2.55999994
   12.15944386  163.09100342    1.28999996    2.55999994
   12.16249943  154.56900024    1.30999994    2.55999994
   12.16527748  148.85899353    1.36000001    2.55999994
   12.16638851  161.33999634    1.36000001    2.55999994
   12.16972256  166.84800720    1.36000001    2.55999994
   12.17555618  166.84800720    1.36000001    2.55999994
   12.17972279  161.58299255    1.34000003    2.55999994
   12.18277836  157.47399902    1.34000003    2.55999994
   12.18611145  150.10800171    1.30999994    2.55999994
   12.18944454  150.97099304    1.30999994    2.55999994
   12.19250011  160.58799744    1.30999994    2.55999994
   12.19583321  157.19599915    1.28999996    2.57999992
   12.19861126  151.15699768    1.30999994    2.55999994
   12.19944477  167.57099915    1.30999994    2.55999994
   12.20277786  169.72000122    1.28999996    2.55999994
   12.20583344  159.46699524    1.30999994    2.57999992
   12.20916653  161.44000244    1.28999996    2.55999994
   12.21222210  156.55400085    1.33000004    2.57999992
   12.21833324  156.55400085    1.33000004    2.55999994
   12.22249985  164.39500427    1.33000004    2.57999992
   12.22583294  150.30799866    1.34000003    2.57999992
   12.22888851  160.35000610    1.34000003    2.55999994
   12.23194408  146.29299927    1.34000003    2.57999992
   12.23249912  150.41400146    1.34000003    2.57999992
   12.23583317  157.36099243    1.34000003    2.57999992
   12.23888874  151.42700195    1.34000003    2.57999992
   12.24222279  159.46099854    1.34000003    2.57999992
   12.24527836  149.06500244    1.33000004    2.59999990
   12.24861145  155.28300476    1.30999994    2.59999990
   12.25194454  141.37600708    1.33000004    2.59999990
   12.25500011  147.69299316    1.30999994    2.57999992
   12.26111126  147.69299316    1.30999994    2.59999990
   12.26527786  149.19299316    1.28999996    2.59999990
   12.26861095  149.02099609    1.33000004    2.57999992
   12.27166653  154.74499512    1.33000004    2.57999992
   12.27499962  147.72900391    1.28999996    2.57999992
   12.27833271  152.31100464    1.30999994    2.57999992
   12.28138828  150.93699646    1.30999994    2.57999992
   12.28472233  146.01699829    1.26999998    2.57999992
   12.28805637  153.32699585    1.26999998    2.57999992
   12.29111195  163.22200012    1.26999998    2.59999990
   12.29444504  149.59599304    1.26999998    2.59999990
   12.29750061  153.63499451    1.26999998    2.59999990
   12.29861164  141.34399414    1.26999998    2.59999990
   12.31944466  141.34399414    1.26999998    2.59999990
   12.32361126  150.54600525    1.25000000    2.59999990
   12.32666683  158.01100159    1.25000000    2.59999990
   12.32999992  144.58500671    1.23000002    2.59999990
   12.33194447  157.12500000    1.21000004    2.59999990
   12.33361053  148.31399536    1.19000006    2.59999990
   12.33694458  146.84899902    1.19000006    2.59999990
   12.34000015  149.55900574    1.19000006    2.59999990
   12.34333324  152.61700439    1.19000006    2.59999990
   12.34666634  149.36999512    1.19000006    2.59999990
   12.34972191  162.14700317    1.19000006    2.59999990
   12.35305595  158.10899353    1.21000004    2.59999990
   12.35611153  153.73500061    1.21000004    2.59999990
   12.36194515  153.73500061    1.21000004    2.61999989
   12.36611176  154.27999878    1.23000002    2.61999989
   12.36944485  153.05900574    1.23000002    2.61999989
   12.37277794  140.05299377    1.23000002    2.61999989
   12.37583351  150.28999329    1.23000002    2.61999989
   12.37916660  147.87500000    1.23000002    2.61999989
   12.38249969  148.14100647    1.23000002    2.59999990
   12.38555527  158.46000671    1.19000006    2.59999990
   12.38888836  154.08500671    1.19000006    2.61999989
   12.39194393  154.41900635    1.19000006    2.61999989
   12.39527798  161.05599976    1.19000006    2.61999989
   12.39861107  160.57699585    1.19000006    2.61999989
   12.39916611  159.45799255    1.16999996    2.61999989
   12.40499973  159.45799255    1.16999996    2.61999989
   12.40916634  152.01800537    1.16999996    2.61999989
   12.41222191  152.44299316    1.19000006    2.61999989
   12.41555500  148.63900757    1.19000006    2.59999990
   12.41861153  151.56100464    1.19000006    2.61999989
   12.42194462  154.22900391    1.19000006    2.61999989
   12.42527771  158.67199707    1.19000006    2.64000010
   12.42833328  146.07099915    1.19000006    2.61999989
   12.43166733  155.37800598    1.19000006    2.64000010
   12.43249989  143.08599854    1.19000006    2.64000010
   12.43527794  152.24800110    1.19000006    2.64000010
   12.43861103  144.45599365    1.19000006    2.61999989
   12.44166660  154.49099731    1.19000006    2.61999989
   12.44777775  154.49099731    1.21000004    2.61999989
   12.45194435  149.28300476    1.19000006    2.61999989
   12.45499992  154.58299255    1.21000004    2.61999989
   12.45833302  151.66600037    1.21000004    2.61999989
   12.46166611  158.25000000    1.21000004    2.64000010
   12.46472168  150.79100037    1.21000004    2.64000010
   12.46583271  158.21600342    1.21000004    2.64000010
   12.46833324  151.44700623    1.21000004    2.64000010
   12.47166634  149.73199463    1.23000002    2.61999989
   12.47472191  157.38499451    1.16999996    2.64000010
   12.47805500  151.99800110    1.14999998    2.64000010
   12.48138809  152.92599487    1.14999998    2.64000010
   12.48444462  154.14799500    1.14999998    2.61999989
   12.49055576  154.14799500    1.14999998    2.64000010
   12.49499989  150.67999268    1.19000006    2.64000010
   12.49805546  154.44999695    1.19000006    2.64000010
   12.49916649  145.00700378    1.19000006    2.64000010
   12.50166702  150.15299988    1.19000006    2.64000010
   12.50500011  155.57400513    1.19000006    2.64000010
   12.50833321  151.76899719    1.19000006    2.64000010
   12.51138878  143.31300354    1.19000006    2.64000010
   12.51472187  151.73699951    1.16999996    2.64000010
   12.51777744  152.11799622    1.16999996    2.64000010
   12.52111053  153.19000244    1.16999996    2.64000010
   12.52444458  156.76899719    1.16999996    2.64000010
   12.52750015  152.62199402    1.19000006    2.64000010
   12.53333378  152.62199402    1.19000006    2.64000010
   12.53750038  148.94400024    1.19000006    2.64000010
   12.54083347  147.84800720    1.19000006    2.66000009
   12.54416752  159.82299805    1.21000004    2.64000010
   12.54722309  156.15899658    1.19000006    2.64000010
   12.55055618  144.49299622    1.19000006    2.66000009
   12.55388927  147.16099548    1.16999996    2.64000010
   12.55694485  156.60899353    1.16999996    2.64000010
   12.56027794  153.50399780    1.21000004    2.66000009
   12.56333351  150.02000427    1.19000006    2.66000009
   12.56583309  149.98399353    1.21000004    2.66000009
   12.56694412  153.63499451    1.21000004    2.66000009
   12.57027817  148.12300110    1.21000004    2.66000009
   12.57638836  148.12300110    1.21000004    2.66000009
   12.58027744  147.35000610    1.25000000    2.66000009
   12.58361053  149.16400146    1.21000004    2.66000009
   12.58694458  154.19500732    1.19000006    2.66000009
   12.59000015  149.84899902    1.19000006    2.66000009
   12.59333324  152.02200317    1.19000006    2.66000009
   12.59666634  152.04400635    1.19000006    2.66000009
   12.59916592  145.54100037    1.16999996    2.66000009
   12.60000038  153.76100159    1.16999996    2.66000009
   12.60333347  148.89199829    1.14999998    2.67000008
   12.60666752  147.95700073    1.14999998    2.66000009
   12.60972214  141.71400452    1.13000000    2.67000008
   12.61305618  152.47999573    1.13000000    2.67000008
   12.61916637  152.47999573    1.13000000    2.66000009
   12.62333393  146.72099304    1.13000000    2.66000009
   12.62638855  144.85899353    1.13000000    2.67000008
   12.62972260  155.77699280    1.13000000    2.67000008
   12.63249969  157.05200195    1.13000000    2.66000009
   12.63333321  150.40100098    1.13000000    2.66000009
   12.63666630  153.37500000    1.11000001    2.66000009
   12.64000034  152.40899658    1.11000001    2.66000009
   12.64305496  145.11199951    1.09000003    2.67000008
   12.64638901  157.40299988    1.09000003    2.67000008
   12.65055561  148.18200684    1.11000001    2.67000008
   12.65361118  148.10099792    1.11000001    2.67000008
   12.65694427  155.17500305    1.11000001    2.66000009
   12.66194439  155.17500305    1.16999996    2.67000008
   12.66611099  147.36799622    1.14999998    2.67000008
   12.66944504  144.26499939    1.14999998    2.67000008
   12.67250061  145.55000305    1.14999998    2.67000008
   12.67583370  153.58200073    1.14999998    2.67000008
   12.67916679  142.49499512    1.13000000    2.67000008
   12.68222237  153.00000000    1.13000000    2.67000008
   12.68555546   -1.00000000    1.13000000    2.67000008
   12.68861103   -1.00000000    1.13000000    2.67000008
   12.69194412   -1.00000000    1.13000000    2.67000008
   12.69527817   -1.00000000    1.13000000    2.67000008
   12.69833374   -1.00000000    1.13000000    2.67000008
   12.70472240   -1.00000000    1.14999998    2.67000008
   12.70888901  151.24499512    1.13000000    2.67000008
   12.71222210  151.58700562    1.13000000    2.67000008
   12.71527767  164.49699402    1.16999996    2.67000008
   12.71861076  151.70399475    1.16999996    2.69000006
   12.72194386  142.27699280    1.14999998    2.67000008
   12.72499943  144.38000488    1.16999996    2.67000008
   12.72833252  140.28399658    1.16999996    2.67000008
   12.73166656  149.86700439    1.14999998    2.67000008
   12.73249912  136.25100708    1.14999998    2.67000008
   12.73500061  135.68099976    1.14999998    2.67000008
   12.73833370  147.61700439    1.14999998    2.67000008
   12.74166679  146.41600037    1.13000000    2.69000006
   12.74777794  146.41600037    1.11000001    2.67000008
   12.75194454  151.60800171    1.11000001    2.69000006
   12.75500011  150.36700439    1.11000001    2.69000006
   12.75833321  144.88400269    1.09000003    2.71000004
   12.76138878  151.70899963    1.07000005    2.67000008
   12.76472187  153.42799377    1.07000005    2.67000008
   12.76583290  156.34399414    1.07000005    2.67000008
   12.76833344  146.37899780    1.07000005    2.69000006
   12.77166653  152.12800598    1.07000005    2.69000006
   12.77499962  145.26100159    1.09000003    2.71000004
   12.77805519  153.61300659    1.09000003    2.69000006
   12.78138828  140.19400024    1.09000003    2.69000006
   12.78444481  140.99400330    1.09000003    2.67000008
   12.79055595  140.99400330    1.14999998    2.69000006
   12.79472256  147.07200623    1.13000000    2.69000006
   12.79777813  135.41299438    1.13000000    2.71000004
   12.79916668  131.31700134    1.13000000    2.71000004
   12.80138874  142.86000061    1.14999998    2.69000006
   12.80472279  144.41799927    1.14999998    2.69000006
   12.80805588  136.91200256    1.14999998    2.69000006
   12.81111145  141.40299988    1.14999998    2.69000006
   12.81444454  141.61099243    1.14999998    2.71000004
   12.81777763  134.92500305    1.13000000    2.69000006
   12.82083321  136.49000549    1.13000000    2.71000004
   12.82416630  141.56700134    1.13000000    2.71000004
   12.82750034  138.83900452    1.13000000    2.69000006
   12.83333302  138.83900452    1.09000003    2.69000006
   12.83749962  137.85200500    1.09000003    2.71000004
   12.84083271  138.02299500    1.07000005    2.71000004
   12.84388828  141.18299866    1.07000005    2.71000004
   12.84722233  147.82200623    1.07000005    2.71000004
   12.85055637  136.30099487    1.07000005    2.71000004
   12.85361195  137.16000366    1.09000003    2.71000004
   12.85694504  133.96699524    1.07000005    2.69000006
   12.86000061  148.96600342    1.07000005    2.71000004
   12.86333370  139.52699280    1.05999994    2.71000004
   12.86583328  138.10800171    1.05999994    2.71000004
   12.86694431  143.13200378    1.05999994    2.71000004
   12.87027836  147.75799561    1.05999994    2.71000004
   12.87611103  147.75799561    1.07000005    2.69000006
   12.88027763  144.58200073    1.03999996    2.69000006
   12.88361073  143.63200378    1.03999996    2.69000006
   12.88694477  146.24899292    1.05999994    2.71000004
   12.89000034  140.21499634    1.03999996    2.71000004
   12.89333344  143.03199768    1.01999998    2.71000004
   12.89638901  139.76199341    1.03999996    2.71000004
   12.89916611  139.04899597    1.01999998    2.71000004
   12.89999962  136.63400269    1.03999996    2.71000004
   12.90333271  138.90800476    1.03999996    2.71000004
   12.90666676  130.93899536    1.03999996    2.71000004
   12.90999985  135.04800415    1.03999996    2.71000004
   12.91305542  139.99600220    1.03999996    2.71000004
   12.91916656  139.99600220    1.01999998    2.71000004
   12.92305565  143.65199280    1.01999998    2.71000004
   12.92638874  148.53999329    1.01999998    2.71000004
   12.92972279  141.07200623    1.01999998    2.71000004
   12.93249989  141.56700134    1.01999998    2.71000004
   12.93305588  150.67500305    1.01999998    2.71000004
   12.93638897  138.07099915    1.03999996    2.71000004
   12.93972206  151.02999878    1.03999996    2.71000004
   12.94277763  142.51199341    1.03999996    2.71000004
   12.94611073  148.61999512    1.03999996    2.71000004
   12.94916630  155.39799500    1.01999998    2.71000004
   12.95249939  143.16299438    1.01999998    2.71000004
   12.95583344  153.15400696    1.01999998    2.71000004
   12.96194458  153.15400696    1.01999998    2.73000002
   12.96611118  150.49699402    1.01999998    2.71000004
   12.96916580  148.66600037    1.03999996    2.73000002
   12.97249985  137.39999390    1.03999996    2.73000002
   12.97583294  138.81300354    1.03999996    2.71000004
   12.97916603  139.49499512    1.03999996    2.71000004
   12.98222160  139.70599365    1.03999996    2.71000004
   12.98555565  141.21600342    1.01999998    2.73000002
   12.98888874  139.10899353    1.01999998    2.71000004
   12.99194431  133.84700012    1.01999998    2.73000002
   12.99527836  144.26199341    1.01999998    2.71000004
   12.99861145  155.15400696    1.01999998    2.71000004
   12.99916649  141.31500244    1.01999998    2.71000004
   13.00472260  141.31500244    1.01999998    2.73000002
   13.00888920  149.18099976    1.03999996    2.73000002
   13.01222229  139.69200134    1.01999998    2.73000002
   13.01527786  139.73300171    1.01999998    2.75000000
   13.01861095  139.52400208    1.03999996    2.73000002
   13.02194405  139.82299805    1.03999996    2.73000002
   13.02499962  139.24699402    1.03999996    2.73000002
   13.02833271  144.07099915    1.03999996    2.73000002
   13.03138828  138.09500122    1.03999996    2.71000004
   13.03249931  147.30499268    1.03999996    2.71000004
   13.03500080  142.95599365    1.03999996    2.73000002
   13.03833389  144.33700562    1.03999996    2.71000004
   13.04166698  143.35600281    1.03999996    2.71000004
   13.04750061  143.35600281    1.01999998    2.73000002
   13.05166721  134.48800659    1.03999996    2.71000004
   13.05500031  130.41999817    1.03999996    2.71000004
   13.05805588  138.45300293    1.05999994    2.71000004
   13.06138897  144.12699890    1.05999994    2.73000002
   13.06472206  139.07400513    1.05999994    2.73000002
   13.06583309  144.82099915    1.05999994    2.73000002
   13.06805515  135.55700684    1.05999994    2.73000002
   13.07138920  141.35699463    1.05999994    2.73000002
   13.07472229  144.33599854    1.05999994    2.73000002
   13.07777786  139.16499329    1.05999994    2.73000002
   13.08111095  133.35200500    1.03999996    2.73000002
   13.08444405  135.74299622    1.03999996    2.73000002
   13.09055519  135.74299622    1.03999996    2.73000002
   13.09472179  138.08700562    1.03999996    2.73000002
   13.09805489  134.55299377    1.03999996    2.73000002
   13.09916592  148.35200500    1.03999996    2.73000002
   13.10138893  146.28599548    1.01999998    2.73000002
   13.10472298  140.97999573    1.01999998    2.73000002
   13.10805607  149.67500305    1.01999998    2.75000000
   13.11111164  140.92100525    1.01999998    2.73000002
   13.11444473  150.06100464    1.00000000    2.75000000
   13.11777782  141.17199707    1.00000000    2.73000002
   13.12083340  135.99200439    1.00000000    2.75000000
   13.12416649  142.29499817    1.00000000    2.73000002
   13.12722206  145.73800659    1.00000000    2.73000002
   13.13333321  145.73800659    1.01999998    2.75000000
   13.13749981  132.28599548    1.01999998    2.73000002
   13.14055538  130.45799255    1.01999998    2.73000002
   13.14388847  138.69200134    1.03999996    2.73000002
   13.14722252  133.97000122    1.05999994    2.75000000
   13.15027714  133.83900452    1.05999994    2.75000000
   13.15361118  143.95599365    1.03999996    2.75000000
   13.15694427  136.42399597    1.05999994    2.75000000
   13.15999985  134.39199829    1.05999994    2.73000002
   13.16333294  126.09799957    1.05999994    2.75000000
   13.16583252  128.74899292    1.05999994    2.75000000
   13.16722298  128.37699890    1.05999994    2.75000000
   13.17027855  134.86000061    1.05999994    2.75000000
   13.17611122  134.86000061    1.03999996    2.75000000
   13.18027782  139.14799500    1.03999996    2.75000000
   13.18361092  138.57800293    1.03999996    2.75000000
   13.18666649  137.20199585    1.05999994    2.75000000
   13.19000053  127.35399628    1.05999994    2.75000000
   13.19305515  129.97399902    1.07000005    2.75000000
   13.19638920  133.76800537    1.13000000    2.75000000
   13.19916630  137.00500488    1.13000000    2.75000000
   13.20027733  135.13699341    1.13000000    2.75000000
   13.20333290  127.72299957    1.13000000    2.73000002
   13.20666695  133.89900208    1.16999996    2.75000000
   13.20972157  124.66600037    1.16999996    2.73000002
   13.21305561  132.78199768    1.13000000    2.75000000
   13.21888828  132.78199768    1.13000000    2.73000002
   13.22305489  121.82299805    1.13000000    2.75000000
   13.22638798  128.67999268    1.11000001    2.73000002
   13.22944355  131.64700317    1.09000003    2.75000000
   13.23249912  126.29699707    1.09000003    2.75000000
   13.23333359  126.50000000    1.11000001    2.75000000
   13.23638916  137.88900757    1.11000001    2.75000000
   13.23972225  129.52699280    1.11000001    2.75000000
   13.24277782  129.16299438    1.11000001    2.75000000
   13.24611092  130.48500061    1.09000003    2.75000000
   13.24944496  129.35299683    1.07000005    2.75000000
   13.25249958  123.38800049    1.09000003    2.75000000
   13.25583363  134.71899414    1.09000003    2.75000000
   13.26194477  134.71899414    1.09000003    2.75000000
   13.26583290  128.46499634    1.11000001    2.75000000
   13.26916599  129.63099670    1.13000000    2.75000000
   13.27250004  134.00300598    1.13000000    2.75000000
   13.27555561  142.80099487    1.13000000    2.75000000
   13.27888870  128.48599243    1.13000000    2.75000000
   13.28222179  127.22799683    1.13000000    2.75000000
   13.28527832  129.38499451    1.13000000    2.75000000
   13.28861141  131.03199768    1.13000000    2.75000000
   13.29166698  134.16400146    1.13000000    2.75000000
   13.29500008  131.64500427    1.13000000    2.75000000
   13.29833412  130.81900024    1.13000000    2.78999996
   13.29916668  133.06900024    1.13000000    2.78999996
   13.30472279  133.06900024    1.13000000    2.75000000
   13.30888939  130.22300720    1.11000001    2.75000000
   13.31194496  126.59400177    1.11000001    2.75000000
   13.31527805  129.30400085    1.11000001    2.75000000
   13.33277798  135.03700256    1.09000003    2.75000000
   13.33527756  127.41899872    1.09000003    2.75000000
   13.33861065  128.71000671    1.09000003    2.75000000
   13.34166622  130.62800598    1.11000001    2.75000000
   13.34777737  130.62800598    1.11000001    2.76999998
   13.35194492  129.51300049    1.11000001    2.76999998
   13.35500050  125.50199890    1.13000000    2.75000000
   13.35833359  129.04600525    1.14999998    2.75000000
   13.36166668  129.77299500    1.19000006    2.76999998
   13.36472225  121.13200378    1.19000006    2.76999998
   13.36611176  126.02200317    1.19000006    2.75000000
   13.36861134  128.67999268    1.19000006    2.75000000
   13.37166691  120.76399994    1.21000004    2.76999998
   13.37500000  128.36599731    1.09000003    2.76999998
   13.37833309  126.34899902    1.09000003    2.76999998
   13.38138866  126.24199677    1.09000003    2.76999998
   13.38472176  128.12899780    1.09000003    2.75000000
   13.39055538  128.12899780    1.11000001    2.76999998
   13.39472198  127.87200165    1.11000001    2.76999998
   13.39777756  126.69799805    1.09000003    2.76999998
   13.39944458  134.79200745    1.09000003    2.76999998
   13.40166664  139.19000244    1.09000003    2.76999998
   13.40472221  134.72000122    1.13000000    2.76999998
   13.40805531  126.02799988    1.13000000    2.76999998
   13.41138840  125.11499786    1.14999998    2.75000000
   13.41444397  136.31700134    1.14999998    2.76999998
   13.41777802  131.20399475    1.19000006    2.76999998
   13.42111111  129.21099854    1.19000006    2.76999998
   13.42416668  129.63299561    1.19000006    2.76999998
   13.42750072  126.93099976    1.21000004    2.76999998
   13.43333340  126.93099976    1.19000006    2.76999998
   13.43750000  126.22000122    1.14999998    2.76999998
   13.44083309  125.03900146    1.11000001    2.78999996
   13.44388866  126.09300232    1.03999996    2.76999998
   13.44722271  120.82900238    1.03999996    2.78999996
   13.45055580  122.04399872    1.03999996    2.78999996
   13.45361137  128.23800659    1.05999994    2.76999998
   13.45694447  129.84599304    1.09000003    2.76999998
   13.46000004  123.46499634    1.11000001    2.78999996
   13.46333313  120.50499725    1.11000001    2.76999998
   13.46611118  118.74700165    1.09000003    2.76999998
   13.46694374  122.46900177    1.09000003    2.76999998
   13.46999931  121.62300110    1.09000003    2.76999998
   13.47611046  121.62300110    1.09000003    2.76999998
   13.48027706  115.76699829    1.09000003    2.76999998
   13.48361111  125.67700195    1.07000005    2.78999996
   13.48694515  112.94499969    1.09000003    2.76999998
   13.49000072  114.34700012    1.07000005    2.76999998
   13.49333382  120.25700378    1.07000005    2.76999998
   13.49638939  123.94300079    1.07000005    2.78999996
   13.49944496  123.72299957    1.07000005    2.78999996
   13.50027752  123.50199890    1.07000005    2.78999996
   13.50361156  129.74000549    1.07000005    2.78999996
   13.50666714  128.79699707    1.07000005    2.78999996
   13.51000023  126.71399689    1.00000000    2.78999996
   13.51333332  124.98799896    0.95999998    2.80999994
   13.51916599  124.98799896    0.95999998    2.78999996
   13.52333355  116.93000031    0.95999998    2.78999996
   13.52638817  123.22000122    0.95999998    2.80999994
   13.52972221  114.04000092    0.98000002    2.78999996
   13.53277779  121.69200134    0.95999998    2.78999996
   13.53333378  116.42800140    0.95999998    2.78999996
   13.53638935  117.78099823    0.95999998    2.78999996
   13.53972244  118.86000061    0.95999998    2.78999996
   13.54305553  124.60199738    0.95999998    2.78999996
   13.54611111  118.12200165    0.95999998    2.78999996
   13.54944515  118.01200104    0.98000002    2.78999996
   13.55277824  122.37400055    1.00000000    2.78999996
   13.55583382  121.04499817    1.01999998    2.78999996
   13.56194496  121.04499817    1.01999998    2.78999996
   13.56611156  115.71399689    1.01999998    2.78999996
   13.56666660  127.19799805    1.01999998    2.78999996
   13.56972218  121.33499908    1.01999998    2.78999996
   13.57305527  121.37999725    1.01999998    2.78999996
   13.57638836  120.32900238    1.03999996    2.78999996
   13.57944393  117.21399689    1.01999998    2.78999996
   13.58277798  112.57900238    1.03999996    2.78999996
   13.58611107  120.07399750    1.05999994    2.78999996
   13.58916664  117.74500275    1.05999994    2.78999996
   13.59249973  122.17900085    1.05999994    2.78999996
   13.59555531  120.09899902    1.05999994    2.78999996
   13.59888840  120.83899689    1.05999994    2.78999996
   13.59944439  131.99299622    1.05999994    2.78999996
   13.60472298  131.99299622    1.07000005    2.78999996
   13.60888958  126.66200256    1.09000003    2.78999996
   13.61222267  126.08399963    1.07000005    2.78999996
   13.61527824  121.17400360    1.05999994    2.78999996
   13.61861134  129.75599670    1.03999996    2.78999996
   13.62194443  126.41799927    1.03999996    2.78999996
   13.62500000  130.70500183    1.03999996    2.78999996
   13.62833309  125.63500214    1.03999996    2.78999996
   13.63138866  128.16200256    0.98000002    2.78999996
   13.63277817  128.32899475    0.98000002    2.78999996
   13.63527775  124.98500061    0.98000002    2.78999996
   13.63861084  128.33700562    0.98000002    2.78999996
   13.64166641  124.13700104    0.98000002    2.78999996
   13.64750004  124.13700104    1.03999996    2.78999996
   13.65166664  123.55999756    1.05999994    2.78999996
   13.65499973  126.98899841    1.05999994    2.78999996
   13.65833282  121.99900055    1.03999996    2.78999996
   13.66166592  123.31600189    1.01999998    2.78999996
   13.66472149  123.79399872    1.00000000    2.78999996
   13.66611099  119.06199646    1.00000000    2.78999996
   13.66861153  128.51699829    0.98000002    2.78999996
   13.67166710  123.42900085    1.00000000    2.78999996
   13.67500019  123.69100189    1.00000000    2.78999996
   13.67833328  120.04399872    1.00000000    2.78999996
   13.68138885  115.54599762    1.00000000    2.80999994
   13.68472195  119.70999908    1.00000000    2.78999996
   13.69055557  119.70999908    0.95999998    2.80999994
   13.69472218  115.01300049    0.95999998    2.78999996
   13.69777775  112.65000153    0.95999998    2.78999996
   13.69944477  116.82199860    0.95999998    2.80999994
   13.70138836  121.77600098    0.98000002    2.80999994
   13.70444393  120.63700104    0.98000002    2.80999994
   13.70777798  122.92700195    1.00000000    2.78999996
   13.71111107  120.58999634    1.00000000    2.78999996
   13.71416664  118.79599762    1.01999998    2.78999996
   13.71749973  120.07499695    1.01999998    2.80999994
   13.72083282  117.97699738    1.01999998    2.80999994
   13.72388840  126.19699860    1.01999998    2.78999996
   13.72722149  117.78600311    1.01999998    2.78999996
   13.73333359  117.78600311    1.03999996    2.78999996
   13.73750019  118.47000122    1.01999998    2.80999994
   13.74083328  120.88600159    1.00000000    2.78999996
   13.74416733  132.14799500    1.00000000    2.78999996
   13.74722290  122.31999969    0.94000000    2.78999996
   13.75055599  120.45999908    0.94000000    2.80999994
   13.75388908  118.52700043    0.94000000    2.78999996
   13.75694466  118.91300201    0.94000000    2.80999994
   13.76027775  126.12500000    0.94000000    2.80999994
   13.76361084  124.17299652    0.94000000    2.80999994
   13.76611137  125.23600006    0.94000000    2.80999994
   13.76722240  125.86299896    0.94000000    2.80999994
   13.77027798  124.35600281    0.94000000    2.80999994
   13.77611065  124.35600281    0.92000002    2.80999994
   13.78027725  118.87699890    0.94000000    2.80999994
   13.78361130  129.78199768    1.00000000    2.78999996
   13.78666687  123.16500092    1.00000000    2.80999994
   13.79000092  126.76499939    1.01999998    2.80999994
   13.79333401  123.07299805    1.01999998    2.80999994
   13.79638958  126.20600128    1.01999998    2.80999994
   13.79944515  123.02899933    1.03999996    2.80999994
   13.80027771  123.32900238    1.03999996    2.80999994
   13.80333328  119.95999908    1.03999996    2.80999994
   13.80666733  116.90000153    1.05999994    2.80999994
   13.81000042  124.29100037    1.05999994    2.80999994
   13.81305599  121.78099823    1.07000005    2.80999994
   13.81888866  121.78099823    1.09000003    2.78999996
   13.82305527  127.90299988    1.09000003    2.80999994
   13.82638836  124.08399963    1.11000001    2.78999996
   13.82972240  122.26899719    1.11000001    2.78999996
   13.83277798  121.05300140    1.13000000    2.80999994
   13.83333302  120.17199707    1.13000000    2.80999994
   13.83638859  123.08499908    1.13000000    2.78999996
   13.83972168  115.15499878    1.14999998    2.78999996
   13.84305477  118.19000244    1.14999998    2.80999994
   13.84611034  121.07099915    1.13000000    2.80999994
   13.84944439  121.93000031    1.11000001    2.80999994
   13.85277843  129.87100220    1.11000001    2.80999994
   13.85583401  121.02500153    1.11000001    2.80999994
   13.86194515  121.02500153    1.13000000    2.80999994
   13.86611176  121.21900177    1.33000004    2.80999994
   13.86638927  120.24700165    1.33000004    2.80999994
   13.86972237  123.23000336    1.34000003    2.78999996
   13.87305546  120.48699951    1.34000003    2.80999994
   13.87611103  121.65799713    1.34000003    2.80999994
   13.87944412  121.63700104    1.26999998    2.78999996
   13.88277817  112.70800018    1.28999996    2.78999996
   13.88583279  120.95400238    1.26999998    2.80999994
   13.88916683  124.84200287    1.26999998    2.78999996
   13.89222240  126.77300262    1.26999998    2.80999994
   13.89555550  117.52200317    1.26999998    2.80999994
   13.89888859  124.63200378    1.26999998    2.80999994
   13.89999962  123.75900269    1.26999998    2.80999994
   13.90472221  123.75900269    1.19000006    2.78999996
   13.90888882  121.98200226    1.13000000    2.80999994
   13.91194439  121.98600006    1.13000000    2.80999994
   13.91527748  121.93900299    1.11000001    2.80999994
   13.91861153  120.46700287    1.11000001    2.80999994
   13.92194462  120.40000153    1.13000000    2.80999994
   13.92500019  122.29199982    1.16999996    2.80999994
   13.92833328  120.16000366    1.23000002    2.80999994
   13.93138885  125.47799683    1.21000004    2.80999994
   13.93333340  121.74199677    1.23000002    2.80999994
   13.93527794  123.17400360    1.23000002    2.80999994
   13.93833351  126.15899658    1.23000002    2.80999994
   13.94166660  119.96399689    1.23000002    2.80999994
   13.94750023  119.96399689    1.21000004    2.80999994
   13.95166683  119.42800140    1.21000004    2.80999994
   13.95499992  121.89099884    1.21000004    2.80999994
   13.95805550  115.16999817    1.19000006    2.80999994
   13.96138859  117.69799805    1.11000001    2.80999994
   13.96472168  120.07499695    1.03999996    2.80999994
   13.96666622  130.91499329    1.03999996    2.80999994
   13.96833324  122.27200317    1.03999996    2.80999994
   13.97166634  125.38700104    1.03999996    2.80999994
   13.97499943  122.40200043    1.05999994    2.80999994
   13.97805500  124.76300049    1.21000004    2.82999992
   13.98138809  118.84200287    1.21000004    2.82999992
   13.98444462  116.42700195    1.25000000    2.82999992
   13.99027824  116.42700195    1.30999994    2.80999994
   13.99444485  121.92299652    1.33000004    2.82999992
   13.99777794  111.61100006    1.36000001    2.80999994
   14.00000000  113.40899658    1.36000001    2.80999994
   14.00138855  113.87599945    1.34000003    2.80999994
   14.00472260  117.29799652    1.66999996    2.82999992
   14.00777817  112.98200226    1.66999996    2.80999994
   14.01111126  113.16899872    1.66999996    2.82999992
   14.01444435  119.85600281    1.64999998    2.80999994
   14.01749992  120.76799774    1.61000001    2.82999992
   14.02083302  118.50599670    1.73000002    2.80999994
   14.02416611  119.76100159    1.91999996    2.80999994
   14.02722168  122.41799927    1.96000004    2.80999994
   14.03333378  122.41799927    1.89999998    2.80999994
   14.03750038  120.78399658    1.83000004    2.80999994
   14.04055595  116.45899963    1.76999998    2.80999994
   14.04388905  120.63300323    1.76999998    2.80999994
   14.04722309  117.26599884    1.61000001    2.82999992
   14.05027771  123.95700073    1.64999998    2.80999994
   14.05361176  119.28800201    1.66999996    2.82999992
   14.05666733  120.10700226    1.66999996    2.80999994
   14.06000042  125.86599731    1.66999996    2.80999994
   14.06333351  119.36699677    1.71000004    2.82999992
   14.06638908  123.40299988    1.69000006    2.80999994
   14.06694412  127.63200378    1.66999996    2.80999994
   14.07027817  123.24900055    1.60000002    2.80999994
   14.07611084  123.24900055    1.61000001    2.80999994
   14.08027744  116.95999908    1.58000004    2.80999994
   14.08333302  118.78199768    1.58000004    2.82999992
   14.08666611  116.04900360    1.55999994    2.80999994
   14.09000015  120.76699829    1.51999998    2.80999994
   14.09305477  116.19200134    1.51999998    2.80999994
   14.09638882  115.45300293    1.50000000    2.80999994
   14.09972191  116.51499939    1.50000000    2.80999994
   14.10027790  115.30200195    1.50000000    2.80999994
   14.10333347  121.40200043    1.50000000    2.80999994
   14.10666752  115.76699829    1.51999998    2.80999994
   14.10972214  111.96900177    1.46000004    2.80999994
   14.11305618  114.93499756    1.38000000    2.82999992
   14.11888885  114.93499756    1.33000004    2.82999992
   14.12305546  117.78900146    1.44000006    2.82999992
   14.12638855  110.20700073    1.63000000    2.82999992
   14.12944412  118.58300018    1.63000000    2.80999994
   14.13277817  116.27400208    2.11999989    2.80999994
   14.13361073  116.71099854    1.80999994    2.80999994
   14.13638878  113.38099670    1.83000004    2.80999994
   14.13972187  115.64199829    1.89999998    2.82999992
   14.14277744  112.04399872    1.89999998    2.80999994
   14.14611053  115.53399658    1.88000000    2.80999994
   14.14916611  114.19999695    1.85000002    2.80999994
   14.15249920  114.12200165    1.66999996    2.82999992
   14.15583324  119.22399902    1.60000002    2.80999994
   14.16166592  119.22399902    1.55999994    2.82999992
   14.16583252  120.40299988    1.55999994    2.82999992
   14.16694450  126.78099823    1.55999994    2.80999994
   14.16944504  117.72799683    1.55999994    2.80999994
   14.17277813  129.69999695    1.53999996    2.80999994
   14.17583370  118.58799744    1.58000004    2.80999994
   14.17916679  118.81400299    1.50000000    2.82999992
   14.18222237  114.85399628    1.48000002    2.82999992
   14.18555546  113.40100098    1.46000004    2.82999992
   14.18888855  113.39399719    1.46000004    2.82999992
   14.19194412  116.98300171    1.44000006    2.82999992
   14.19527817  116.14900208    1.44000006    2.82999992
   14.19861126  116.17099762    1.44000006    2.82999992
   14.20027733  121.22599792    1.44000006    2.82999992
   14.20472240  121.22599792    1.44000006    2.82999992
   14.20888901  122.52200317    1.48000002    2.82999992
   14.21194458  122.46099854    1.48000002    2.82999992
   14.21527767  119.63999939    1.48000002    2.82999992
   14.21861076  120.11100006    1.50000000    2.82999992
   14.22166634  117.55999756    1.60000002    2.82999992
   14.22499943  116.26300049    1.55999994    2.82999992
   14.22805500  117.95600128    1.53999996    2.82999992
   14.23138809  114.31500244    1.53999996    2.82999992
   14.23361111  111.95800018    1.50000000    2.82999992
   14.23500061  110.54599762    1.50000000    2.82999992
   14.23833370  119.26300049    1.44000006    2.82999992
   14.24138927  120.89700317    1.38000000    2.84999990
   14.24750042  120.89700317    1.38000000    2.82999992
   14.25166702  119.57399750    1.38000000    2.82999992
   14.25500011  115.52100372    1.28999996    2.82999992
   14.25805569  111.63300323    1.23000002    2.82999992
   14.26138878  111.86199951    1.23000002    2.82999992
   14.26444435  115.34899902    1.34000003    2.82999992
   14.26694393  115.51499939    1.36000001    2.82999992
   14.26833344  111.38999939    1.36000001    2.82999992
   14.27166653  114.78299713    1.36000001    2.82999992
   14.27472210  113.06800079    1.36000001    2.84999990
   14.27805519  118.40899658    1.38000000    2.82999992
   14.28111076  122.33100128    1.38000000    2.82999992
   14.28444481  121.86199951    1.34000003    2.82999992
   14.29027843  121.86199951    1.34000003    2.82999992
   14.29444504  120.17600250    1.34000003    2.82999992
   14.29777813  120.87799835    1.33000004    2.84999990
   14.30027771  117.51200104    1.26999998    2.84999990
   14.30138874  115.73600006    1.26999998    2.84999990
   14.30472279  115.07099915    1.25000000    2.82999992
   14.30777836  119.68399811    1.21000004    2.82999992
   14.31111145  115.29900360    1.16999996    2.84999990
   14.31444454  124.24099731    1.16999996    2.84999990
   14.31750011  113.40599823    1.16999996    2.84999990
   14.32083321  116.31900024    1.16999996    2.84999990
   14.32388878  113.94300079    1.19000006    2.82999992
   14.32722187  112.51599884    1.23000002    2.84999990
   14.33333302  112.51599884    1.23000002    2.82999992
   14.35166740  115.74800110    1.16999996    2.84999990
   14.35472298  115.86799622    1.16999996    2.84999990
   14.35805607  121.91300201    1.16999996    2.84999990
   14.36138916  126.55000305    1.21000004    2.86999989
   14.36444473  126.31400299    1.26999998    2.84999990
   14.36777782  116.38400269    1.38000000    2.84999990
   14.37083340  122.72399902    1.39999998    2.84999990
   14.37638855  122.72399902    1.30999994    2.84999990
   14.38055611  121.08000183    1.26999998    2.82999992
   14.38361073  123.57299805    1.05999994    2.84999990
   14.38472176  124.50099945    1.05999994    2.82999992
   14.38722229  113.37100220    1.05999994    2.82999992
   14.39055538  123.07299805    1.05999994    2.84999990
   14.39388847  118.11399841    1.00000000    2.86999989
   14.39694405  118.98999786    0.94000000    2.84999990
   14.40027714  125.49199677    0.92000002    2.84999990
   14.40333271  113.71099854    0.89999998    2.84999990
   14.40666676  123.06400299    0.89999998    2.86999989
   14.40999985  118.49700165    0.89999998    2.84999990
   14.41305542  120.30200195    0.92000002    2.84999990
   14.41916656  120.30200195    0.95999998    2.84999990
   14.42333412  120.70899963    0.95999998    2.86999989
   14.42638874  115.62999725    0.98000002    2.84999990
   14.42972279  117.26000214    1.00000000    2.84999990
   14.43305588  117.43900299    1.00000000    2.84999990
   14.43638897  116.72000122    1.00000000    2.84999990
   14.43944454  118.78900146    1.00000000    2.84999990
   14.44277763  112.46299744    0.95999998    2.86999989
   14.44583321  114.87899780    0.98000002    2.84999990
   14.44916630  126.56800079    1.00000000    2.84999990
   14.45138836  122.27100372    1.00000000    2.84999990
   14.45277786  119.49500275    1.00000000    2.84999990
   14.45611095  117.46299744    1.01999998    2.84999990
   14.46194458  117.46299744    1.01999998    2.86999989
   14.46611118  120.15599823    1.01999998    2.86999989
   14.46944427  118.47699738    0.98000002    2.84999990
   14.47249985  115.86699677    0.98000002    2.86999989
   14.47583294  116.46199799    1.00000000    2.84999990
   14.47916603  117.32199860    1.00000000    2.84999990
   14.48222160  115.97899628    1.00000000    2.89000010
   14.48472214  117.98000336    1.01999998    2.84999990
   14.48583317  113.85099792    1.01999998    2.84999990
   14.48916721  116.66699982    0.98000002    2.84999990
   14.49250031  119.40699768    1.00000000    2.84999990
   14.49555588  116.89900208    1.00000000    2.84999990
   14.49888897  117.51999664    0.98000002    2.84999990
   14.50472260  117.51999664    0.95999998    2.86999989
   14.50888920  114.33499908    0.95999998    2.84999990
   14.51222229  113.83000183    0.94000000    2.86999989
   14.51555538  116.77500153    0.95999998    2.84999990
   14.51805496  116.60199738    0.95999998    2.86999989
   14.51916599  119.89900208    0.95999998    2.86999989
   14.52222157  118.03299713    0.95999998    2.86999989
   14.52555561  121.37000275    0.95999998    2.84999990
   14.52861118  117.97799683    1.36000001    2.86999989
   14.53194427  116.45300293    1.25000000    2.84999990
   14.53527832  114.18800354    1.26999998    2.84999990
   14.53833389  119.79499817    1.14999998    2.84999990
   14.54166698  117.07800293    1.01999998    2.86999989
   14.54777813  117.07800293    0.94000000    2.86999989
   14.55166721  116.52300262    0.94000000    2.84999990
   14.55500031  117.59500122    0.94000000    2.84999990
   14.55833340  126.02999878    0.92000002    2.86999989
   14.56138897  119.78500366    0.94000000    2.86999989
   14.56472206  121.43499756    0.95999998    2.86999989
   14.56805515  119.16899872    0.92000002    2.86999989
   14.57111073  120.33699799    0.94000000    2.86999989
   14.57444477  116.02899933    0.94000000    2.86999989
   14.57750034  112.13999939    0.94000000    2.86999989
   14.58083344  118.48300171    0.94000000    2.86999989
   14.58416653  119.37300110    0.98000002    2.84999990
   14.58472157  117.83599854    0.98000002    2.84999990
   14.59055519  117.83599854    1.00000000    2.86999989
   14.59472179  121.05200195    0.98000002    2.86999989
   14.59777737  116.45899963    0.95999998    2.86999989
   14.60111141  123.90200043    0.98000002    2.86999989
   14.60444450  118.41100311    1.00000000    2.86999989
   14.60750008  117.77300262    1.05999994    2.84999990
   14.61083412  118.98999786    1.05999994    2.84999990
   14.61416721  117.48400116    1.09000003    2.84999990
   14.61722279  122.54000092    1.09000003    2.86999989
   14.61805534  113.12899780    1.09000003    2.86999989
   14.62083340  119.30799866    1.05999994    2.86999989
   14.62416649  118.34600067    1.07000005    2.84999990
   14.62750053  115.73000336    1.14999998    2.86999989
   14.63333321  115.73000336    1.14999998    2.86999989
   14.63749981  118.59400177    1.13000000    2.86999989
   14.64083290  116.83699799    0.98000002    2.84999990
   14.64388847  118.97100067    1.00000000    2.84999990
   14.64722252  118.93099976    0.98000002    2.86999989
   14.65027714  117.63200378    0.95999998    2.86999989
   14.65138817  116.79399872    0.95999998    2.86999989
   14.65388870  115.39099884    1.01999998    2.86999989
   14.65722179  118.43599701    1.09000003    2.86999989
   14.66055489  121.28199768    1.09000003    2.86999989
   14.66361046  130.63000488    1.09000003    2.86999989
   14.66694450  123.46299744    1.14999998    2.86999989
   14.67027855  124.82199860    1.13000000    2.86999989
   14.67611122  124.82199860    1.09000003    2.86999989
   14.68027782  119.55599976    1.09000003    2.86999989
   14.68361092  130.31399536    1.05999994    2.86999989
   14.68472195  114.03399658    1.05999994    2.86999989
   14.68694496  116.91799927    0.94000000    2.86999989
   14.69027805  121.87400055    0.86000001    2.86999989
   14.69361115  124.56099701    0.86000001    2.86999989
   14.69666672  123.96600342    1.00000000    2.86999989
   14.69999981  127.30300140    1.01999998    2.86999989
   14.70333290  117.86900330    1.01999998    2.86999989
   14.70638847  119.91600037    1.03999996    2.86999989
   14.70972157  130.36700439    1.14999998    2.86999989
   14.71277714  119.54000092    1.13000000    2.86999989
   14.71916580  119.54000092    1.16999996    2.86999989
   14.72305489  121.49800110    1.16999996    2.84999990
   14.72638798  121.87000275    1.19000006    2.86999989
   14.72972202  129.08900452    1.19000006    2.86999989
   14.73277760  121.29299927    1.21000004    2.86999989
   14.73611164  123.20500183    1.21000004    2.86999989
   14.73944473  122.59500122    1.19000006    2.86999989
   14.74250031  125.89099884    1.07000005    2.86999989
   14.74583340  124.41200256    1.07000005    2.86999989
   14.74888897  123.83899689    1.03999996    2.86999989
   14.75138855  127.87300110    1.03999996    2.86999989
   14.75277805  126.78199768    0.98000002    2.86999989
   14.75583363  120.10099792    1.07000005    2.84999990
   14.76194477  120.10099792    1.09000003    2.86999989
   14.76611137  122.83899689    1.09000003    2.86999989
   14.76916599  118.14600372    1.58000004    2.86999989
   14.77250004  116.40200043    1.60000002    2.86999989
   14.77583313  115.01300049    1.61000001    2.86999989
   14.77888870  117.76399994    1.61000001    2.86999989
   14.78222179  118.70700073    1.61000001    2.86999989
   14.78472233  116.45800018    1.69000006    2.86999989
   14.78583336  120.99600220    1.69000006    2.86999989
   14.78888893  114.09700012    1.73000002    2.84999990
   14.79222298  121.27999878    1.66999996    2.86999989
   14.79527855  120.56500244    1.61000001    2.86999989
   14.79861164  120.49400330    1.66999996    2.86999989
   14.80472279  120.49400330    1.64999998    2.84999990
   14.80888939  118.30000305    1.53999996    2.86999989
   14.81222248  125.55300140    1.16999996    2.86999989
   14.81527805  118.90899658    1.19000006    2.86999989
   14.81805515  121.80400085    1.19000006    2.86999989
   14.81916618  124.99299622    1.19000006    2.86999989
   14.82222176  126.43199921    1.19000006    2.86999989
   14.82555580  118.94100189    1.23000002    2.86999989
   14.82861137  120.87899780    1.23000002    2.86999989
   14.83194447  126.44899750    1.16999996    2.86999989
   14.83527756  128.13999939    1.14999998    2.86999989
   14.83833313  116.22299957    1.16999996    2.86999989
   14.84166622  130.86999512    1.09000003    2.86999989
   14.84749985  130.86999512    1.07000005    2.86999989
   14.85166740  118.42600250    1.00000000    2.84999990
   14.85500050  120.49800110    1.01999998    2.86999989
   14.85833359  120.62400055    1.01999998    2.84999990
   14.86138916  115.95600128    1.01999998    2.86999989
   14.86472225  116.90399933    1.01999998    2.86999989
   14.86805534  118.62799835    1.01999998    2.86999989
   14.87111092  115.54299927    1.00000000    2.84999990
   14.87444496  115.18599701    1.01999998    2.86999989
   14.87777805  120.79000092    1.03999996    2.86999989
   14.88083363  117.39700317    1.01999998    2.86999989
   14.88416672  122.17800140    1.00000000    2.86999989
   14.88472176  121.13600159    1.00000000    2.86999989
   14.89055538  121.13600159    1.05999994    2.86999989
   14.89472198  123.15499878    1.03999996    2.84999990
   14.89805508  116.77899933    1.03999996    2.84999990
   14.90111065  123.04599762    1.03999996    2.86999989
   14.90444374  118.40799713    1.00000000    2.86999989
   14.90777779  114.92600250    0.98000002    2.86999989
   14.91083336  112.31600189    0.95999998    2.86999989
   14.91416645  119.11199951    0.95999998    2.86999989
   14.91722298  119.06600189    0.95999998    2.86999989
   14.91805553  117.83799744    0.95999998    2.86999989
   14.92111111  118.36100006    0.95999998    2.86999989
   14.92416668  119.08899689    0.94000000    2.86999989
   14.92750072  117.03700256    0.95999998    2.86999989
   14.93333340  117.03700256    1.01999998    2.86999989
   14.93750000  115.72499847    1.11000001    2.89000010
   14.94055557  119.43800354    1.13000000    2.86999989
   14.94388866  121.22399902    1.13000000    2.86999989
   14.94722271  113.88400269    1.13000000    2.86999989
   14.95027733  119.92299652    1.25000000    2.86999989
   14.95138836  115.93800354    1.25000000    2.86999989
   14.95416641  115.10800171    1.26999998    2.86999989
   14.95722198  113.44999695    1.26999998    2.86999989
   14.96055508  120.82700348    1.28999996    2.86999989
   14.96361065  115.25599670    1.36000001    2.86999989
   14.96694374  115.55400085    1.21000004    2.86999989
   14.97027779  116.86699677    1.21000004    2.86999989
   14.97611046  116.86699677    1.16999996    2.86999989
   14.98027706  115.93000031    1.14999998    2.86999989
   14.98361111  120.09300232    1.14999998    2.86999989
   14.98472214  119.19899750    1.14999998    2.86999989
   14.98722267  116.38700104    1.09000003    2.86999989
   14.99027824  116.23300171    1.13000000    2.86999989
   14.99361134  118.69300079    1.13000000    2.86999989
   14.99694443  115.85600281    1.19000006    2.86999989
   15.00000000  111.02999878    1.21000004    2.86999989
   15.00333309  120.00000000    1.21000004    2.86999989
   15.00638866  119.54499817    1.19000006    2.86999989
   15.00972176  118.66600037    1.19000006    2.86999989
   15.01305580  119.40499878    1.34000003    2.86999989
   15.01888847  119.40499878    1.39999998    2.89000010
   15.02305508  120.61499786    1.25000000    2.86999989
   15.02638817  123.17199707    1.38000000    2.86999989
   15.02944374  117.39299774    1.28999996    2.86999989
   15.03277779  111.67400360    1.28999996    2.86999989
   15.03611183  114.82199860    1.26999998    2.89000010
   15.03916740  115.12300110    1.26999998    2.86999989
   15.04250050  115.69300079    1.30999994    2.86999989
   15.04583359  115.21299744    1.39999998    2.86999989
   15.04888916  118.51399994    1.39999998    2.86999989
   15.05138874  115.64299774    1.33000004    2.86999989
   15.05277824  115.05999756    1.26999998    2.86999989
   15.05583382  125.77899933    1.26999998    2.86999989
   15.06194496  125.77899933    1.36000001    2.86999989
   15.06583309  112.52999878    1.26999998    2.86999989
   15.06916618  112.20800018    1.58000004    2.86999989
   15.07250023  114.29699707    1.51999998    2.86999989
   15.07555580  112.13500214    1.53999996    2.86999989
   15.07888889  115.73799896    1.53999996    2.86999989
   15.08222198  120.21099854    1.33000004    2.86999989
   15.08472157  116.91300201    1.51999998    2.86999989
   15.08583260  116.88800049    1.51999998    2.86999989
   15.08888817  113.15799713    1.41999996    2.86999989
   15.09222221  117.90599823    1.46000004    2.86999989
   15.09555531  115.55699921    1.50000000    2.86999989
   15.09861088  116.46299744    1.48000002    2.86999989
   15.10472298  116.46299744    1.41999996    2.89000010
   15.10888958  118.28600311    1.44000006    2.86999989
   15.11194515  115.48200226    1.48000002    2.86999989
   15.11527824  115.43800354    1.51999998    2.89000010
   15.11805534  118.61100006    1.60000002    2.86999989
   15.11888885  115.23400116    1.60000002    2.86999989
   15.12194443  115.15699768    1.53999996    2.86999989
   15.12527752  117.78600311    1.28999996    2.89000010
   15.12861156  109.77799988    1.28999996    2.89000010
   15.13166714  114.52899933    1.36000001    2.89000010
   15.13500023  114.29100037    1.34000003    2.86999989
   15.13805580  117.20099640    1.44000006    2.86999989
   15.14138889  112.71299744    1.69000006    2.86999989
   15.14750004  112.71299744    1.88000000    2.86999989
   15.15166664  115.54499817    1.71000004    2.86999989
   15.15499973  120.03199768    1.71000004    2.86999989
   15.15805531  112.66400146    1.75000000    2.86999989
   15.16138840  114.39399719    2.09999990    2.86999989
   15.16444397  116.98400116    1.51999998    2.89000010
   15.16777802  111.57299805    1.38000000    2.86999989
   15.17111111  116.55999756    1.36000001    2.86999989
   15.17416668  119.98799896    1.36000001    2.86999989
   15.17750072  119.74800110    1.33000004    2.89000010
   15.18083382  115.54399872    1.33000004    2.86999989
   15.18388939  115.87300110    1.41999996    2.86999989
   15.18472195  118.91300201    1.41999996    2.86999989
   15.19027805  118.91300201    1.38000000    2.86999989
   15.19472218  119.02600098    1.41999996    2.89000010
   15.19777775  119.36299896    1.48000002    2.86999989
   15.20111084  119.59100342    1.33000004    2.86999989
   15.20444393  124.05500031    1.33000004    2.86999989
   15.20749950  118.36699677    1.46000004    2.86999989
   15.21083355  117.79000092    1.60000002    2.86999989
   15.21416664  116.74099731    2.34999990    2.86999989
   15.21722221  114.02300262    2.42000008    2.86999989
   15.21805477  123.22299957    2.42000008    2.86999989
   15.22083282  114.43299866    2.21000004    2.86999989
   15.22388840  113.61799622    2.01999998    2.86999989
   15.22722149  113.56700134    1.75000000    2.86999989
   15.23333359  113.56700134    1.53999996    2.86999989
   15.23722267  121.19699860    1.80999994    2.86999989
   15.24055576  114.13600159    1.83000004    2.86999989
   15.24388885  114.81500244    1.96000004    2.86999989
   15.24694443  115.19200134    1.94000006    2.86999989
   15.25027752  116.55699921    1.91999996    2.86999989
   15.25138855  116.98300171    1.91999996    2.86999989
   15.36027813   -1.00000000   -1.00000000   -1.00000000
   15.48138809   -1.00000000   -1.00000000   -1.00000000
   15.67777824   -1.00000000   -1.00000000   -1.00000000
   15.79194450   90.33029938    1.88000000    2.86999989
   15.79527855  111.60099792    1.78999996    2.89000010
   15.79833412  120.13099670    1.76999998    2.86999989
   15.80166721  120.21900177    1.83000004    2.89000010
   15.80500031  121.15399933    1.85000002    2.89000010
   15.80805588  115.62999725    1.80999994    2.89000010
   15.81222248  115.62999725    1.78999996    2.89000010
   15.81638908  114.92800140    1.80999994    2.89000010
   15.81972218  115.38800049    1.85000002    2.91000009
   15.82277775  112.19200134    1.86000001    2.89000010
   15.82527733  110.43299866    1.86000001    2.89000010
   15.82638836  112.41300201    1.94000006    2.89000010
   15.82972240  107.95099640    1.96000004    2.89000010
   15.83305550  111.80200195    1.96000004    2.89000010
   15.83611107  111.20999908    1.89999998    2.89000010
   15.83944416  106.71199799    1.86000001    2.86999989
   15.84277725  109.30599976    1.88000000    2.89000010
   15.84583282  107.68299866    1.86000001    2.89000010
   15.84916592  110.23899841    2.09999990    2.89000010
   15.85500050  110.23899841    1.94000006    2.89000010
   15.85916710  110.08000183    1.89999998    2.89000010
   15.86250019  106.36000061    2.01999998    2.89000010
   15.86583328  118.54100037    2.00000000    2.91000009
   15.86888885  119.37699890    1.98000002    2.91000009
   15.87222195  114.06199646    2.00000000    2.89000010
   15.87527752  111.98500061    2.01999998    2.89000010
   15.87861156  111.64900208    1.94000006    2.91000009
   15.88194466  112.27799988    1.94000006    2.89000010
   15.88500023  110.86799622    1.96000004    2.91000009
   15.88833332  109.60600281    2.05999994    2.89000010
   15.89166641  117.99099731    2.09999990    2.89000010
   15.89194393  112.92700195    2.09999990    2.89000010
   15.89805508  112.92700195    2.03999996    2.89000010
   15.90222168  112.12799835    1.86000001    2.91000009
   15.90527725  116.08000183    1.85000002    2.89000010
   15.90861034  114.27600098    1.89999998    2.91000009
   15.91166592  114.24199677    1.91999996    2.91000009
   15.91499996  113.74500275    1.96000004    2.91000009
   15.91833401  112.07700348    1.96000004    2.91000009
   15.92138958  109.73200226    1.98000002    2.89000010
   15.92472267  111.58999634    1.89999998    2.89000010
   15.92527771  108.03700256    1.88000000    2.89000010
   15.92833328  117.84799957    1.94000006    2.89000010
   15.93166733  118.54299927    1.94000006    2.89000010
   15.93472195  117.57199860    2.03999996    2.89000010
   15.94083309  117.57199860    2.05999994    2.89000010
   15.94499969  119.87799835    2.28999996    2.89000010
   15.94805527  116.23100281    2.36999989    2.89000010
   15.95138836  107.57800293    2.34999990    2.86999989
   15.95472240  115.04599762    2.39000010    2.86999989
   15.95777798  116.45800018    2.40000010    2.89000010
   15.95861053  111.24099731    2.39000010    2.89000010
   15.96138859  113.31700134    2.46000004    2.89000010
   15.96472168  107.03900146    2.42000008    2.89000010
   15.96777725  111.55000305    2.40000010    2.89000010
   15.97111034  108.29299927    2.32999992    2.91000009
   15.97444439  113.49400330    2.25000000    2.91000009
   15.97749996  113.06300354    2.21000004    2.91000009
   15.98361111  113.06300354    2.05999994    2.89000010
   15.98777771  108.27200317    2.15000010    2.89000010
   15.99111176  113.24800110    1.94000006    2.89000010
   15.99194431  112.29499817    1.89999998    2.89000010
   15.99472237  118.04799652    1.71000004    2.89000010
   15.99805546  112.42400360    1.69000006    2.91000009
   16.00111198  116.70300293    1.76999998    2.89000010
   16.00444412  110.56800079    1.69000006    2.89000010
   16.00777817  115.94000244    1.66999996    2.89000010
   16.01083374  116.40399933    1.83000004    2.89000010
   16.01416588  123.39600372    1.83000004    2.89000010
   16.01749992  118.74900055    1.91999996    2.89000010
   16.02055550  115.97399902    1.94000006    2.89000010
   16.02666664  115.97399902    1.94000006    2.86999989
   16.03083229  112.05500031    1.98000002    2.89000010
   16.03388786  115.16300201    1.91999996    2.91000009
   16.03722191  121.71299744    1.76999998    2.89000010
   16.04055595  113.08699799    1.75000000    2.89000010
   16.04361153  109.08399963    1.76999998    2.91000009
   16.04694366  112.23100281    1.80999994    2.91000009
   16.04999924  115.42400360    1.80999994    2.89000010
   16.05333328  115.11900330    1.78999996    2.89000010
   16.05666542  116.96099854    1.78999996    2.89000010
   16.05861092  113.34300232    1.78999996    2.89000010
   16.06027794  115.68000031    1.78999996    2.89000010
   16.06361008  116.17500305    1.76999998    2.89000010
   16.06944466  116.17500305    1.75000000    2.89000010
   16.07333374  112.90799713    1.86000001    2.89000010
   16.07666779  112.74199677    1.94000006    2.89000010
   16.08000183  112.07399750    2.03999996    2.89000010
   16.08305550  111.88800049    2.01999998    2.91000009
   16.08638954  106.47499847    2.03999996    2.89000010
   16.08972359  110.42199707    2.01999998    2.89000010
   16.09194565  113.56800079    2.00000000    2.89000010
   16.09333420  118.90899658    2.07999992    2.89000010
   16.09666824  111.16200256    1.91999996    2.89000010
   16.09972191  112.05100250    1.91999996    2.91000009
   16.10305595  110.89399719    1.96000004    2.89000010
   16.10639000  106.60500336    1.96000004    2.89000010
   16.11222267  106.60500336    1.89999998    2.89000010
   16.11638832  110.98999786    1.88000000    2.89000010
   16.11944389  112.34400177    1.89999998    2.91000009
   16.12277794  107.15699768    1.91999996    2.91000009
   16.12555504  114.43900299    2.05999994    2.91000009
   16.12638855  107.62599945    2.07999992    2.89000010
   16.12972260  111.47699738    2.05999994    2.91000009
   16.13277817  110.48999786    2.09999990    2.89000010
   16.13611031  114.36399841    1.98000002    2.91000009
   16.13944435  110.33000183    1.91999996    2.89000010
   16.14249992  106.62999725    1.94000006    2.91000009
   16.14583397  109.91699982    1.91999996    2.89000010
   16.14916611  114.81400299    1.86000001    2.89000010
   16.15499878  114.81400299    1.86000001    2.91000009
   16.15916634  112.21499634    1.88000000    2.89000010
   16.16250038  111.32700348    1.86000001    2.89000010
   16.16555595  118.19999695    1.85000002    2.91000009
   16.16888809  115.66100311    1.86000001    2.89000010
   16.17194366  110.55899811    1.85000002    2.89000010
   16.17527771  116.34200287    1.85000002    2.89000010
   16.17860985  119.01499939    1.94000006    2.89000010
   16.18166542  115.45200348    1.96000004    2.89000010
   16.18499947  115.60099792    1.96000004    2.89000010
   16.18833160  119.79599762    1.96000004    2.89000010
   16.19138718  121.30699921    1.98000002    2.89000010
   16.19222069  119.14900208    1.98000002    2.89000010
   16.19777679  119.14900208    2.17000008    2.89000010
   16.20194435  117.88200378    2.21000004    2.89000010
   16.20527840  112.14900208    2.26999998    2.89000010
   16.20833397  128.60800171    2.23000002    2.89000010
   16.21166801  113.13600159    2.25000000    2.91000009
   16.21500015  115.94100189    2.23000002    2.91000009
   16.21805573  118.05599976    2.17000008    2.89000010
   16.22138977  116.09400177    2.11999989    2.89000010
   16.22444534  117.40100098    2.07999992    2.89000010
   16.22555542  113.15599823    2.05999994    2.89000010
   16.22805595  110.53900146    2.03999996    2.91000009
   16.23139000  115.65899658    2.05999994    2.89000010
   16.23444557  114.77899933    2.01999998    2.89000010
   16.24083328  114.77899933    1.94000006    2.89000010
   16.24472237  109.18000031    1.98000002    2.91000009
   16.24805641  105.67099762    2.00000000    2.89000010
   16.25138855  108.10700226    2.00000000    2.89000010
   16.25444412  107.90799713    2.03999996    2.89000010
   16.25777817  108.55699921    2.07999992    2.86999989
   16.25888824  110.42900085    2.09999990    2.89000010
   16.26138878  109.98100281    2.09999990    2.89000010
   16.26472282  112.65499878    2.13000011    2.89000010
   16.26777840  106.75000000    2.11999989    2.91000009
   16.27111053  107.23699951    2.07999992    2.89000010
   16.27444458  108.10800171    2.03999996    2.89000010
   16.27750015  112.35600281    2.01999998    2.89000010
   16.28361130  112.35600281    2.03999996    2.89000010
   16.28777695  109.02600098    2.09999990    2.91000009
   16.29083252  116.18599701    2.13000011    2.89000010
   16.29222107  109.51200104    2.15000010    2.89000010
   16.29444313  114.65200043    2.17000008    2.89000010
   16.29777718  113.38800049    2.17000008    2.89000010
   16.30083275  113.59799957    2.21000004    2.89000010
   16.30416679  119.56700134    2.17000008    2.89000010
   16.30749893  115.49700165    2.13000011    2.89000010
   16.31055450  109.54299927    2.09999990    2.89000010
   16.31388855  114.73799896    2.09999990    2.91000009
   16.31722260  111.09799957    2.09999990    2.91000009
   16.32027817  111.41699982    2.03999996    2.89000010
   16.32638931  111.41699982    2.03999996    2.89000010
   16.33055687  112.60299683    2.01999998    2.89000010
   16.33388901  116.16100311    1.94000006    2.91000009
   16.33694458  111.62699890    1.88000000    2.89000010
   16.34027863  119.71800232    1.89999998    2.89000010
   16.34333420  112.30000305    1.89999998    2.89000010
   16.34666824  113.39900208    1.89999998    2.91000009
   16.35000038  117.09799957    1.89999998    2.91000009
   16.35305595  116.47399902    1.86000001    2.89000010
   16.35639000  114.37999725    1.78999996    2.91000009
   16.35888863  115.60299683    1.71000004    2.91000009
   16.36000061  113.55899811    1.71000004    2.91000009
   16.36333466  125.99199677    1.71000004    2.91000009
   16.36916733  125.99199677    1.73000002    2.89000010
   16.37333298  110.60800171    1.73000002    2.89000010
   16.37666702  116.91899872    1.73000002    2.89000010
   16.38000107  111.40899658    1.94000006    2.89000010
   16.38305473  112.96199799    1.89999998    2.89000010
   16.38638878  122.89099884    1.88000000    2.89000010
   16.38972282  113.87400055    1.88000000    2.89000010
   16.39222145  114.31600189    1.88000000    2.89000010
   16.39305496  113.43299866    1.88000000    2.89000010
   16.39638901  123.16100311    1.88000000    2.89000010
   16.39944458  121.78399658    1.88000000    2.89000010
   16.40277672  113.42500305    1.88000000    2.91000009
   16.40611076  112.22499847    1.91999996    2.89000010
   16.41222191  112.22499847    1.94000006    2.89000010
   16.41638756  109.87599945    2.11999989    2.89000010
   16.41944313  115.58899689    2.21000004    2.89000010
   16.42277718  112.81900024    2.28999996    2.91000009
   16.42555428  112.51899719    2.25000000    2.89000010
   16.42638779  112.65200043    2.23000002    2.89000010
   16.42972183  114.56199646    2.23000002    2.89000010
   16.43277740  113.49199677    2.19000006    2.89000010
   16.43610954  112.43699646    2.09999990    2.89000010
   16.43944359  111.24600220    2.03999996    2.91000009
   16.44249916  121.14900208    2.15000010    2.89000010
   16.44583321  120.58999634    2.19000006    2.89000010
   16.44916534  110.51699829    2.23000002    2.89000010
   16.45499992  110.51699829    2.36999989    2.89000010
   16.45916748  116.47399902    2.39000010    2.89000010
   16.46222305  116.54499817    2.39000010    2.89000010
   16.46555710  112.50099945    2.48000002    2.89000010
   16.46888924  119.09700012    2.30999994    2.89000010
   16.47194481  120.94799805    2.30999994    2.91000009
   16.47527885  111.35800171    2.28999996    2.89000010
   16.47833443  114.09799957    2.30999994    2.89000010
   16.48166656  113.38099670    2.23000002    2.89000010
   16.48500061  108.39900208    2.17000008    2.89000010
   16.48805618  114.84100342    2.05999994    2.89000010
   16.49138832  112.53500366    2.01999998    2.91000009
   16.49222183  113.42600250    2.01999998    2.89000010
   16.49777794  113.42600250    2.03999996    2.89000010
   16.50194359  111.94200134    2.11999989    2.89000010
   16.50527763  112.66699982    2.17000008    2.89000010
   16.50833321  108.27100372    2.26999998    2.89000010
   16.51166725  119.20500183    2.32999992    2.89000010
   16.51472282  115.06300354    2.34999990    2.89000010
   16.51805496  119.13700104    2.32999992    2.89000010
   16.52138901  107.32399750    2.28999996    2.89000010
   16.52444458  114.32499695    2.28999996    2.89000010
   16.52555466  116.51300049    2.30999994    2.89000010
   16.52805519  117.84999847    2.34999990    2.89000010
   16.53138924  117.21900177    2.32999992    2.89000010
   16.53472137  115.51100159    2.36999989    2.89000010
   16.54055595  115.51100159    2.28999996    2.89000010
   16.54472160  115.31999969    2.30999994    2.89000010
   16.54805565  115.50199890    2.32999992    2.89000010
   16.55111122  114.96099854    2.36999989    2.89000010
   16.55444336  115.86499786    2.40000010    2.89000010
   16.55777740  115.84300232    2.40000010    2.91000009
   16.55888748  109.23799896    2.39000010    2.91000009
   16.56138802  107.87200165    2.40000010    2.89000010
   16.56472206  112.05200195    2.46000004    2.86999989
   16.56805611  113.03700256    2.44000006    2.89000010
   16.57111168  115.02700043    2.28999996    2.89000010
   16.57444572  118.03299713    2.25000000    2.89000010
   16.57750130  114.48899841    2.21000004    2.89000010
   16.58361244  114.48899841    2.21000004    2.89000010
   16.58750153  112.68699646    2.26999998    2.89000010
   16.59083366  119.72599792    2.28999996    2.89000010
   16.59222221  113.39700317    2.30999994    2.86999989
   16.59444427  115.61399841    2.26999998    2.89000010
   16.59777832  110.72000122    2.26999998    2.89000010
   16.60111237  116.09999847    2.23000002    2.89000010
   16.60416794  114.27899933    2.19000006    2.89000010
   16.60750008  123.28099823    2.13000011    2.89000010
   16.61055565  113.89199829    2.11999989    2.89000010
   16.61388969  107.88800049    2.11999989    2.89000010
   16.61722183  104.62000275    2.07999992    2.89000010
   16.62027740  116.40100098    2.05999994    2.91000009
   16.62638855  116.40100098    2.09999990    2.89000010
   16.63055611  113.90100098    2.11999989    2.91000009
   16.63361168  120.63200378    2.09999990    2.89000010
   16.63694382  118.30500031    2.03999996    2.89000010
   16.64027786  113.29499817    2.01999998    2.91000009
   16.64333344  114.01399994    2.03999996    2.89000010
   16.64666748  119.23699951    2.05999994    2.89000010
   16.64972115  118.34300232    2.01999998    2.91000009
   16.65305519  115.49299622    1.94000006    2.91000009
   16.65638924  122.54100037    1.88000000    2.89000010
   16.65888786  113.32700348    1.89999998    2.91000009
   16.65972137  117.05000305    1.89999998    2.89000010
   16.66305542  117.83100128    1.88000000    2.91000009
   16.66916656  117.83100128    1.88000000    2.91000009
   16.67333221  118.15399933    1.86000001    2.89000010
   16.67666626  118.81800079    1.85000002    2.89000010
   16.67972183  118.10800171    1.75000000    2.89000010
   16.68305397  115.08999634    1.75000000    2.89000010
   16.68638802  114.02400208    1.73000002    2.91000009
   16.68944359  117.04900360    1.71000004    2.89000010
   16.69222069  119.81099701    1.63000000    2.89000010
   16.69305420  120.80899811    1.64999998    2.91000009
   16.69638824  124.29699707    1.71000004    2.89000010
   16.69972038  115.17299652    1.75000000    2.89000010
   16.70277786  117.30300140    1.75000000    2.91000009
   16.70611191  121.20700073    1.75000000    2.91000009
   16.71194458  121.20700073    1.80999994    2.91000009
   16.71611214  124.02799988    1.78999996    2.91000009
   16.71944427  121.02799988    1.76999998    2.89000010
   16.72249985  113.00000000    1.76999998    2.89000010
   16.72555542  116.23100281    1.80999994    2.89000010
   16.72611237  110.91200256    1.80999994    2.89000010
   16.72944450  117.42500305    1.75000000    2.91000009
   16.73277855  119.88400269    1.64999998    2.91000009
   16.73583412  118.46199799    1.64999998    2.91000009
   16.73916626  114.10800171    1.80999994    2.89000010
   16.74250031  117.83599854    1.85000002    2.89000010
   16.74555588  113.59500122    1.86000001    2.91000009
   16.74888992  125.95099640    1.86000001    2.91000009
   16.75499916  125.95099640    2.05999994    2.89000010
   16.75888824  114.42600250    2.11999989    2.89000010
   16.76222229  114.95899963    2.13000011    2.89000010
   16.76555634  114.92400360    2.13000011    2.89000010
   16.76861000  118.38500214    2.13000011    2.89000010
   16.77194405  115.97100067    2.13000011    2.89000010
   16.77527809  113.92600250    2.11999989    2.91000009
   16.77833366  119.47000122    2.09999990    2.89000010
   16.78166580  115.93699646    2.11999989    2.89000010
   16.78472137  116.80000305    2.11999989    2.89000010
   16.78805542  117.78099823    2.13000011    2.89000010
   16.79138756  116.50399780    2.15000010    2.89000010
   16.79222107  113.56099701    2.15000010    2.89000010
   16.81277657  113.56099701    2.03999996    2.89000010
   16.81694603  120.49900055    2.05999994    2.89000010
   16.82027817  116.27400208    2.07999992    2.91000009
   16.82333374  111.78800201    2.09999990    2.91000009
   16.82555580  114.58300018    2.13000011    2.89000010
   16.82694626  112.13700104    2.13000011    2.89000010
   16.83027840  109.63500214    2.13000011    2.89000010
   16.83361244  114.30500031    2.09999990    2.91000009
   16.83666801  113.80400085    2.05999994    2.89000010
   16.84000015  110.99700165    1.98000002    2.91000009
   16.84333420  111.58699799    1.96000004    2.91000009
   16.84638977  115.02999878    2.00000000    2.89000010
   16.84972191  115.01300049    1.98000002    2.89000010
   16.85555649  115.01300049    2.00000000    2.89000010
   16.85972214  114.46700287    2.17000008    2.89000010
   16.86305618  112.09100342    2.19000006    2.89000010
   16.86611176  110.98500061    2.34999990    2.89000010
   16.86944389  113.22100067    2.39000010    2.91000009
   16.87277794  113.34999847    2.46000004    2.86999989
   16.87583351  111.81800079    2.40000010    2.89000010
   16.87916756  107.93299866    2.48000002    2.89000010
   16.88222313  120.11299896    2.53999996    2.89000010
   16.88555527  112.56600189    2.44000006    2.89000010
   16.88888931  106.17600250    2.40000010    2.89000010
   16.89194489  113.95099640    2.36999989    2.89000010
   16.89249992  110.05999756    2.39000010    2.89000010
   16.89833260  110.05999756    2.36999989    2.91000009
   16.90250015  120.89399719    2.34999990    2.89000010
   16.90583229  117.40100098    2.30999994    2.91000009
   16.90916634  123.96199799    2.32999992    2.89000010
   16.91222191  121.34300232    2.30999994    2.89000010
   16.91555595  118.49299622    2.28999996    2.89000010
   16.91888809  122.37000275    2.25000000    2.89000010
   16.92194366  118.81900024    2.21000004    2.89000010
   16.92527771  118.97299957    2.19000006    2.89000010
   16.92583275  110.44599915    2.19000006    2.89000010
   16.92888832  122.21800232    2.19000006    2.89000010
   16.93222237  117.31999969    2.21000004    2.89000010
   16.93527603  119.33100128    2.19000006    2.89000010
   16.94138718  119.33100128    2.11999989    2.89000010
   16.94555473  118.68299866    2.07999992    2.91000009
   16.94861031  115.06900024    2.09999990    2.89000010
   16.95194435  122.95600128    2.17000008    2.89000010
   16.95527840  110.51599884    2.17000008    2.86999989
   16.95833397  113.33499908    2.17000008    2.89000010
   16.95916748  111.72499847    2.17000008    2.89000010
   16.96194458  114.84899902    2.15000010    2.89000010
   16.96527863  114.45500183    2.13000011    2.89000010
   16.96833420  119.07199860    2.15000010    2.89000010
   16.97166634  116.68900299    2.13000011    2.91000009
   16.97472191  119.32199860    2.09999990    2.89000010
   16.97805595  110.75700378    2.07999992    2.89000010
   16.98416710  110.75700378    2.00000000    2.89000010
   16.98833275  118.83699799    2.01999998    2.89000010
   16.99138832  115.22100067    2.05999994    2.89000010
   16.99250031  115.75199890    2.05999994    2.89000010
   16.99527740  112.13200378    2.11999989    2.89000010
   16.99861145  120.33999634    2.15000010    2.89000010
   17.00166702  117.41200256    2.13000011    2.89000010
   17.00499916  117.31700134    2.13000011    2.89000010
   17.00805473  110.48799896    2.19000006    2.89000010
   17.01138878  115.45600128    2.26999998    2.89000010
   17.01472282  119.52500153    2.25000000    2.89000010
   17.01777840  123.94100189    2.23000002    2.89000010
   17.02111053  115.31300354    2.19000006    2.89000010
   17.02694511  115.31300354    2.13000011    2.89000010
   17.03111076  117.89900208    2.11999989    2.89000010
   17.03444481  114.46299744    2.13000011    2.89000010
   17.03750038  118.67199707    2.13000011    2.89000010
   17.04083252  114.30699921    2.11999989    2.89000010
   17.04416656  115.02500153    2.15000010    2.89000010
   17.04722214  114.20800018    2.15000010    2.89000010
   17.05055428  113.10500336    2.13000011    2.89000010
   17.05360985  122.26100159    2.17000008    2.89000010
   17.05694389  114.93000031    2.21000004    2.89000010
   17.05916595  114.51399994    2.15000010    2.89000010
   17.06055450  114.30200195    2.15000010    2.89000010
   17.06388855  117.67299652    2.11999989    2.89000010
   17.06972313  117.67299652    2.01999998    2.89000010
   17.07389069  110.17299652    2.05999994    2.89000010
   17.07722282  110.77400208    2.05999994    2.91000009
   17.08055687  106.34899902    2.09999990    2.91000009
   17.08361244  116.69899750    2.09999990    2.86999989
   17.08694458  118.12300110    2.01999998    2.89000010
   17.09000015  110.27899933    1.85000002    2.89000010
   17.09250069  109.66799927    1.83000004    2.89000010
   17.09388924  112.91400146    1.83000004    2.91000009
   17.09722328  121.06999969    1.85000002    2.86999989
   17.10027885  115.43199921    1.86000001    2.89000010
   17.10361099  116.87500000    1.88000000    2.89000010
   17.10666656  112.06600189    1.89999998    2.89000010
   17.11277771  112.06600189    1.91999996    2.89000010
   17.11694527  111.93399811    1.91999996    2.89000010
   17.12000084  116.19999695    1.91999996    2.89000010
   17.12333298  114.49099731    1.78999996    2.89000010
   17.12583351  115.32199860    1.75000000    2.89000010
   17.12694550  116.40799713    1.75000000    2.89000010
   17.13027763  110.43599701    1.78999996    2.89000010
   17.13333321  113.51499939    1.78999996    2.91000009
   17.13666725  112.59799957    2.03999996    2.86999989
   17.13972282  114.89800262    2.09999990    2.89000010
   17.14305496  118.44100189    2.07999992    2.89000010
   17.14638901  119.40499878    2.13000011    2.89000010
   17.14972115  116.35600281    2.17000008    2.89000010
   17.15555573  116.35600281    2.23000002    2.89000010
   17.15972137  118.98699951    2.26999998    2.89000010
   17.16277695  119.47899628    2.32999992    2.89000010
   17.16611099  121.91500092    2.32999992    2.89000010
   17.16944313  119.05500031    2.28999996    2.89000010
   17.17249870  118.39299774    2.26999998    2.89000010
   17.17583275  118.26300049    2.13000011    2.89000010
   17.17916679  117.54499817    2.15000010    2.89000010
   17.18222237  112.55000305    2.17000008    2.89000010
   17.18555450  115.41000366    2.19000006    2.89000010
   17.18861008  114.50900269    2.19000006    2.89000010
   17.19194412  114.80899811    2.19000006    2.89000010
   17.19249916  112.06600189    2.19000006    2.89000010
   17.19833183  112.06600189    2.28999996    2.89000010
   17.20250130  117.15200043    2.34999990    2.89000010
   17.20583344  116.77700043    2.42000008    2.89000010
   17.20888901  110.80999756    2.39000010    2.89000010
   17.21222305  114.97000122    2.28999996    2.91000009
   17.21555710  118.51599884    2.17000008    2.91000009
   17.21861076  112.95999908    2.19000006    2.89000010
   17.22194481  113.74600220    2.21000004    2.89000010
   17.22500038  113.94999695    2.25000000    2.89000010
   17.22583389  114.82199860    2.26999998    2.89000010
   17.22861099  118.08699799    2.25000000    2.89000010
   17.23194504  118.49700165    2.26999998    2.89000010
   17.23500061  113.43499756    2.30999994    2.89000010
   17.24111176  113.43499756    2.34999990    2.86999989
   17.24527740  115.81500244    2.28999996    2.89000010
   17.24861145  119.71199799    2.30999994    2.89000010
   17.25166702  119.44300079    2.28999996    2.89000010
   17.25499916  116.13099670    2.25000000    2.86999989
   17.25833321  113.74299622    2.23000002    2.89000010
   17.25916672  113.49199677    2.21000004    2.89000010
   17.26194382  117.69899750    2.21000004    2.89000010
   17.26527786  113.02799988    2.15000010    2.89000010
   17.26833344  109.48899841    2.13000011    2.89000010
   17.27166557  113.28199768    2.11999989    2.89000010
   17.27499962  114.42900085    2.13000011    2.89000010
   17.27805519  118.31300354    2.09999990    2.89000010
   17.28416634  118.31300354    2.09999990    2.89000010
   17.28833199  112.23400116    2.13000011    2.86999989
   17.29138756  115.31700134    2.15000010    2.89000010
   17.29249954  116.18199921    2.15000010    2.89000010
   17.29500008  115.07700348    2.15000010    2.89000010
   17.29833221  115.68000031    2.11999989    2.89000010
   17.30138779  118.97799683    2.11999989    2.89000010
   17.30472183  114.74199677    2.13000011    2.89000010
   17.30805397  110.03500366    2.15000010    2.86999989
   17.31110954  117.75000000    2.15000010    2.89000010
   17.31444359  111.83399963    2.13000011    2.89000010
   17.31777954  117.23500061    2.11999989    2.91000009
   17.32083511  114.25099945    2.09999990    2.89000010
   17.32694626  114.25099945    2.05999994    2.89000010
   17.33111191  114.95400238    2.05999994    2.89000010
   17.33416748  110.91100311    2.11999989    2.89000010
   17.33750153  111.07499695    2.11999989    2.89000010
   17.34083366  110.04499817    2.13000011    2.91000009
   17.34388924  117.37999725    2.13000011    2.89000010
   17.34722328  113.05599976    2.13000011    2.89000010
   17.35027885  113.94200134    2.15000010    2.91000009
   17.35361099  118.98000336    2.13000011    2.89000010
   17.35694504  113.30899811    2.15000010    2.86999989
   17.35916710  115.36000061    2.19000006    2.89000010
   17.36055565  112.50700378    2.19000006    2.89000010
   17.36388969  111.54799652    2.21000004    2.89000010
   17.36972237  111.54799652    2.21000004    2.86999989
   17.37388992  106.05999756    2.23000002    2.86999989
   17.37722206  110.75499725    2.17000008    2.89000010
   17.38027763  115.54100037    2.15000010    2.89000010
   17.38361168  113.84500122    2.15000010    2.91000009
   17.38694382  110.31700134    2.13000011    2.89000010
   17.38999939  109.11699677    2.15000010    2.86999989
   17.39249992  112.66699982    2.17000008    2.89000010
   17.39361191  110.51300049    2.15000010    2.86999989
   17.39694405  114.43900299    2.19000006    2.89000010
   17.40027809  110.96099854    2.13000011    2.89000010
   17.40333366  118.91200256    2.13000011    2.89000010
   17.40666580  115.33399963    2.11999989    2.89000010
   17.41250038  115.33399963    2.01999998    2.89000010
   17.41666603  119.28399658    2.05999994    2.89000010
   17.42000008  119.16999817    2.07999992    2.89000010
   17.42305565  118.45200348    2.11999989    2.86999989
   17.42583275  122.69000244    2.13000011    2.86999989
   17.42666626  110.34200287    2.13000011    2.86999989
   17.43000031  109.48999786    2.15000010    2.89000010
   17.43305397  114.10600281    2.17000008    2.89000010
   17.43638802  112.07599640    2.23000002    2.89000010
   17.43972206  115.55799866    2.25000000    2.86999989
   17.44277763  110.17500305    2.25000000    2.89000010
   17.44610977  111.20899963    2.21000004    2.89000010
   17.44916534  116.08699799    2.25000000    2.89000010
   17.45555687  116.08699799    2.21000004    2.89000010
   17.45972252  117.19100189    2.21000004    2.89000010
   17.46277809  113.67600250    2.28999996    2.89000010
   17.46611214  119.87999725    2.36999989    2.89000010
   17.46916771  112.48500061    2.40000010    2.86999989
   17.47249985  112.51899719    2.48000002    2.89000010
   17.47583389  115.04699707    2.48000002    2.89000010
   17.47888947  116.31600189    2.53999996    2.89000010
   17.48222351  117.29299927    2.50000000    2.89000010
   17.48555565  124.78900146    2.53999996    2.89000010
   17.48861122  122.33699799    2.50000000    2.89000010
   17.49194527  111.69200134    2.48000002    2.86999989
   17.49277878  114.54799652    2.48000002    2.89000010
   17.49833298  114.54799652    2.50000000    2.89000010
   17.50250053  115.78199768    2.53999996    2.89000010
   17.50555611  112.96099854    2.50000000    2.89000010
   17.50888824  115.94400024    2.51999998    2.86999989
   17.51222229  115.70300293    2.55999994    2.89000010
   17.51527786  115.15299988    2.55999994    2.89000010
   17.51861000  118.02500153    2.53999996    2.89000010
   17.52166557  118.97200012    2.59999990    2.86999989
   17.52499962  117.97100067    2.61999989    2.89000010
   17.52611160  117.44000244    2.59999990    2.86999989
   17.52861023  112.61299896    2.59999990    2.89000010
   17.53194427  115.54199982    2.64000010    2.89000010
   17.53499985  115.48500061    2.67000008    2.89000010
   17.54111099  115.48500061    2.91000009    2.86999989
   17.54527664  111.11799622    2.82999992    2.86999989
   17.54861069  111.17299652    2.75000000    2.86999989
   17.55166626  113.51100159    2.71000004    2.86999989
   17.55499840  116.06999969    2.75000000    2.89000010
   17.55805397  111.94899750    2.71000004    2.89000010
   17.55944443  116.03399658    2.69000006    2.91000009
   17.56166649  122.04599762    2.69000006    2.89000010
   17.56499863  112.39199829    2.69000006    2.89000010
   17.56805611  118.75900269    2.69000006    2.86999989
   17.57139015  115.47499847    2.67000008    2.86999989
   17.57472229  121.55999756    2.73000002    2.89000010
   17.57777786  117.12000275    2.73000002    2.89000010
   17.58388901  117.12000275    2.73000002    2.91000009
   17.58805656  115.11900330    2.69000006    2.89000010
   17.59138870  116.48799896    2.66000009    2.89000010
   17.59277916  116.95600128    2.64000010    2.89000010
   17.59500122  107.66600037    2.66000009    2.89000010
   17.59833336  109.86399841    2.69000006    2.89000010
   17.60138893  110.96399689    2.73000002    2.89000010
   17.60472298  108.06700134    2.75000000    2.86999989
   17.60805511  117.55999756    2.73000002    2.89000010
   17.61111069  114.52500153    2.66000009    2.86999989
   17.61444473  108.43599701    2.64000010    2.86999989
   17.61777878  113.26000214    2.67000008    2.89000010
   17.62083435  116.73300171    2.71000004    2.89000010
   17.62694550  116.73300171    2.76999998    2.86999989
   17.63083267  118.40599823    2.91000009    2.89000010
   17.63416672  113.50000000    2.96000004    2.89000010
   17.63750076  117.41500092    2.98000002    2.86999989
   17.64055634  118.47499847    3.00000000    2.86999989
   17.64388847  115.94799805    3.05999994    2.89000010
   17.64722252  118.35099792    3.01999998    2.86999989
   17.65027809  115.48300171    3.01999998    2.89000010
   17.65361023  112.80999756    3.00000000    2.86999989
   17.65694427  122.02400208    2.94000006    2.86999989
   17.65944481  116.22399902    2.91000009    2.89000010
   17.66027832  114.95099640    2.91000009    2.86999989
   17.66361046  116.04000092    2.89000010    2.86999989
   17.66972160  116.04000092    2.86999989    2.89000010
   17.67388916  117.32700348    2.80999994    2.89000010
   17.67694473  114.29900360    2.75000000    2.89000010
   17.68027687  110.39399719    2.66000009    2.86999989
   17.68361092  106.83799744    2.71000004    2.89000010
   17.68666649  116.77100372    2.71000004    2.89000010
   17.68999863  114.98300171    2.64000010    2.89000010
   17.69277763  116.52300262    2.64000010    2.86999989
   17.69361115  112.87500000    2.64000010    2.89000010
   17.69694328  112.47299957    2.69000006    2.89000010
   17.70027924  109.65399933    2.55999994    2.89000010
   17.70333481  113.48999786    2.51999998    2.86999989
   17.70666695  114.83599854    2.51999998    2.89000010
   17.71250153  114.83599854    2.51999998    2.86999989
   17.71666718  114.42400360    2.48000002    2.86999989
   17.72000122  110.95899963    2.46000004    2.89000010
   17.72305679  113.94400024    2.50000000    2.86999989
   17.72611237  112.52300262    2.51999998    2.89000010
   17.72666740  103.70200348    2.51999998    2.89000010
   17.73000145  109.73600006    2.57999992    2.89000010
   17.73333359  110.03399658    2.53999996    2.89000010
   17.73638916  112.13300323    2.46000004    2.89000010
   17.73972321  115.10600281    2.50000000    2.86999989
   17.74277878  109.19100189    2.59999990    2.89000010
   17.74611092  109.69400024    2.76999998    2.89000010
   17.74944496  111.82599640    2.86999989    2.86999989
   17.75527763  111.82599640    2.80999994    2.89000010
   17.75944519  117.32599640    2.78999996    2.86999989
   17.76277733  111.20500183    2.73000002    2.86999989
   17.76583290  109.14399719    2.75000000    2.86999989
   17.76916695  112.40599823    2.69000006    2.89000010
   17.77249908  110.66000366    2.67000008    2.89000010
   17.77555466  114.19300079    2.64000010    2.89000010
   17.77888870  114.00900269    2.61999989    2.89000010
   17.78222275  117.05000305    2.59999990    2.86999989
   17.78527641  115.70999908    2.67000008    2.86999989
   17.78861046  115.68699646    2.67000008    2.86999989
   17.79166603  115.92099762    2.71000004    2.86999989
   17.79277802  114.30599976    2.75000000    2.86999989
   17.79833221  114.30599976    2.84999990    2.86999989
   17.80222130  116.91500092    2.76999998    2.89000010
   17.80555534  117.68699646    2.76999998    2.86999989
   17.80888748  112.52500153    2.75000000    2.89000010
   17.82638931  112.01699829    2.82999992    2.89000010
   17.82888985  110.60600281    2.75000000    2.89000010
   17.83194542  115.11900330    2.73000002    2.89000010
   17.83527756  117.04299927    2.80999994    2.89000010
   17.84111214  117.04299927    2.80999994    2.89000010
   17.84527779  114.98600006    2.75000000    2.86999989
   17.84861183  114.96099854    2.71000004    2.86999989
   17.85194397  114.14299774    2.75000000    2.86999989
   17.85499954  112.47100067    2.80999994    2.89000010
   17.85833359  112.90200043    2.82999992    2.86999989
   17.85972214  111.10600281    2.82999992    2.89000010
   17.86194420  118.19300079    2.89000010    2.86999989
   17.86527824  108.40000153    2.93000007    2.86999989
   17.86861038  107.56700134    2.91000009    2.86999989
   17.87166595  114.30500031    2.96000004    2.89000010
   17.87500000  117.78800201    3.00000000    2.86999989
   17.87833405  114.94300079    3.03999996    2.86999989
   17.88416672  114.94300079    3.05999994    2.89000010
   17.88833237  117.67800140    3.11999989    2.86999989
   17.89138794  145.40400696    3.14000010    2.86999989
   17.89305496  116.77400208    3.16000009    2.86999989
   17.89500046  108.59600067    3.20000005    2.86999989
   17.89833260  130.61399841    3.23000002    2.86999989
   17.90166664  117.19300079    3.25000000    2.86999989
   17.90472221  115.82199860    3.25000000    2.91000009
   17.90805435  119.46099854    3.25000000    2.89000010
   17.91138840  127.01499939    3.25000000    2.86999989
   17.91444397  124.29100037    3.25000000    2.86999989
   17.91777802  115.42099762    3.28999996    2.86999989
   17.92111015  115.74099731    3.28999996    2.86999989
   17.92694473  115.74099731    3.28999996    2.86999989
   17.93111038  113.53800201    3.34999990    2.86999989
   17.93416595  112.02400208    3.39000010    2.86999989
   17.93750000  114.90499878    3.50000000    2.86999989
   17.94083214  115.42900085    3.53999996    2.86999989
   17.94388771  112.32499695    3.57999992    2.86999989
   17.94722176  116.16100311    3.59999990    2.86999989
   17.95055580  113.00399780    3.61999989    2.86999989
   17.95361137  108.82299805    3.55999994    2.86999989
   17.95694542  113.08899689    3.59999990    2.84999990
   17.95972252  113.46700287    3.59999990    2.86999989
   17.96027946  115.07599640    3.59999990    2.86999989
   17.96361160  117.70600128    3.61999989    2.84999990
   17.96972275  117.70600128    3.55999994    2.86999989
   17.97389030  115.52700043    3.51999998    2.86999989
   17.97722244  121.20600128    3.51999998    2.86999989
   17.98027802  119.51300049    3.55999994    2.86999989
   17.98361206  114.06099701    3.64000010    2.86999989
   17.98694420  115.03600311    3.66000009    2.86999989
   17.98999977  111.72100067    3.64000010    2.86999989
   17.99305534  116.55000305    3.61999989    2.86999989
   17.99361229  114.90100098    3.61999989    2.86999989
   17.99694443  112.30500031    3.55999994    2.86999989
   18.00027847  112.60399628    3.51999998    2.86999989
   18.00333405  106.31099701    3.53999996    2.86999989
   18.00666618  110.86900330    3.61999989    2.86999989
   18.01250076  110.86900330    3.59999990    2.86999989
   18.01666641  115.71600342    3.75000000    2.86999989
   18.02000046  108.94300079    3.68000007    2.86999989
   18.02333260  108.70400238    3.64000010    2.84999990
   18.02638817  112.24700165    3.70000005    2.86999989
   18.02666664  116.16300201    3.66000009    2.86999989
   18.03000069  110.54000092    3.76999998    2.86999989
   18.03333282  110.94000244    3.82999992    2.86999989
   18.03638840  114.53600311    3.84999990    2.84999990
   18.03972244  114.87000275    3.82999992    2.86999989
   18.04305458  113.15699768    3.76999998    2.86999989
   18.04611015  120.55200195    3.73000002    2.86999989
   18.04944420  113.52400208    3.70000005    2.86999989
   18.05555534  113.52400208    3.73000002    2.86999989
   18.05972099  118.02100372    3.75000000    2.86999989
   18.05999947  109.91799927    3.75000000    2.86999989
   18.06333351  114.87599945    3.82999992    2.84999990
   18.06666756  117.18499756    3.82999992    2.84999990
   18.06972313  119.43399811    3.82999992    2.86999989
   18.07305717  117.65799713    3.89000010    2.84999990
   18.07638931  111.85900116    3.95000005    2.84999990
   18.07944489  116.16799927    3.99000001    2.86999989
   18.08277893  119.13400269    4.01999998    2.86999989
   18.08611107  117.23999786    3.97000003    2.86999989
   18.08916664  117.30799866    3.91000009    2.86999989
   18.09250069  119.07299805    3.84999990    2.84999990
   18.09305573  116.71099854    3.82999992    2.84999990
   18.09833336  116.71099854    3.76999998    2.84999990
   18.10250092  116.43199921    3.73000002    2.86999989
   18.10555649  115.44899750    3.68000007    2.84999990
   18.10888863  111.87899780    3.59999990    2.86999989
   18.11222267  112.08599854    3.53999996    2.86999989
   18.11527824  112.15100098    3.53999996    2.86999989
   18.11861038  114.63500214    3.55999994    2.86999989
   18.12194443  114.95999908    3.55999994    2.86999989
   18.12500000  110.63500214    3.57999992    2.84999990
   18.12638855  112.99900055    3.59999990    2.86999989
   18.12888908  118.83999634    3.61999989    2.84999990
   18.13194466  112.69999695    3.57999992    2.86999989
   18.13527679  115.84500122    3.59999990    2.84999990
   18.14111137  115.84500122    3.75000000    2.86999989
   18.14527702  113.47899628    3.78999996    2.86999989
   18.14861107  114.14700317    3.75000000    2.86999989
   18.15166664  113.60199738    3.75000000    2.86999989
   18.15499878  110.00399780    3.76999998    2.86999989
   18.15833282  113.41300201    3.75000000    2.86999989
   18.15972137  115.56800079    3.76999998    2.84999990
   18.16194344  109.82800293    3.75000000    2.86999989
   18.16499901  118.12500000    3.72000003    2.86999989
   18.16833305  113.27899933    3.70000005    2.84999990
   18.17138863  112.89099884    3.66000009    2.86999989
   18.17472076  111.82900238    3.64000010    2.86999989
   18.17805481  112.58999634    3.61999989    2.86999989
   18.18388748  112.58999634    3.53999996    2.86999989
   18.18805504  114.24400330    3.50000000    2.86999989
   18.19138718  116.51200104    3.48000002    2.86999989
   18.19305420  115.37500000    3.46000004    2.86999989
   18.19499969  117.08100128    3.48000002    2.84999990
   18.19805527  115.65899658    3.48000002    2.86999989
   18.20138931  114.29699707    3.51999998    2.86999989
   18.20444489  119.87699890    3.55999994    2.86999989
   18.20777893  114.46199799    3.61999989    2.86999989
   18.21111107  119.27600098    3.68000007    2.86999989
   18.21416664  105.97599792    3.64000010    2.86999989
   18.21750069  114.47799683    3.59999990    2.86999989
   18.22083473  110.95500183    3.53999996    2.86999989
   18.22694588  110.95500183    3.55999994    2.86999989
   18.23111153  117.30300140    3.57999992    2.86999989
   18.23416710  118.98300171    3.57999992    2.86999989
   18.23750114  112.43800354    3.53999996    2.84999990
   18.24055672  118.83599854    3.51999998    2.86999989
   18.24388885  113.61699677    3.46000004    2.84999990
   18.24722290  112.82499695    3.46000004    2.86999989
   18.25027847  112.73799896    3.43000007    2.86999989
   18.25361061  118.26799774    3.45000005    2.86999989
   18.25694466  113.35199738    3.48000002    2.86999989
   18.25972176  113.31600189    3.51999998    2.86999989
   18.26055527  116.68199921    3.51999998    2.86999989
   18.26361084  115.79100037    3.53999996    2.84999990
   18.26972198  115.79100037    3.50000000    2.84999990
   18.27388954  112.29000092    3.57999992    2.84999990
   18.27694511  117.56900024    3.70000005    2.84999990
   18.28027725  115.49700165    3.68000007    2.86999989
   18.28361130  111.80200195    3.70000005    2.86999989
   18.28666687  115.12699890    3.70000005    2.84999990
   18.28999901  113.06600189    3.68000007    2.86999989
   18.29305458  113.43800354    3.68000007    2.86999989
   18.29361153  111.59999847    3.68000007    2.84999990
   18.29666710  117.41100311    3.73000002    2.84999990
   18.29999924  111.85299683    3.76999998    2.84999990
   18.30305481  114.43099976    3.80999994    2.84999990
   18.30638885  108.52200317    3.82999992    2.84999990
   18.31250000  108.52200317    3.93000007    2.84999990
   18.31666756  109.37300110    3.91000009    2.84999990
   18.32000160  113.69699860    3.93000007    2.86999989
   18.32305717  108.09500122    3.99000001    2.84999990
   18.32638931  108.40200043    4.03999996    2.86999989
   18.32694626  105.62899780    4.05999994    2.86999989
   18.33000183  109.80999756    4.15999985    2.84999990
   18.33333397  109.36699677    4.23999977    2.84999990
   18.33638954  113.41300201    4.19999981    2.84999990
   18.33972359  109.97499847    4.13999987    2.84999990
   18.34305573  112.29199982    4.13999987    2.86999989
   18.34611130  111.32800293    4.13999987    2.84999990
   18.34944534  110.37699890    4.05999994    2.86999989
   18.35527802  110.37699890    3.93000007    2.86999989
   18.35944557  108.51100159    3.95000005    2.86999989
   18.36000061  113.35299683    3.95000005    2.86999989
   18.36333466  113.37699890    3.99000001    2.86999989
   18.36666679  109.25800323    4.00000000    2.84999990
   18.36972237  114.40899658    4.01999998    2.84999990
   18.37305641  113.15399933    4.01999998    2.84999990
   18.37611198  114.86699677    4.07999992    2.84999990
   18.37944412  111.74099731    4.11999989    2.84999990
   18.38277817  108.61100006    4.05999994    2.84999990
   18.38583374  113.16899872    4.05999994    2.84999990
   18.38916588  112.90899658    4.09999990    2.86999989
   18.39249992  112.15100098    4.19999981    2.84999990
   18.39333344  112.30999756    4.23999977    2.84999990
   18.39833260  112.30999756    4.53000021    2.82999992
   18.40250015  112.20600128    4.63999987    2.84999990
   18.40555573  113.72899628    4.65999985    2.82999992
   18.40888786  120.61399841    4.63999987    2.84999990
   18.41194344  115.59500122    4.59999990    2.84999990
   18.41527748  113.81900024    4.53999996    2.84999990
   18.41860962  114.83699799    4.53000021    2.84999990
   18.42194366  117.87500000    4.46999979    2.84999990
   18.42499924  115.74500275    4.40999985    2.84999990
   18.42666626  110.02400208    4.38999987    2.86999989
   18.42860985  115.70400238    4.36999989    2.84999990
   18.43194389  114.90599823    4.40999985    2.84999990
   18.43499947  112.64199829    4.40999985    2.84999990
   18.44111061  112.64199829    4.44999981    2.84999990
   18.44527626  114.76899719    4.53000021    2.84999990
   18.44833183  109.32099915    4.53000021    2.84999990
   18.45166779  109.52300262    4.55999994    2.86999989
   18.45499992  111.98300171    4.57999992    2.84999990
   18.45805550  112.55799866    4.63999987    2.84999990
   18.46000099  112.37000275    4.65999985    2.84999990
   18.46194458  112.59899902    4.67999983    2.84999990
   18.46527863  116.87400055    4.59999990    2.84999990
   18.46833420  113.91500092    4.61999989    2.84999990
   18.47166634  112.95800018    4.65999985    2.82999992
   18.47472191  112.79399872    4.61999989    2.84999990
   18.47805595  114.86900330    4.63999987    2.84999990
   18.48388863  114.86900330    4.55999994    2.84999990
   18.48805618  121.63300323    4.55999994    2.84999990
   18.49138832  113.67600250    4.55999994    2.84999990
   18.49333382  114.36100006    4.57999992    2.84999990
   18.49500084  116.88099670    4.61999989    2.82999992
   18.49833298  113.27500153    4.59999990    2.84999990
   18.50138855  119.76899719    4.61999989    2.84999990
   18.50472260  113.44499969    4.59999990    2.84999990
   18.50777817  115.63899994    4.53999996    2.84999990
   18.51111031  113.69799805    4.44999981    2.82999992
   18.51444435  114.41400146    4.36999989    2.84999990
   18.51749992  114.29599762    4.28999996    2.84999990
   18.52083397  115.38200378    4.26999998    2.86999989
   18.52666664  115.38200378    4.26999998    2.84999990
   18.53083229  116.76799774    4.30999994    2.84999990
   18.53416634  115.83899689    4.30999994    2.84999990
   18.53750038  117.59600067    4.28999996    2.84999990
   18.54055595  113.16200256    4.28999996    2.84999990
   18.54388809  119.71800232    4.26999998    2.84999990
   18.54694366  115.14499664    4.26000023    2.84999990
   18.55027771  115.65899658    4.23999977    2.84999990
   18.55360985  115.79100037    4.19999981    2.84999990
   18.55666542  117.92500305    4.15999985    2.82999992
   18.55999947  117.72200012    4.15999985    2.86999989
   18.56055450  119.47200012    4.15999985    2.86999989
   18.56388855  122.43800354    4.15999985    2.84999990
   18.56972313  122.43800354    4.17999983    2.82999992
   18.57389069  113.85600281    4.23999977    2.84999990
   18.57694626  113.85500336    4.23999977    2.84999990
   18.58027840  110.04699707    4.26999998    2.84999990
   18.58333397  112.38999939    4.38999987    2.84999990
   18.58666801  109.74299622    4.44999981    2.84999990
   18.59000015  115.45999908    4.44999981    2.82999992
   18.59305573  113.14800262    4.61999989    2.84999990
   18.59388924  114.81199646    4.69999981    2.84999990
   18.59694481  118.65200043    4.48999977    2.84999990
   18.60000038  114.56600189    4.57999992    2.82999992
   18.60333443  110.95200348    4.61999989    2.82999992
   18.60639000  109.85800171    4.65999985    2.82999992
   18.61250114  109.85800171    4.69999981    2.82999992
   18.61666679  114.38999939    4.73999977    2.82999992
   18.61972237  119.27300262    4.84999990    2.82999992
   18.62305641  116.73899841    4.84999990    2.84999990
   18.62638855  113.20700073    4.86999989    2.82999992
   18.62722206  116.90200043    4.86999989    2.82999992
   18.63000107  113.40200043    4.90999985    2.82999992
   18.63305473  112.38999939    4.90999985    2.82999992
   18.63638878  114.70300293    4.90999985    2.82999992
   18.63944435  113.18399811    4.90999985    2.82999992
   18.64277840  117.54699707    4.90999985    2.82999992
   18.64611053  113.18599701    4.90999985    2.82999992
   18.64916611  113.82099915    4.90999985    2.82999992
   18.65527725  113.82099915    4.88999987    2.82999992
   18.65944481  115.96900177    4.82999992    2.82999992
   18.66055489  115.01300049    4.80000019    2.82999992
   18.66333389  112.24800110    4.80999994    2.82999992
   18.66638756  119.69599915    4.78000021    2.82999992
   18.66972160  118.56900024    4.80000019    2.82999992
   18.67277718  115.11100006    4.71999979    2.84999990
   18.67611122  112.57199860    4.59999990    2.84999990
   18.67944336  117.91000366    4.48999977    2.84999990
   18.68249893  121.34400177    4.42999983    2.82999992
   18.68583298  115.11100006    4.40999985    2.82999992
   18.68916512  112.07599640    4.40999985    2.82999992
   18.69222069  112.42700195    4.38999987    2.82999992
   18.69388771  115.15100098    4.38999987    2.84999990
   18.69805527  115.15100098    4.51000023    2.82999992
   18.70222282  119.56400299    4.53999996    2.82999992
   18.70555687  117.09500122    4.53000021    2.82999992
   18.70888901  124.47799683    4.48999977    2.82999992
   18.71194458  118.57399750    4.42999983    2.82999992
   18.71527863  114.23400116    4.38999987    2.82999992
   18.71833420  119.34799957    4.36999989    2.82999992
   18.72166634  116.80100250    4.28999996    2.84999990
   18.72500038  118.24099731    4.26999998    2.84999990
   18.72722244  116.06900024    4.28999996    2.82999992
   18.72861099  118.73899841    4.28999996    2.82999992
   18.73166656  121.72899628    4.26000023    2.82999992
   18.73500061  113.95400238    4.19999981    2.82999992
   18.74111176  113.95400238    4.11999989    2.84999990
   18.74527740  118.38400269    4.09999990    2.82999992
   18.74833298  117.59999847    4.13999987    2.84999990
   18.75166702  115.31199646    4.17999983    2.82999992
   18.75499916  114.07299805    4.17999983    2.84999990
   18.75805473  110.07399750    4.13999987    2.84999990
   18.76055527  118.52600098    4.17999983    2.84999990
   18.76194382  109.51699829    4.15999985    2.84999990
   18.76499939  112.05799866    4.13999987    2.84999990
   18.76833344  116.55400085    4.15999985    2.82999992
   18.77138901  112.35900116    4.17999983    2.84999990
   18.77472115  118.25000000    4.13999987    2.82999992
   18.77805519  123.94899750    4.13999987    2.82999992
   18.78388786  123.94899750    4.09999990    2.84999990
   18.78805542  119.18599701    4.17999983    2.82999992
   18.79111099  121.36299896    4.26000023    2.84999990
   18.79388809  124.87899780    4.26999998    2.82999992
   18.79500008  116.23100281    4.28999996    2.82999992
   18.79805565  120.16100311    4.30999994    2.82999992
   18.80138779  121.33200073    4.30999994    2.82999992
   18.80444336  122.91500092    4.30999994    2.82999992
   18.80777740  132.48300171    4.32999992    2.82999992
   18.81110954  114.31900024    4.30999994    2.82999992
   18.81416512  125.84600067    4.28999996    2.82999992
   18.81750107  120.31400299    4.28999996    2.84999990
   18.82083511  113.85500336    4.30999994    2.84999990
   18.82666779  113.85500336    4.36999989    2.82999992
   18.84500122  115.07599640    4.13999987    2.82999992
   18.84833336  119.48699951    4.05999994    2.82999992
   18.85166740  115.70800018    4.00000000    2.82999992
   18.85472298  111.47799683    3.97000003    2.84999990
   18.85805511  112.68599701    3.95000005    2.82999992
   18.86111069  119.90799713    3.97000003    2.84999990
   18.86444473  113.32800293    3.97000003    2.80999994
   18.86972237  113.32800293    4.09999990    2.84999990
   18.87388992  119.90599823    4.26000023    2.82999992
   18.87722206  124.85600281    4.30999994    2.82999992
   18.87805557  120.06099701    4.30999994    2.82999992
   18.88083267  115.39199829    4.32999992    2.82999992
   18.88416672  124.01000214    4.34999990    2.82999992
   18.88722229  120.41500092    4.40999985    2.82999992
   18.89055634  117.74199677    4.44999981    2.82999992
   18.89361191  121.99700165    4.46999979    2.82999992
   18.89694405  121.30599976    4.44999981    2.82999992
   18.90027809  115.88700104    4.44999981    2.82999992
   18.90333366  121.69200134    4.40999985    2.82999992
   18.90666580  118.14600372    4.40999985    2.82999992
   18.91277695  118.14600372    4.36999989    2.82999992
   18.91666603  113.72799683    4.32999992    2.84999990
   18.92000008  109.60299683    4.34999990    2.82999992
   18.92333221  118.95700073    4.30999994    2.80999994
   18.92638779  111.44499969    4.32999992    2.82999992
   18.92972183  112.44699860    4.30999994    2.82999992
   18.93305397  120.84999847    4.30999994    2.80999994
   18.93610954  116.16899872    4.32999992    2.82999992
   18.93944359  126.30999756    4.32999992    2.82999992
   18.94277763  117.50900269    4.30999994    2.82999992
   18.94472122  114.22200012    4.30999994    2.82999992
   18.94638824  124.16200256    4.34999990    2.82999992
   18.94972038  109.62200165    4.34999990    2.82999992
   18.95555687  109.62200165    4.34999990    2.80999994
   18.95972252  119.76699829    4.40999985    2.80999994
   18.96277809  111.78700256    4.42999983    2.80999994
   18.96611214  127.63200378    4.42999983    2.80999994
   18.96944427  122.77400208    4.44999981    2.80999994
   18.97249985  116.92199707    4.48999977    2.82999992
   18.97583389  120.59200287    4.51000023    2.82999992
   18.97805595  129.08900452    4.48999977    2.82999992
   18.97944450  121.04399872    4.46999979    2.82999992
   18.98277855  127.73100281    4.44999981    2.82999992
   18.98583412  120.97200012    4.46999979    2.80999994
   18.98916626  118.82900238    4.51000023    2.82999992
   18.99250031  118.02300262    4.48999977    2.82999992
   18.99833298  118.02300262    4.48999977    2.80999994
   19.00250053  120.73699951    4.53999996    2.82999992
   19.00583267  116.64800262    4.57999992    2.80999994
   19.00888824  122.65599823    4.61999989    2.82999992
   19.01138878  125.70200348    4.63999987    2.82999992
   19.01250076  117.00299835    4.65999985    2.82999992
   19.01583290  119.53900146    4.67999983    2.82999992
   19.01888847  122.19200134    4.67999983    2.80999994
   19.02222252  124.43099976    4.65999985    2.80999994
   19.02555466  124.44699860    4.63999987    2.80999994
   19.02861023  116.66500092    4.61999989    2.80999994
   19.03194427  123.87899780    4.63999987    2.80999994
   19.03527641  122.24500275    4.63999987    2.80999994
   19.04111099  122.24500275    4.65999985    2.80999994
   19.04527664  133.24200439    4.65999985    2.80999994
   19.04861069  125.30400085    4.67999983    2.82999992
   19.05166626  125.11699677    4.67999983    2.82999992
   19.05499840  118.56199646    4.67999983    2.82999992
   19.05833244  125.86599731    4.67999983    2.80999994
   19.06138802  128.98800659    4.67999983    2.80999994
   19.06472206  120.85500336    4.71999979    2.80999994
   19.06805611  120.53299713    4.76000023    2.80999994
   19.07111168  115.06800079    4.76000023    2.80999994
   19.07444572  130.75799561    4.73999977    2.80999994
   19.07750130  123.04799652    4.73999977    2.80999994
   19.07805634  124.94599915    4.73999977    2.80999994
   19.08416748  124.94599915    4.73999977    2.80999994
   19.08805656  128.86599731    4.73999977    2.80999994
   19.09138870  119.24099731    4.76000023    2.78999996
   19.09472275  121.72200012    4.78000021    2.80999994
   19.09777832  132.60699463    4.80999994    2.80999994
   19.10111237  138.33299255    4.80999994    2.80999994
   19.10444450  120.84400177    4.82999992    2.80999994
   19.10750008  123.06800079    4.84999990    2.80999994
   19.11083412  114.04199982    4.90999985    2.82999992
   19.11138916  118.14800262    4.90999985    2.80999994
   19.11444473  124.44100189    4.90999985    2.82999992
   19.11777878  123.91500092    4.90999985    2.80999994
   19.12083435  126.73500061    4.90999985    2.80999994
   19.12694550  126.73500061    4.88999987    2.80999994
   19.13111115  140.10000610    4.84999990    2.80999994
   19.13416672  128.04699707    4.82999992    2.78999996
   19.13750076  117.35700226    4.80000019    2.80999994
   19.14083290  134.50599670    4.78000021    2.80999994
   19.14388847  126.05500031    4.76000023    2.80999994
   19.14472198  130.92999268    4.76000023    2.80999994
   19.14749908  130.70199585    4.73999977    2.80999994
   19.15083313  127.70500183    4.76000023    2.78999996
   19.15388870  126.36799622    4.80000019    2.80999994
   19.15722275  125.30999756    4.80999994    2.80999994
   19.16722107  125.30999756    0.00000000    0.00000000
   19.17055511  125.30999756    0.00000000    0.00000000
   19.17666626  125.30999756    0.00000000    0.00000000
   19.18111038  125.30999756    0.00000000    0.00000000
   19.18249893  125.30999756    0.00000000    0.00000000
   19.18444443  125.30999756    0.00000000    0.00000000
   19.18805504  125.30999756    0.00000000    0.00000000
   19.19138718  125.30999756    0.00000000    0.00000000
   19.19472122  125.30999756    0.00000000    0.00000000
   19.19833183  125.30999756    0.00000000    0.00000000
   19.20166779  125.30999756    0.00000000    0.00000000
   19.20472336  125.30999756    4.80999994    2.80999994
   19.20750046  125.30999756    4.80999994    2.80999994
   19.21055603  125.30999756    4.80999994    2.80999994
   19.21361160  125.30999756    4.80999994    2.80999994
   19.21888924  125.30999756    4.80999994    2.80999994
   19.22277832  125.30999756    4.80999994    2.80999994
   19.22583389  125.30999756    4.80999994    2.80999994
   19.22888947  125.30999756    4.80999994    2.80999994
   19.23194504  125.30999756    4.80999994    2.80999994
   19.23500061  125.30999756    4.80999994    2.80999994
   19.23805618  125.30999756    4.80999994    2.80999994
   19.24111176  125.30999756    4.80999994    2.80999994
   19.24416733  125.30999756    4.80999994    2.80999994
   19.24722290  125.30999756    4.80999994    2.80999994
   19.25000000  125.30999756    4.80999994    2.80999994
   19.25027847  125.30999756    4.80999994    2.80999994
   19.25333405  125.30999756    4.80999994    2.80999994
   19.25638962  125.30999756    4.80999994    2.80999994
   19.26194382  125.30999756    4.80999994    2.80999994
   19.26555634  125.30999756    4.80999994    2.80999994
   19.26861000  125.30999756    4.80999994    2.80999994
   19.27166557  125.30999756    4.80999994    2.80999994
   19.27472115  125.30999756    4.80999994    2.80999994
   19.27777672  125.30999756    4.80999994    2.80999994
   19.28083229  125.30999756    4.80999994    2.80999994
   19.28333282  125.30999756    4.80999994    2.80999994
   19.28388786  125.30999756    4.80999994    2.80999994
   19.28694344  125.30999756    4.80999994    2.80999994
   19.28999901  125.30999756    4.80999994    2.80999994
   19.29305458  125.30999756    4.80999994    2.80999994
   19.29611015  125.30999756    4.80999994    2.80999994
   19.29916573  125.30999756    4.80999994    2.80999994
   19.30472183  125.30999756    4.80999994    2.80999994
   19.30833244  125.30999756    4.80999994    2.80999994
   19.31138802  125.30999756    4.80999994    2.80999994
   19.31444359  125.30999756    4.80999994    2.80999994
   19.31666756  125.30999756    4.80999994    2.80999994
   19.31777954  125.30999756    4.80999994    2.80999994
   19.32083511  125.30999756    4.80999994    2.80999994
   19.32389069  125.30999756    4.80999994    2.80999994
   19.32694626  125.30999756    4.80999994    2.80999994
   19.33000183  125.30999756    4.80999994    2.80999994
   19.33305550  125.30999756    4.80999994    2.80999994
   19.33611107  125.30999756    4.80999994    2.80999994
   19.33916664  125.30999756    4.80999994    2.80999994
   19.34222221  125.30999756    4.80999994    2.80999994
   19.34749985  125.30999756    4.80999994    2.80999994
   19.35111237  125.30999756    4.80999994    2.80999994
   19.35416794  125.30999756    4.80999994    2.80999994
   19.35722351  125.30999756    4.80999994    2.80999994
   19.36027908  125.30999756    4.80999994    2.80999994
   19.36333466  125.30999756    4.80999994    2.80999994
   19.36638832  125.30999756    4.80999994    2.80999994
   19.36944389  125.30999756    4.80999994    2.80999994
   19.37249947  125.30999756    4.80999994    2.80999994
   19.37555504  125.30999756    4.80999994    2.80999994
   19.37861061  125.30999756    4.80999994    2.80999994
   19.38166618  125.30999756    4.80999994    2.80999994
   19.38333321  125.30999756    4.80999994    2.80999994
   19.38500023  125.30999756    4.80999994    2.80999994
   19.39027786  125.30999756    4.80999994    2.80999994
   19.39416695  125.30999756    4.80999994    2.80999994
   19.39722252  125.30999756    4.80999994    2.80999994
   19.40027809  125.30999756    4.80999994    2.80999994
   19.40333366  125.30999756    4.80999994    2.80999994
   19.40638924  125.30999756    4.80999994    2.80999994
   19.40944481  125.30999756    4.80999994    2.80999994
   19.41250038  125.30999756    4.80999994    2.80999994
   19.41555595  125.30999756    4.80999994    2.80999994
   19.41666603  125.30999756    4.80999994    2.80999994
   19.41860962  125.30999756    4.80999994    2.80999994
   19.42166519  125.30999756    4.80999994    2.80999994
   19.42472076  125.30999756    4.80999994    2.80999994
   19.42777634  125.30999756    4.80999994    2.80999994
   19.43333244  125.30999756    4.80999994    2.80999994
   19.43694305  125.30999756    4.80999994    2.80999994
   19.43999863  125.30999756    4.80999994    2.80999994
   19.44305420  125.30999756    4.80999994    2.80999994
   19.44610977  125.30999756    4.80999994    2.80999994
   19.44916534  125.30999756    4.80999994    2.80999994
   19.45000076  125.30999756    4.80999994    2.80999994
   19.45222282  125.30999756    4.80999994    2.80999994
   19.45527840  125.30999756    4.80999994    2.80999994
   19.45833397  125.30999756    4.80999994    2.80999994
   19.46138954  125.30999756    4.80999994    2.80999994
   19.46444511  125.30999756    4.80999994    2.80999994
   19.46750069  125.30999756    4.80999994    2.80999994
   19.47055626  125.30999756    4.80999994    2.80999994
   19.47611237  125.30999756    4.80999994    2.80999994
   19.47972298  125.30999756    4.80999994    2.80999994
   19.48277855  125.30999756    4.80999994    2.80999994
   19.48333359  125.30999756    4.80999994    2.80999994
   19.48611069  125.30999756    4.80999994    2.80999994
   19.48916626  125.30999756    4.80999994    2.80999994
   19.49222183  125.30999756    4.80999994    2.80999994
   19.49527740  125.30999756    4.80999994    2.80999994
   19.49833298  125.30999756    4.80999994    2.80999994
   19.50138855  125.30999756    4.80999994    2.80999994
   19.50444412  125.30999756    4.80999994    2.80999994
   19.50749969  125.30999756    4.80999994    2.80999994
   19.51055527  125.30999756    4.80999994    2.80999994
   19.51361084  125.30999756    4.80999994    2.80999994
   19.51888847  125.30999756    4.80999994    2.80999994
   19.52249908  125.30999756    4.80999994    2.80999994
   19.52555466  125.30999756    4.80999994    2.80999994
   19.52861023  125.30999756    4.80999994    2.80999994
   19.53166580  125.30999756    4.80999994    2.80999994
   19.53472137  125.30999756    4.80999994    2.80999994
   19.53777695  125.30999756    4.80999994    2.80999994
   19.54083252  125.30999756    4.80999994    2.80999994
   19.54388809  125.30999756    4.80999994    2.80999994
   19.54694366  125.30999756    4.80999994    2.80999994
   19.54999924  125.30999756    4.80999994    2.80999994
   19.55027771  125.30999756    4.80999994    2.80999994
   19.55333328  125.30999756    4.80999994    2.80999994
   19.55638885  125.30999756    4.80999994    2.80999994
   19.56166649  125.30999756    4.80999994    2.80999994
   19.56555557  125.30999756    4.80999994    2.80999994
   19.56861115  125.30999756    4.80999994    2.80999994
   19.57166672  125.30999756    4.80999994    2.80999994
   19.57472229  125.30999756    4.80999994    2.80999994
   19.57777786  125.30999756    4.80999994    2.80999994
   19.58083344  125.30999756    4.80999994    2.80999994
   19.58333397  125.30999756    4.80999994    2.80999994
   19.58388901  125.30999756    4.80999994    2.80999994
   19.58694458  125.30999756    4.80999994    2.80999994
   19.59000015  125.30999756    4.80999994    2.80999994
   19.59305573  125.30999756    4.80999994    2.80999994
   19.59611130  125.30999756    4.80999994    2.80999994
   19.59916687  125.30999756    4.80999994    2.80999994
   19.60472298  125.30999756    4.80999994    2.80999994
   19.60833359  125.30999756    4.80999994    2.80999994
   19.61138916  125.30999756    4.80999994    2.80999994
   19.61444473  125.30999756    4.80999994    2.80999994
   19.61694527  125.30999756    4.80999994    2.80999994
   19.61750031  125.30999756    4.80999994    2.80999994
   19.62083435  125.30999756    4.80999994    2.80999994
   19.62388992  125.30999756    4.80999994    2.80999994
   19.62694550  125.30999756    4.80999994    2.80999994
   19.63000107  125.30999756    4.80999994    2.80999994
   19.63305473  125.30999756    4.80999994    2.80999994
   19.63611031  125.30999756    4.80999994    2.80999994
   19.63916588  125.30999756    4.80999994    2.80999994
   19.64222145  125.30999756    4.80999994    2.80999994
   19.64749908  125.30999756    4.80999994    2.80999994
   19.65111160  125.30999756    4.80999994    2.80999994
   19.65416718  125.30999756    4.80999994    2.80999994
   19.65722275  125.30999756    4.80999994    2.80999994
   19.66027832  125.30999756    4.80999994    2.80999994
   19.66333389  125.30999756    4.80999994    2.80999994
   19.66638756  125.30999756    4.80999994    2.80999994
   19.66944313  125.30999756    4.80999994    2.80999994
   19.67249870  125.30999756    4.80999994    2.80999994
   19.67555428  125.30999756    4.80999994    2.80999994
   19.67860985  125.30999756    4.80999994    2.80999994
   19.68166542  125.30999756    4.80999994    2.80999994
   19.68361092  125.30999756    4.80999994    2.80999994
   19.68472099  125.30999756    4.80999994    2.80999994
   19.69027710  125.30999756    4.80999994    2.80999994
   19.69388771  125.30999756    4.80999994    2.80999994
   19.69694328  125.30999756    4.80999994    2.80999994
   19.70000076  125.30999756    4.80999994    2.80999994
   19.70305634  125.30999756    4.80999994    2.80999994
   19.70611191  125.30999756    4.80999994    2.80999994
   19.70916748  125.30999756    4.80999994    2.80999994
   19.73972321   -1.00000000   -1.00000000   -1.00000000
   19.77638817  135.05099487    4.80999994    2.80999994
   19.77944374  144.99499512    4.80999994    2.80999994
   19.78277779  127.95300293    4.80999994    2.80999994
   19.78610992  147.65699768    4.80999994    2.80999994
   19.78916550  156.21000671    4.80999994    2.80999994
   19.79249954  139.41099548    4.80999994    2.80999994
   19.79666710  139.41099548    4.80999994    2.80999994
   19.80083275  140.54699707    0.19000000    0.23000000
   19.80388832  155.81799316    4.90999985    2.69000006
   19.80749893  134.00500488    4.90999985    2.69000006
   19.80944443  141.17700195    4.90999985    2.69000006
   19.81110954  133.14100647    4.90999985    2.69000006
   19.81444359  152.74400330    4.90999985    2.69000006
   19.81750107  134.20399475    4.90999985    2.69000006
   19.82083511  146.55099487    4.90999985    2.69000006
   19.82416725  137.70199585    4.90999985    2.69000006
   19.82722282  146.14999390    4.90999985    2.69000006
   19.83055687  126.33300018    4.90999985    2.69000006
   19.83388901  140.18499756    4.90999985    2.69000006
   19.83944511  140.18499756    4.90999985    2.67000008
   19.84361267  143.70100403    4.90999985    2.69000006
   19.84666824  151.45500183    4.90999985    2.69000006
   19.85000038  160.04800415    4.90999985    2.69000006
   19.85333443  164.86300659    4.90999985    2.69000006
   19.85639000  146.17599487    4.90999985    2.69000006
   19.85972214  156.62899780    4.90999985    2.69000006
   19.86305618  148.99200439    4.90999985    2.69000006
   19.86611176  153.00000000    4.90999985    2.69000006
   19.86944389  160.03199768    4.90999985    2.69000006
   19.87249947  157.10800171    4.90999985    2.69000006
   19.87583351  148.53700256    4.90999985    2.69000006
   19.87638855  150.30200195    4.90999985    2.69000006
   19.88222313  150.30200195    4.90999985    2.69000006
   19.88638878  142.85499573    4.90999985    2.69000006
   19.88972282  147.66999817    4.90999985    2.69000006
   19.89277840  151.18499756    4.90999985    2.69000006
   19.89611053  147.60499573    4.90999985    2.67000008
   19.89944458  147.60099792    4.90999985    2.69000006
   19.90250015  144.94299316    4.90999985    2.69000006
   19.90583229  135.45700073    4.90999985    2.69000006
   19.90888786  148.02400208    4.90999985    2.69000006
   19.90972137  154.12199402    4.90999985    2.69000006
   19.91277695  138.77799988    4.90999985    2.67000008
   19.91583252  149.62600708    4.90999985    2.69000006
   19.91916656  134.68699646    4.90999985    2.69000006
   19.92499924  134.68699646    4.90999985    2.69000006
   19.92916679  137.20199585    4.90999985    2.67000008
   19.93249893  121.48600006    4.90999985    2.69000006
   19.93583298  134.42799377    4.90999985    2.69000006
   19.93888855  136.46099854    4.90999985    2.67000008
   19.94222069  125.58999634    4.90999985    2.67000008
   19.94305420  150.85899353    4.90999985    2.67000008
   19.94610977  142.56399536    4.90999985    2.67000008
   19.94916534  155.17399597    4.90999985    2.67000008
   19.95250130  143.77400208    4.90999985    2.67000008
   19.95583344  141.86999512    4.90999985    2.69000006
   19.95888901  135.16400146    4.90999985    2.69000006
   19.96222305  170.89199829    4.90999985    2.67000008
   19.96805573  170.89199829    4.90999985    2.67000008
   19.97222328  160.70500183    4.90999985    2.67000008
   19.97527885  149.89799500    4.90999985    2.67000008
   19.97638893  152.02400208    4.90999985    2.67000008
   19.97916794  155.49099731    4.90999985    2.69000006
   19.98222351  147.30999756    4.90999985    2.67000008
   19.98555565  142.08399963    4.90999985    2.67000008
   19.98888969  142.25399780    4.90999985    2.67000008
   19.99194527  155.92900085    4.90999985    2.69000006
   19.99527740  147.39399719    4.90999985    2.67000008
   19.99833298  162.11000061    4.90999985    2.67000008
   20.00166702  152.11500549    4.90999985    2.67000008
   20.00499916  153.35499573    4.90999985    2.66000009
   20.01083374  153.35499573    4.90999985    2.67000008
   20.01499939  150.93200684    4.90999985    2.67000008
   20.01805496  144.82899475    4.90999985    2.66000009
   20.02138901  165.13600159    4.90999985    2.66000009
   20.02472115  137.85800171    4.90999985    2.67000008
   20.02777672  160.67900085    4.90999985    2.67000008
   20.03111076  140.39500427    4.90999985    2.67000008
   20.03444481  150.90699768    4.90999985    2.67000008
   20.03750038  160.32499695    4.90999985    2.67000008
   20.04083252  157.20799255    4.90999985    2.66000009
   20.04305458  141.11900330    4.90999985    2.67000008
   20.04444313  156.18299866    4.90999985    2.67000008
   20.04749870  156.76100159    4.90999985    2.67000008
   20.05360985  156.76100159    4.90999985    2.66000009
   20.05777740  137.35000610    4.90999985    2.67000008
   20.06110954  151.50300598    4.90999985    2.67000008
   20.06416512  146.11000061    4.90999985    2.67000008
   20.06750107  131.69900513    4.90999985    2.67000008
   20.07055664  147.38200378    4.90999985    2.67000008
   20.07389069  159.42500305    4.90999985    2.67000008
   20.07638931  141.50799561    4.90999985    2.67000008
   20.07777786  149.52299500    4.90999985    2.67000008
   20.08083344  143.45500183    4.90999985    2.66000009
   20.08416748  149.50000000    4.90999985    2.66000009
   20.08722305  127.97499847    4.90999985    2.66000009
   20.09055710  156.52600098    4.90999985    2.66000009
   20.09638977  156.52600098    4.90999985    2.67000008
   20.10055542  132.68699646    4.90999985    2.66000009
   20.10388947  134.91600037    4.90999985    2.66000009
   20.10694504  125.44999695    4.90999985    2.66000009
   20.10972214  129.93499756    4.90999985    2.66000009
   20.11083412  138.01699829    4.90999985    2.67000008
   20.11388969  131.05400085    4.90999985    2.66000009
   20.11722183  157.97599792    4.90999985    2.66000009
   20.12027740  116.64099884    4.90999985    2.66000009
   20.12361145  123.84200287    4.90999985    2.66000009
   20.12694550  129.04100037    4.90999985    2.66000009
   20.13000107  118.05799866    4.90999985    2.67000008
   20.13333321  123.83799744    4.90999985    2.66000009
   20.13944435  123.83799744    4.90999985    2.66000009
   20.14333344  115.47000122    4.90999985    2.66000009
   20.14666748  127.02100372    4.90999985    2.66000009
   20.14999962  120.74299622    4.90999985    2.66000009
   20.15305519  123.54100037    4.90999985    2.66000009
   20.15638924  122.35700226    4.90999985    2.66000009
   20.15972137  121.60700226    4.90999985    2.66000009
   20.16277695  125.50599670    4.90999985    2.64000010
   20.16611099  130.88000488    4.90999985    2.67000008
   20.16916656  126.56199646    4.90999985    2.66000009
   20.17249870  127.02300262    4.90999985    2.66000009
   20.17583275  124.47499847    4.90999985    2.66000009
   20.17638779  120.15299988    4.90999985    2.66000009
   20.18222237  120.15299988    4.90999985    2.66000009
   20.18638802  122.50900269    4.90999985    2.66000009
   20.18944359  117.76499939    4.90999985    2.64000010
   20.19277763  120.45600128    4.90999985    2.66000009
   20.19610977  113.94300079    4.90999985    2.66000009
   20.19916534  123.10900116    4.90999985    2.66000009
   20.20250130  128.58900452    4.90999985    2.66000009
   20.20583344  123.30000305    4.90999985    2.66000009
   20.20888901  123.67099762    4.90999985    2.66000009
   20.20972252  118.00700378    4.90999985    2.64000010
   20.21250153  115.80899811    4.90999985    2.64000010
   20.21555710  113.28900146    4.90999985    2.64000010
   20.21888924  121.27200317    4.90999985    2.64000010
   20.22500038  121.27200317    4.90999985    2.64000010
   20.22916794  116.92800140    4.90999985    2.66000009
   20.23250008  118.52799988    4.90999985    2.64000010
   20.23555565  112.84999847    4.90999985    2.64000010
   20.23888969  118.13600159    4.90999985    2.64000010
   20.24222183  116.86599731    4.90999985    2.64000010
   20.24305534  120.36199951    4.90999985    2.64000010
   20.24583435  125.12799835    4.90999985    2.64000010
   20.24888992  114.79100037    4.90999985    2.64000010
   20.25222206  114.65399933    4.90999985    2.64000010
   20.25555611  115.46600342    4.90999985    2.64000010
   20.25861168  118.68199921    4.90999985    2.64000010
   20.26194382  119.62100220    4.90999985    2.64000010
   20.26777840  119.62100220    4.90999985    2.64000010
   20.27194405  120.40100098    4.90999985    2.64000010
   20.27527809  110.08100128    4.90999985    2.64000010
   20.27638817  116.65100098    4.90999985    2.64000010
   20.27888870  113.49299622    4.90999985    2.64000010
   20.28194427  116.21800232    4.90999985    2.64000010
   20.28527641  112.85199738    4.90999985    2.64000010
   20.28861046  119.97200012    4.90999985    2.64000010
   20.29166603  119.11100006    4.90999985    2.64000010
   20.29500008  120.79599762    4.90999985    2.64000010
   20.29805565  117.64600372    4.90999985    2.64000010
   20.30138779  121.05300140    4.90999985    2.64000010
   20.30472183  117.80899811    4.90999985    2.64000010
   20.31083298  117.80899811    4.90999985    2.64000010
   20.31499863  120.95800018    4.90999985    2.61999989
   20.31805611  119.94699860    4.90999985    2.61999989
   20.32139015  126.65200043    4.90999985    2.61999989
   20.32444572  114.78800201    4.90999985    2.61999989
   20.32777786  118.23600006    4.90999985    2.61999989
   20.33111191  118.19599915    4.90999985    2.61999989
   20.33416748  116.52600098    4.90999985    2.61999989
   20.33750153  120.23899841    4.90999985    2.61999989
   20.34083366  126.46099854    4.90999985    2.64000010
   20.34305573  116.83100128    4.90999985    2.64000010
   20.34444427  119.68800354    4.90999985    2.61999989
   20.34749985  120.48500061    4.90999985    2.64000010
   20.35361099  120.48500061    4.90999985    2.61999989
   20.35777855  118.10500336    4.90999985    2.61999989
   20.36083412  113.57700348    4.90999985    2.61999989
   20.36416626  119.46099854    4.90999985    2.61999989
   20.36750031  124.49600220    4.90999985    2.61999989
   20.37055588  120.23100281    4.90999985    2.61999989
   20.37388992  118.09100342    4.90999985    2.61999989
   20.37638855  119.18599701    4.90999985    2.61999989
   20.37750053  119.35199738    4.90999985    2.59999990
   20.38055611  116.22399902    4.90999985    2.61999989
   20.38388824  125.84300232    4.90999985    2.61999989
   20.38722229  121.36399841    4.90999985    2.61999989
   20.39027786  119.94499969    4.90999985    2.61999989
   20.39638901  119.94499969    4.90999985    2.61999989
   20.40055466  122.99400330    4.90999985    2.61999989
   20.40388870  122.41699982    4.90999985    2.61999989
   20.40694427  123.94200134    4.90999985    2.61999989
   20.40972137  115.23600006    4.90999985    2.59999990
   20.41083336  121.61799622    4.90999985    2.61999989
   20.41388893  129.00599670    4.90999985    2.61999989
   20.41722107  120.48000336    4.90999985    2.61999989
   20.42055511  118.21399689    4.90999985    2.61999989
   20.42361069  120.56500244    4.90999985    2.59999990
   20.42694473  127.27300262    4.90999985    2.59999990
   20.43000031  120.93900299    4.90999985    2.61999989
   20.43333244  116.41600037    4.90999985    2.61999989
   20.43916512  116.41600037    4.90999985    2.59999990
   20.44333267  120.46399689    4.90999985    2.59999990
   20.44666672  124.62599945    4.90999985    2.59999990
   20.44972038  117.72399902    4.90999985    2.61999989
   20.45305634  124.76799774    4.90999985    2.57999992
   20.45639038  113.14099884    4.90999985    2.59999990
   20.45944595  113.82399750    4.90999985    2.61999989
   20.46277809  121.35900116    4.90999985    2.59999990
   20.46611214  122.02300262    4.90999985    2.59999990
   20.46916771  119.87000275    4.90999985    2.59999990
   20.47249985  117.94400024    4.90999985    2.59999990
   20.47555542  123.60900116    4.90999985    2.59999990
   20.47638893  126.07299805    4.90999985    2.59999990
   20.48222351  126.07299805    4.90999985    2.59999990
   20.48611069  121.12300110    4.90999985    2.59999990
   20.48944473  118.64199829    4.90999985    2.59999990
   20.49277878  124.20899963    4.90999985    2.59999990
   20.49583435  121.79699707    4.90999985    2.59999990
   20.49916649  122.79100037    4.90999985    2.61999989
   20.50250053  122.77600098    4.90999985    2.59999990
   20.50555611  127.09700012    4.90999985    2.59999990
   20.50888824  121.24600220    4.90999985    2.57999992
   20.50972176  120.60099792    4.90999985    2.57999992
   20.51250076  117.94300079    4.90999985    2.59999990
   20.51555634  115.63600159    4.90999985    2.59999990
   20.51888847  117.93699646    4.90999985    2.59999990
   20.52499962  117.93699646    4.90999985    2.59999990
   20.52916718  118.87400055    4.90999985    2.59999990
   20.53222275  120.98000336    4.90999985    2.59999990
   20.53555489  120.76899719    4.90999985    2.59999990
   20.53888893  129.09899902    4.90999985    2.57999992
   20.54194450  126.07099915    4.90999985    2.59999990
   20.54305458  126.66300201    4.90999985    2.57999992
   20.54555511  118.50199890    4.90999985    2.57999992
   20.54888916  125.03900146    4.90999985    2.59999990
   20.55194283  121.27100372    4.90999985    2.59999990
   20.55527687  116.91000366    4.90999985    2.57999992
   20.55833244  115.77600098    4.90999985    2.57999992
   20.56166649  118.22100067    4.90999985    2.57999992
   20.56777954  118.22100067    4.90999985    2.55999994
   20.57194519  120.57599640    4.90999985    2.57999992
   20.57527924  120.14299774    4.90999985    2.55999994
   20.57638931  125.60800171    4.90999985    2.57999992
   20.57888985  118.26000214    4.90999985    2.57999992
   20.58222389  125.14499664    4.90999985    2.57999992
   20.58527756  125.23799896    4.90999985    2.57999992
   20.58861160  119.44100189    4.90999985    2.57999992
   20.59166718  125.66600037    4.90999985    2.57999992
   20.59500122  130.68099976    4.90999985    2.57999992
   20.59833336  126.13999939    4.90999985    2.57999992
   20.60138893  128.42199707    4.90999985    2.57999992
   20.60472298  120.25000000    4.90999985    2.55999994
   20.61055565  120.25000000    4.90999985    2.57999992
   20.61472321  125.40000153    4.90999985    2.57999992
   20.61805534  124.99099731    4.90999985    2.57999992
   20.62138939  128.14700317    4.90999985    2.55999994
   20.62444496  127.65499878    4.90999985    2.55999994
   20.62777710  126.25900269    4.90999985    2.55999994
   20.63083267  125.95600128    4.90999985    2.57999992
   20.63416672  123.15299988    4.90999985    2.55999994
   20.63750076  124.60299683    4.90999985    2.55999994
   20.64055634  122.50099945    4.90999985    2.55999994
   20.64305496  127.06300354    4.90999985    2.55999994
   20.64416695  116.70600128    4.90999985    2.55999994
   20.64749908  123.39299774    4.90999985    2.53999996
   20.65361023  123.39299774    4.90999985    2.55999994
   20.65749931  129.21899414    4.90999985    2.55999994
   20.66083336  121.14700317    4.90999985    2.55999994
   20.66416550  135.51300049    4.90999985    2.53999996
   20.66722107  121.18499756    4.90999985    2.55999994
   20.67055511  128.33200073    4.90999985    2.53999996
   20.67388916  126.53399658    4.90999985    2.55999994
   20.67638779  128.02000427    4.90999985    2.55999994
   20.67749977  129.27499390    4.90999985    2.55999994
   20.68083191  128.08700562    4.90999985    2.55999994
   20.68388748  118.51999664    4.90999985    2.55999994
   20.68722153  124.38400269    4.90999985    2.53999996
   20.69027710  127.73699951    4.90999985    2.53999996
   20.69638824  127.73699951    4.90999985    2.55999994
   20.70055580  120.95800018    4.90999985    2.53999996
   20.70361137  124.08200073    4.90999985    2.53999996
   20.70694542  124.76899719    4.90999985    2.55999994
   20.70972252  125.44899750    4.90999985    2.55999994
   20.71055603  123.54699707    4.90999985    2.53999996
   20.71389008  126.66000366    4.90999985    2.53999996
   20.71694565  122.99400330    4.90999985    2.55999994
   20.72027779  125.20600128    4.90999985    2.55999994
   20.72333336  126.00599670    4.90999985    2.55999994
   20.72666740  126.45600128    4.90999985    2.53999996
   20.73000145  125.32800293    4.90999985    2.53999996
   20.73305511  120.50399780    4.90999985    2.53999996
   20.73916626  120.50399780    4.90999985    2.53999996
   20.74333382  122.75000000    4.90999985    2.51999998
   20.74666786  125.75800323    4.90999985    2.53999996
   20.74972153  123.96900177    4.90999985    2.53999996
   20.75305557  119.68399811    4.90999985    2.51999998
   20.75611115  121.27500153    4.90999985    2.53999996
   20.75944519  119.49400330    4.90999985    2.53999996
   20.76277733  119.16300201    4.90999985    2.51999998
   20.76583290  122.96700287    4.90999985    2.53999996
   20.76916695  125.23799896    4.90999985    2.53999996
   20.77249908  129.91000366    4.90999985    2.51999998
   20.77555466  127.72899628    4.90999985    2.51999998
   20.77638817  131.05700684    4.90999985    2.53999996
   20.79722214  131.05700684    4.90999985    2.53999996
   20.80111122  175.73899841    4.90999985    2.51999998
   20.80444336  211.89300537    4.90999985    2.51999998
   20.80777740  269.69100952    4.90999985    2.51999998
   20.80972099  294.76599121    4.90999985    2.51999998
   20.81138802  200.99200439    4.90999985    2.51999998
   20.81472206   -1.00000000    4.90999985    2.51999998
   20.81777954   -1.00000000    4.90999985    2.51999998
   20.82111168   -1.00000000    4.90999985    2.51999998
   20.82444572   -1.00000000    4.90999985    2.51999998
   20.82750130   -1.00000000    4.90999985    2.51999998
   20.83083344   -1.00000000    4.90999985    2.51999998
   20.83388901   -1.00000000    4.90999985    2.51999998
   20.84388924   -1.00000000    4.90999985    2.51999998
   20.84722328   -1.00000000    4.90999985    2.51999998
   20.85027885   -1.00000000    4.90999985    2.51999998
   20.85361099   -1.00000000    4.90999985    2.51999998
   20.85694504   -1.00000000    4.90999985    2.51999998
   20.86000061   -1.00000000    4.90999985    2.51999998
   20.86333466   -1.00000000    4.90999985    2.51999998
