    HOUR (UT)   FLARE FACTOR    SKY TESTER    SUN TESTER
   11.85638905   -1.00000000   -1.00000000   -1.00000000
   11.88305569  261.97299194    1.50000000    1.83000004
   11.88611126  238.29200745    1.50000000    1.85000002
   11.88944435  261.85101318    1.50000000    1.83000004
   11.89277744  242.09399414    1.50000000    1.85000002
   11.89583302  229.53300476    1.48000002    1.85000002
   11.89916611  255.51699829    1.48000002    1.85000002
   11.90333271  255.51699829    1.48000002    1.85000002
   11.90749931  235.67999268    1.48000002    1.85000002
   11.91083336  241.65100098    1.46000004    1.86000001
   11.91388893  229.75999451    1.46000004    1.86000001
   11.91611099  224.96299744    1.46000004    1.86000001
   11.91750050  232.66099548    1.46000004    1.86000001
   11.92083359  206.88699341    1.44000006    1.86000001
   11.92388916  263.33599854    1.46000004    1.88000000
   11.92722225  220.30299377    1.44000006    1.88000000
   11.93055630  209.08500671    1.44000006    1.88000000
   11.93361092  213.89399719    1.44000006    1.86000001
   11.93694496  211.64300537    1.44000006    1.88000000
   11.94027805  185.18600464    1.44000006    1.88000000
   11.94611073  185.18600464    1.41999996    1.89999998
   11.95027733  197.05400085    1.39999998    1.89999998
   11.95333290  205.66999817    1.39999998    1.88000000
   11.95666695  205.12199402    1.39999998    1.89999998
   11.96000004  184.30999756    1.39999998    1.89999998
   11.96305561  194.62899780    1.38000000    1.91999996
   11.96638870  202.12600708    1.39999998    1.89999998
   11.96972179  187.53199768    1.38000000    1.91999996
   11.97277737  193.63800049    1.36000001    1.91999996
   11.97611046  203.29800415    1.36000001    1.94000006
   11.97916603  213.13699341    1.36000001    1.94000006
   11.98249912  189.75300598    1.36000001    1.94000006
   11.98305511  232.26699829    1.36000001    1.94000006
   11.98888874  232.26699829    1.36000001    1.96000004
   11.99305534  201.21899414    1.34000003    1.96000004
   11.99638939  196.66400146    1.34000003    1.98000002
   11.99944496  194.55900574    1.34000003    1.96000004
   12.00277805  178.46099854    1.34000003    1.96000004
   12.00611115  172.73199463    1.33000004    1.98000002
   12.00916672  169.06199646    1.33000004    1.96000004
   12.01249981  187.37800598    1.33000004    1.96000004
   12.01555538  198.51699829    1.33000004    1.96000004
   12.01638889  200.25500488    1.33000004    1.96000004
   12.01944447  182.28999329    1.33000004    1.98000002
   12.02250004  186.17500305    1.33000004    1.98000002
   12.02583313  165.66999817    1.30999994    1.98000002
   12.03194427  165.66999817    1.28999996    1.98000002
   12.03583336  158.29299927    1.28999996    2.00000000
   12.03916740  172.25500488    1.28999996    2.00000000
   12.04250050  172.78799438    1.26999998    2.01999998
   12.04555607  165.03399658    1.26999998    2.00000000
   12.04888916  154.22700500    1.25000000    2.00000000
   12.04972267  162.27900696    1.25000000    2.00000000
   12.05249977  167.26100159    1.25000000    2.01999998
   12.05555534  160.86900330    1.25000000    2.01999998
   12.05888939  150.86900330    1.23000002    2.01999998
   12.06222248  177.25799561    1.23000002    2.01999998
   12.06527805  169.06100464    1.23000002    2.01999998
   12.06861115  172.75100708    1.23000002    2.01999998
   12.07472229  172.75100708    1.23000002    2.01999998
   12.07888889  157.18400574    1.21000004    2.01999998
   12.08194447  164.30499268    1.21000004    2.03999996
   12.08305550  155.07299805    1.21000004    2.03999996
   12.08583260  165.36399841    1.21000004    2.03999996
   12.08888817  154.24099731    1.19000006    2.03999996
   12.09222221  163.23199463    1.19000006    2.01999998
   12.09555531  157.55900574    1.16999996    2.03999996
   12.09861088  148.46699524    1.16999996    2.03999996
   12.10194492  161.17399597    1.16999996    2.05999994
   12.10500050  156.44400024    1.16999996    2.05999994
   12.10833359  151.83500671    1.14999998    2.05999994
   12.11166668  146.34199524    1.14999998    2.07999992
   12.11750031  146.34199524    1.14999998    2.07999992
   12.12166691  155.04800415    1.14999998    2.07999992
   12.12472248  137.55200195    1.14999998    2.07999992
   12.12805557  139.93200684    1.13000000    2.07999992
   12.13138866  135.14999390    1.13000000    2.09999990
   12.13444424  133.27200317    1.14999998    2.07999992
   12.13777733  134.38200378    1.14999998    2.09999990
   12.14111137  157.73800659    1.13000000    2.07999992
   12.14416695  135.03500366    1.14999998    2.09999990
   12.14750004  153.70799255    1.13000000    2.09999990
   12.14972210  138.63499451    1.14999998    2.09999990
   12.15111065  136.11900330    1.14999998    2.09999990
   12.15416622  139.33700562    1.13000000    2.09999990
   12.16027737  139.33700562    1.13000000    2.09999990
   12.16444397  132.34800720    1.11000001    2.09999990
   12.16777802  141.63699341    1.11000001    2.11999989
   12.17083359  140.21499634    1.11000001    2.11999989
   12.17416668  140.34300232    1.13000000    2.09999990
   12.17750072  135.80400085    1.11000001    2.11999989
   12.18055630  139.37600708    1.11000001    2.11999989
   12.18305588  126.53700256    1.11000001    2.11999989
   12.18444443  136.58599854    1.11000001    2.13000011
   12.18750000  137.37399292    1.11000001    2.11999989
   12.19083309  136.96699524    1.09000003    2.11999989
   12.19416714  139.75399780    1.09000003    2.11999989
   12.19750023  127.28500366    1.11000001    2.13000011
   12.20333290  127.28500366    1.09000003    2.11999989
   12.20722198  131.10800171    1.07000005    2.13000011
   12.21055508  129.12899780    1.07000005    2.13000011
   12.21388912  127.30599976    1.07000005    2.15000010
   12.21638870  125.15200043    1.05999994    2.13000011
   12.21749973  129.17199707    1.05999994    2.13000011
   12.22083282  123.95300293    1.05999994    2.15000010
   12.22388840  125.40699768    1.05999994    2.15000010
   12.22722149  133.14700317    1.03999996    2.15000010
   12.23027706  121.79100037    1.01999998    2.15000010
   12.23361111  133.13200378    1.01999998    2.17000008
   12.23694515  132.00100708    1.01999998    2.15000010
   12.24000072  123.83399963    1.01999998    2.17000008
   12.24611092  123.83399963    1.01999998    2.17000008
   12.25027752  122.53500366    1.01999998    2.15000010
   12.25333309  129.22399902    1.03999996    2.17000008
   12.25666714  130.68699646    1.03999996    2.17000008
   12.25972176  129.50500488    1.03999996    2.17000008
   12.26305580  129.48199463    1.05999994    2.17000008
   12.26638889  130.67100525    1.03999996    2.17000008
   12.26944447  128.62800598    1.03999996    2.17000008
   12.27305508  133.75100708    1.05999994    2.17000008
   12.27611065  130.58999634    1.03999996    2.17000008
   12.27944374  134.38600159    1.03999996    2.19000006
   12.28249931  128.99699402    1.03999996    2.17000008
   12.28305531  127.33399963    1.03999996    2.17000008
   12.28888893  127.33399963    1.03999996    2.19000006
   12.29305553  131.03500366    1.05999994    2.19000006
   12.29611111  120.68299866    1.03999996    2.19000006
   12.29944515  124.09799957    1.03999996    2.19000006
   12.30277824  115.82800293    1.03999996    2.19000006
   12.30583382  119.53700256    1.03999996    2.19000006
   12.30916691  117.11399841    1.01999998    2.19000006
   12.31250000  125.06999969    1.01999998    2.21000004
   12.31555557  123.73999786    1.00000000    2.19000006
   12.31666660  126.67400360    1.00000000    2.19000006
   12.31916618  119.69200134    1.00000000    2.19000006
   12.32250023  127.83699799    0.98000002    2.21000004
   12.32555580  116.04000092    0.92000002    2.21000004
   12.33166695  116.04000092    0.89999998    2.21000004
   12.33583260  129.86199951    0.88000000    2.23000002
   12.33916664  122.78399658    0.88000000    2.23000002
   12.34222221  130.42399597    0.88000000    2.25000000
   12.34555531  124.35299683    0.86000001    2.25000000
   12.34888840  123.60299683    0.86000001    2.23000002
   12.34972191  125.58000183    0.86000001    2.23000002
   12.35249996  116.98999786    0.86000001    2.23000002
   12.35583401  120.37799835    0.83999997    2.25000000
   12.35888958  118.59700012    0.83999997    2.23000002
   12.36222267  119.85900116    0.81999999    2.25000000
   12.36555576  125.83200073    0.83999997    2.26999998
   12.36861134  127.65699768    0.81999999    2.25000000
   12.37444496  127.65699768    0.81999999    2.25000000
   12.37861156  111.25700378    0.83999997    2.25000000
   12.38194466  118.20800018    0.81999999    2.26999998
   12.38305569  116.43599701    0.81999999    2.26999998
   12.38555527  134.08900452    0.81999999    2.25000000
   12.38888836  110.72799683    0.81999999    2.26999998
   12.39194393  117.00499725    0.81999999    2.26999998
   12.39527798  117.59600067    0.81999999    2.26999998
   12.39861107  112.86599731    0.80000001    2.25000000
   12.40166664  113.27600098    0.81999999    2.25000000
   12.40499973  123.26599884    0.80000001    2.25000000
   12.40805531  120.14900208    0.80000001    2.26999998
   12.41138840  123.20600128    0.80000001    2.26999998
   12.41750050  123.20600128    0.80000001    2.26999998
   12.42166710  124.04799652    0.80000001    2.28999996
   12.42472267  123.80200195    0.80000001    2.26999998
   12.42805576  129.52999878    0.79000002    2.28999996
   12.43111134  122.94699860    0.80000001    2.26999998
   12.43444443  126.73400116    0.80000001    2.26999998
   12.43777752  123.38500214    0.79000002    2.26999998
   12.44083309  131.06300354    0.79000002    2.28999996
   12.44416714  119.16799927    0.79000002    2.28999996
   12.44750023  127.21900177    0.79000002    2.28999996
   12.44972229  118.83799744    0.79000002    2.30999994
   12.45111084  129.18299866    0.79000002    2.28999996
   12.45444393  121.40000153    0.79000002    2.28999996
   12.46027756  121.40000153    0.79000002    2.28999996
   12.46444416  120.73999786    0.79000002    2.30999994
   12.46749973  120.00299835    0.79000002    2.30999994
   12.47083282  125.88700104    0.79000002    2.30999994
   12.47416592  116.93599701    0.79000002    2.30999994
   12.47749996  131.00900269    0.79000002    2.30999994
   12.48055553  116.68900299    0.79000002    2.30999994
   12.48305511  118.12100220    0.76999998    2.30999994
   12.48416710  127.36599731    0.76999998    2.30999994
   12.48750019  124.77899933    0.76999998    2.30999994
   12.49055576  120.66100311    0.76999998    2.30999994
   12.49388885  124.10600281    0.76999998    2.30999994
   12.49722290  113.89700317    0.76999998    2.30999994
   12.50305557  113.89700317    0.75000000    2.30999994
   12.50722218  122.55200195    0.75000000    2.32999992
   12.51055527  128.40100098    0.73000002    2.32999992
   12.51361084  120.39099884    0.73000002    2.32999992
   12.51666641  119.18499756    0.73000002    2.32999992
   12.51722240  122.95099640    0.73000002    2.32999992
   12.52055550  121.50099945    0.70999998    2.32999992
   12.52361107  117.11299896    0.70999998    2.32999992
   12.52694416  119.29799652    0.70999998    2.34999990
   12.53027725  129.13999939    0.70999998    2.34999990
   12.53333378  121.97599792    0.73000002    2.32999992
   12.53666687  119.95800018    0.70999998    2.32999992
   12.54000092  117.86499786    0.70999998    2.32999992
   12.54583359  117.86499786    0.70999998    2.34999990
   12.55000019  111.93299866    0.70999998    2.34999990
   12.55333328  112.86599731    0.70999998    2.32999992
   12.55666733  111.64900208    0.69000000    2.34999990
   12.55972195  109.82700348    0.69000000    2.34999990
   12.56305599  109.90599823    0.69000000    2.34999990
   12.56638908  122.39399719    0.69000000    2.34999990
   12.56944466  118.67800140    0.69000000    2.34999990
   12.57277775  112.96199799    0.69000000    2.34999990
   12.57611084  102.79699707    0.67000002    2.34999990
   12.57916641  115.97100067    0.67000002    2.36999989
   12.58249950  116.03299713    0.67000002    2.36999989
   12.58333302  113.33100128    0.67000002    2.36999989
   12.58888817  113.33100128    0.67000002    2.36999989
   12.59305477  114.12200165    0.67000002    2.36999989
   12.59611034  124.77300262    0.67000002    2.36999989
   12.59944439  117.56800079    0.67000002    2.36999989
   12.60277843  115.62599945    0.69000000    2.36999989
   12.60583401  113.92199707    0.67000002    2.36999989
   12.60916710  121.37799835    0.67000002    2.36999989
   12.61222267  104.41500092    0.67000002    2.36999989
   12.61555576  112.28900146    0.67000002    2.39000010
   12.61666679  110.68699646    0.67000002    2.39000010
   12.61916637  107.86299896    0.64999998    2.36999989
   12.62250042  103.83599854    0.67000002    2.39000010
   12.62583351  114.12699890    0.67000002    2.36999989
   12.63166714  114.12699890    0.67000002    2.36999989
   12.63583279  108.27500153    0.67000002    2.39000010
   12.63888836  101.73500061    0.67000002    2.36999989
   12.64222240   96.97689819    0.67000002    2.36999989
   12.64555550  111.87799835    0.67000002    2.39000010
   12.64861107  115.60700226    0.67000002    2.36999989
   12.64999962  105.64600372    0.67000002    2.36999989
   12.65222168  109.80599976    0.69000000    2.39000010
   12.65555477  103.29599762    0.69000000    2.39000010
   12.65861034  115.70200348    0.69000000    2.39000010
   12.66194439  115.70500183    0.69000000    2.40000010
   12.66527748  112.69300079    0.69000000    2.39000010
   12.66833401  120.05999756    0.69000000    2.39000010
   12.67444515  120.05999756    0.69000000    2.39000010
   12.67861176  118.73799896    0.67000002    2.39000010
   12.68194485  105.94200134    0.67000002    2.39000010
   12.68333340  106.77899933    0.67000002    2.39000010
   12.68555546  108.91899872    0.64999998    2.40000010
   12.68888855  104.83499908    0.63000000    2.40000010
   12.69194412  111.08999634    0.63000000    2.40000010
   12.69527817  104.27100372    0.63000000    2.40000010
   12.69861126  108.01499939    0.63000000    2.40000010
   12.70166683  104.50099945    0.63000000    2.40000010
   12.70499992  102.83300018    0.61000001    2.40000010
   12.70833302  107.67299652    0.61000001    2.40000010
   12.71138859  115.03600311    0.61000001    2.42000008
   12.71722221  115.03600311    0.61000001    2.40000010
   12.72138882  112.08999634    0.61000001    2.40000010
   12.72472191  108.87999725    0.61000001    2.40000010
   12.72805500  103.82099915    0.61000001    2.42000008
   12.73138809  106.95800018    0.61000001    2.42000008
   12.73444462  108.25499725    0.61000001    2.42000008
   12.73777771  106.66600037    0.61000001    2.42000008
   12.74111176  109.74099731    0.58999997    2.42000008
   12.74416733  106.38400269    0.61000001    2.40000010
   12.74750042  109.12699890    0.61000001    2.42000008
   12.75000000  105.08799744    0.61000001    2.42000008
   12.75111103  102.20999908    0.58999997    2.42000008
   12.75444412  101.63600159    0.58999997    2.44000006
   12.76027775  101.63600159    0.58999997    2.42000008
   12.76444435  102.70899963    0.58999997    2.44000006
   12.76749992  104.08300018    0.58999997    2.44000006
   12.77083302  105.76100159    0.58999997    2.44000006
   12.77388859   95.73909760    0.58999997    2.42000008
   12.77722168  101.60199738    0.58999997    2.44000006
   12.78055573   99.06900024    0.58999997    2.42000008
   12.78333378  101.54699707    0.58999997    2.42000008
   12.78416729   98.53690338    0.58999997    2.44000006
   12.78750038  102.90499878    0.58999997    2.44000006
   12.79083347  100.57499695    0.58999997    2.44000006
   12.79388905   93.33830261    0.58999997    2.44000006
   12.79722309   98.17579651    0.58999997    2.44000006
   12.80305576   98.17579651    0.58999997    2.42000008
   12.80722237   92.82969666    0.58999997    2.44000006
   12.81027794   99.73989868    0.56999999    2.46000004
   12.81361103   98.18029785    0.58999997    2.44000006
   12.81666660  108.47299957    0.58999997    2.44000006
   12.81722260   97.13539886    0.58999997    2.46000004
   12.82055569  101.82800293    0.58999997    2.46000004
   12.82361126  101.86599731    0.58999997    2.46000004
   12.82694435  100.68499756    0.56999999    2.44000006
   12.83027744  102.51000214    0.56999999    2.44000006
   12.83333302  102.29100037    0.56999999    2.46000004
   12.83666611   98.27200317    0.56999999    2.46000004
   12.84000015   99.21450043    0.56999999    2.44000006
   12.84583282   99.21450043    0.55000001    2.46000004
   12.85000038   97.49199677    0.55000001    2.46000004
   12.85333347   96.35559845    0.52999997    2.46000004
   12.85638905  102.67900085    0.52999997    2.46000004
   12.85972214  100.58300018    0.52999997    2.46000004
   12.86305618   98.90139771    0.52999997    2.48000002
   12.86611176  104.84300232    0.52999997    2.46000004
   12.86944485   98.29239655    0.51999998    2.48000002
   12.87250042   96.80500031    0.51999998    2.46000004
   12.87583351   97.94550323    0.51999998    2.46000004
   12.87916660  102.50299835    0.51999998    2.48000002
   12.88222218  100.16300201    0.52999997    2.48000002
   12.88333321  100.11399841    0.51999998    2.46000004
   12.90388870  100.11399841    0.52999997    2.46000004
   12.90805531  127.87899780    0.51999998    2.48000002
   12.91138840  122.88099670    0.51999998    2.48000002
   12.91444397  116.14700317    0.51999998    2.48000002
   12.91666698  116.93800354    0.51999998    2.48000002
   12.91805553  116.74800110    0.51999998    2.48000002
   12.92138958  117.59899902    0.52999997    2.48000002
   12.92472267  122.31400299    0.51999998    2.50000000
   12.92777824  117.23799896    0.52999997    2.48000002
   12.93111134  116.97699738    0.51999998    2.48000002
   12.93416691  118.91400146    0.51999998    2.48000002
   12.93750000  120.04100037    0.52999997    2.48000002
   12.94083309  114.55300140    0.51999998    2.48000002
   12.94666672  114.55300140    0.51999998    2.48000002
   12.95083332  116.20400238    0.51999998    2.48000002
   12.95416641  122.30200195    0.51999998    2.48000002
   12.95722198  120.43099976    0.51999998    2.48000002
   12.96055508  116.73899841    0.51999998    2.48000002
   12.96388912  117.70999908    0.51999998    2.50000000
   12.96694374  119.43000031    0.50000000    2.50000000
   12.97027779  120.27100372    0.50000000    2.50000000
   12.97333336  123.60199738    0.51999998    2.48000002
   12.97666645  125.30899811    0.51999998    2.50000000
   12.97999954  124.11299896    0.50000000    2.50000000
   12.98305511  121.03800201    0.51999998    2.50000000
   12.98361111  119.61000061    0.51999998    2.48000002
   12.98944473  119.61000061    0.50000000    2.50000000
   12.99361134  111.96199799    0.51999998    2.51999998
   12.99694443  115.52999878    0.50000000    2.50000000
   13.00027752  107.88600159    0.50000000    2.50000000
   13.00333309  112.52300262    0.50000000    2.50000000
   13.00666714  106.98200226    0.50000000    2.50000000
   13.00972176  117.85600281    0.50000000    2.51999998
   13.01305580  110.51499939    0.50000000    2.50000000
   13.01638889  115.40000153    0.50000000    2.50000000
   13.01694393  118.18199921    0.50000000    2.50000000
   13.01999950  111.78399658    0.50000000    2.50000000
   13.02333355  118.53900146    0.50000000    2.50000000
   13.02638817  117.19100189    0.50000000    2.50000000
   13.03249931  117.19100189    0.50000000    2.51999998
   13.03638935  113.89399719    0.47999999    2.51999998
   13.03972244  115.01200104    0.47999999    2.51999998
   13.04305553  111.65699768    0.50000000    2.51999998
   13.04611111  113.80999756    0.50000000    2.51999998
   13.04944515  106.40599823    0.50000000    2.51999998
   13.05027771  108.47599792    0.50000000    2.51999998
   13.05305576   99.95880127    0.47999999    2.51999998
   13.05638885  110.20400238    0.47999999    2.51999998
   13.05944443  112.42800140    0.50000000    2.51999998
   13.06277752  111.89499664    0.47999999    2.51999998
   13.06583309  109.40899658    0.47999999    2.51999998
   13.06916618  108.81900024    0.47999999    2.51999998
   13.07527733  108.81900024    0.47999999    2.53999996
   13.07944393  109.36900330    0.47999999    2.51999998
   13.08249950  110.77500153    0.47999999    2.51999998
   13.08361053  112.30400085    0.50000000    2.53999996
   13.08611107  116.00399780    0.47999999    2.51999998
   13.08944416  113.44400024    0.47999999    2.51999998
   13.09249973  111.12599945    0.47999999    2.53999996
   13.09583282  113.05100250    0.47999999    2.51999998
   13.09888840  112.87100220    0.47999999    2.51999998
   13.10222244  111.34300232    0.47999999    2.53999996
   13.10555553  120.05000305    0.47999999    2.53999996
   13.10861111  109.09400177    0.50000000    2.53999996
   13.11194515  113.48999786    0.47999999    2.53999996
   13.11805534  113.48999786    0.47999999    2.53999996
   13.12222195  113.63899994    0.47999999    2.53999996
   13.12555599  106.91000366    0.47999999    2.51999998
   13.12861156  118.27200317    0.47999999    2.53999996
   13.13194466  120.85299683    0.47999999    2.53999996
   13.13527775  104.28800201    0.47999999    2.53999996
   13.13833332  111.35399628    0.47999999    2.53999996
   13.14166641  111.26999664    0.47999999    2.53999996
   13.14472198  109.61399841    0.47999999    2.53999996
   13.14805508  115.49199677    0.47999999    2.53999996
   13.15027714  111.33100128    0.47999999    2.53999996
   13.15166664  111.95700073    0.47999999    2.53999996
   13.15499973  104.32700348    0.47999999    2.53999996
   13.16083336  104.32700348    0.47999999    2.53999996
   13.16499996  108.26499939    0.47999999    2.55999994
   13.16833401  101.40000153    0.47999999    2.55999994
   13.17138958  105.13300323    0.47999999    2.55999994
   13.17472267  109.57399750    0.46000001    2.55999994
   13.17805576  102.90699768    0.46000001    2.53999996
   13.18111134  116.08699799    0.46000001    2.55999994
   13.18361092  117.38200378    0.46000001    2.55999994
   13.18472195  111.44999695    0.46000001    2.55999994
   13.18805599  107.76000214    0.46000001    2.55999994
   13.19111156  119.29900360    0.46000001    2.53999996
   13.19444466  110.67700195    0.46000001    2.53999996
   13.19750023  105.37100220    0.46000001    2.55999994
   13.20388889  105.37100220    0.46000001    2.55999994
   13.20805550  102.88200378    0.46000001    2.55999994
   13.21111107  101.63400269    0.46000001    2.53999996
   13.21444416  113.76000214    0.46000001    2.55999994
   13.21694374  108.40299988    0.46000001    2.55999994
   13.21805477  110.91999817    0.46000001    2.55999994
   13.22138882  106.28199768    0.46000001    2.55999994
   13.22444439  104.47699738    0.46000001    2.57999992
   13.22777748   97.76149750    0.46000001    2.55999994
   13.23111057  102.03299713    0.46000001    2.57999992
   13.23416710  106.15100098    0.46000001    2.57999992
   13.23750019   99.91940308    0.46000001    2.55999994
   13.24083328   99.35240173    0.46000001    2.55999994
   13.24666691   99.35240173    0.46000001    2.57999992
   13.25083351  106.19499969    0.46000001    2.55999994
   13.25388908  107.56099701    0.46000001    2.55999994
   13.25722218  104.14399719    0.46000001    2.57999992
   13.26055527   96.86859894    0.46000001    2.55999994
   13.26361084  108.53800201    0.46000001    2.55999994
   13.26694393  105.95800018    0.46000001    2.57999992
   13.27027798   97.37180328    0.47999999    2.57999992
   13.27333355  102.07399750    0.46000001    2.57999992
   13.27666664  106.95899963    0.46000001    2.57999992
   13.27972221   96.18900299    0.46000001    2.57999992
   13.28305531  104.79100037    0.46000001    2.57999992
   13.28361130  102.75599670    0.44000000    2.57999992
   13.28944492  102.75599670    0.46000001    2.57999992
   13.29361153  103.70999908    0.46000001    2.57999992
   13.29694462  105.59899902    0.46000001    2.57999992
   13.30027771  103.22799683    0.46000001    2.57999992
   13.30333328  107.21900177    0.46000001    2.57999992
   13.30666733  108.29599762    0.44000000    2.57999992
   13.31000042   98.34249878    0.46000001    2.57999992
   13.31305599  102.35500336    0.44000000    2.57999992
   13.31638908  102.76699829    0.44000000    2.57999992
   13.31694412  100.36799622    0.44000000    2.57999992
   13.31999969  108.50299835    0.44000000    2.57999992
   13.32333374  106.30999756    0.44000000    2.57999992
   13.32638836  102.66799927    0.44000000    2.57999992
   13.33222198  102.66799927    0.44000000    2.57999992
   13.33638859  100.33599854    0.44000000    2.59999990
   13.33972168  104.32199860    0.44000000    2.59999990
   13.34277725  103.26200104    0.44000000    2.57999992
   13.34611034  107.72100067    0.44000000    2.59999990
   13.34944439  107.86699677    0.44000000    2.57999992
   13.35027790   97.66940308    0.44000000    2.57999992
   13.35305595  106.07499695    0.44000000    2.57999992
   13.35638905  106.34200287    0.44000000    2.57999992
   13.35944462  103.80699921    0.44000000    2.57999992
   13.36277771  101.84100342    0.44000000    2.57999992
   13.36611176  116.47299957    0.44000000    2.57999992
   13.36916637  108.33999634    0.44000000    2.59999990
   13.37527752  108.33999634    0.44000000    2.59999990
   13.37916660  101.13700104    0.44000000    2.59999990
   13.38249969  102.03399658    0.44000000    2.59999990
   13.38361073  107.72200012    0.44000000    2.59999990
   13.38611126  105.89900208    0.44000000    2.59999990
   13.38944435  108.76000214    0.44000000    2.59999990
   13.39249992  105.15100098    0.44000000    2.57999992
   13.39583302  103.24500275    0.44000000    2.59999990
   13.39916611  101.49500275    0.44000000    2.59999990
   13.40222168  102.80599976    0.44000000    2.59999990
   13.40555477  103.19400024    0.44000000    2.59999990
   13.40861034  100.23400116    0.44000000    2.59999990
   13.41194439   99.92019653    0.44000000    2.59999990
   13.41805553   99.92019653    0.44000000    2.59999990
   13.42222214  101.24199677    0.44000000    2.59999990
   13.42527771   98.39849854    0.44000000    2.59999990
   13.42861176  105.41999817    0.44000000    2.59999990
   13.43194485  106.10299683    0.44000000    2.59999990
   13.43527794  102.50599670    0.44000000    2.59999990
   13.43833351  106.17099762    0.44000000    2.59999990
   13.44166660  105.13899994    0.44000000    2.59999990
   13.44499969   96.02149963    0.44000000    2.59999990
   13.44805527   96.33070374    0.44000000    2.61999989
   13.45055580   99.76049805    0.44000000    2.59999990
   13.45166683   96.15989685    0.44000000    2.59999990
   13.45499992   98.91529846    0.44000000    2.59999990
   13.46083355   98.91529846    0.46000001    2.61999989
   13.46500015  101.97200012    0.46000001    2.61999989
   13.46833324   94.55139923    0.44000000    2.59999990
   13.47138882   99.50039673    0.44000000    2.61999989
   13.47472191   98.69409943    0.46000001    2.61999989
   13.47777748   92.29270172    0.46000001    2.61999989
   13.48111057   97.27200317    0.44000000    2.61999989
   13.48388958  104.40899658    0.46000001    2.61999989
   13.48472214   94.03220367    0.44000000    2.59999990
   13.48805618  106.16600037    0.44000000    2.61999989
   13.49138927  110.30699921    0.44000000    2.61999989
   13.49444485  104.53600311    0.44000000    2.59999990
   13.49777794  100.58100128    0.41999999    2.61999989
   13.50361156  100.58100128    0.41999999    2.61999989
   13.50777817   93.52429962    0.41999999    2.61999989
   13.51111126   99.45790100    0.41999999    2.61999989
   13.51416683  101.90799713    0.41999999    2.61999989
   13.51722240   99.35410309    0.41999999    2.61999989
   13.51777744   93.33480072    0.41999999    2.61999989
   13.52111053  105.60600281    0.41999999    2.61999989
   13.52416611  103.64099884    0.41999999    2.64000010
   13.52750015   99.70300293    0.41999999    2.64000010
   13.53083324   95.69390106    0.44000000    2.61999989
   13.53388977   97.17009735    0.44000000    2.61999989
   13.53722286   98.64869690    0.44000000    2.61999989
   13.54055595   96.63480377    0.41999999    2.61999989
   13.54666710   96.63480377    0.44000000    2.59999990
   13.55083370   97.23519897    0.41999999    2.64000010
   13.55388927  100.66600037    0.41999999    2.61999989
   13.55722237   96.38600159    0.41999999    2.61999989
   13.56027794   93.71029663    0.40000001    2.61999989
   13.56361103   98.61370087    0.40000001    2.61999989
   13.56694412   94.38240051    0.40000001    2.64000010
   13.56999969  101.88600159    0.40000001    2.61999989
   13.57333374   97.24299622    0.40000001    2.61999989
   13.57666683   97.78559875    0.40000001    2.61999989
   13.57972240  101.85800171    0.40000001    2.61999989
   13.58305550   99.56430054    0.40000001    2.64000010
   13.58388901  101.98400116    0.40000001    2.64000010
   13.58944416  101.98400116    0.40000001    2.61999989
   13.59361076  101.84700012    0.40000001    2.64000010
   13.59666634  107.91200256    0.40000001    2.64000010
   13.60000038   97.61859894    0.40000001    2.64000010
   13.60333347   98.19570160    0.40000001    2.61999989
   13.60638905  101.26699829    0.40000001    2.61999989
   13.60972214  106.02100372    0.40000001    2.64000010
   13.61277771  100.72499847    0.40000001    2.64000010
   13.61611176   98.15219879    0.40000001    2.64000010
   13.61722279  102.91000366    0.40000001    2.64000010
   13.61972237   96.43109894    0.40000001    2.64000010
   13.62305546   99.01889801    0.40000001    2.64000010
   13.62611103  102.78800201    0.40000001    2.64000010
   13.63222218  102.78800201    0.40000001    2.64000010
   13.63638878   99.07499695    0.40000001    2.64000010
   13.63972187   99.65760040    0.40000001    2.64000010
   13.64277744   92.30570221    0.38000000    2.66000009
   13.64611053   99.06729889    0.40000001    2.64000010
   13.64916611   92.41139984    0.38000000    2.66000009
   13.65055561   90.91529846    0.40000001    2.64000010
   13.65277767  101.72899628    0.40000001    2.64000010
   13.65611076   93.59190369    0.40000001    2.64000010
   13.65944386   97.65190125    0.40000001    2.64000010
   13.66249943   98.50229645    0.40000001    2.64000010
   13.66583252   95.43650055    0.38000000    2.64000010
   13.66888905  100.21600342    0.38000000    2.66000009
   13.67500019  100.21600342    0.38000000    2.64000010
   13.67916679   94.13420105    0.38000000    2.64000010
   13.68249989   98.04219818    0.40000001    2.66000009
   13.68388939   94.94380188    0.38000000    2.64000010
   13.68611145   91.59750366    0.40000001    2.64000010
   13.68944454   87.79799652    0.38000000    2.64000010
   13.69250011   93.86889648    0.38000000    2.64000010
   13.69583321   97.75589752    0.38000000    2.66000009
   13.69916630  110.08000183    0.38000000    2.66000009
   13.70222187   94.91899872    0.38000000    2.66000009
   13.70555496   99.95719910    0.38000000    2.64000010
   13.70888901   97.69779968    0.38000000    2.66000009
   13.71194458   97.97480011    0.38000000    2.64000010
   13.71805477   97.97480011    0.38000000    2.66000009
   13.72194386  100.21099854    0.38000000    2.64000010
   13.72527695   91.21949768    0.38000000    2.64000010
   13.72861099   96.36840057    0.38000000    2.64000010
   13.73166656   96.25509644    0.38000000    2.66000009
   13.73500061   93.45629883    0.38000000    2.66000009
   13.73833370   90.06710052    0.38000000    2.66000009
   13.74138927   95.39890289    0.38000000    2.66000009
   13.74472237   98.54489899    0.38000000    2.66000009
   13.74805546   90.65609741    0.38000000    2.66000009
   13.75055599   96.06050110    0.38000000    2.66000009
   13.75138855   95.46720123    0.38000000    2.66000009
   13.75472260  101.31700134    0.38000000    2.66000009
   13.76083374  101.31700134    0.38000000    2.66000009
   13.76500034   95.69200134    0.38000000    2.66000009
   13.76805496  103.98600006    0.36000001    2.66000009
   13.77138901  100.30599976    0.38000000    2.66000009
   13.77472210  104.92099762    0.36000001    2.66000009
   13.77777767   93.34200287    0.38000000    2.66000009
   13.78111076   92.20559692    0.38000000    2.66000009
   13.78388977  102.82099915    0.36000001    2.67000008
   13.78472233   94.44270325    0.36000001    2.67000008
   13.78805637   98.65730286    0.36000001    2.66000009
   13.79138947   95.24970245    0.36000001    2.66000009
   13.79444504   94.99800110    0.38000000    2.66000009
   13.79777813   92.08380127    0.36000001    2.66000009
   13.80361176   92.08380127    0.36000001    2.66000009
   13.80777836   99.71109772    0.36000001    2.66000009
   13.81111145   93.58679962    0.38000000    2.66000009
   13.81416702   93.55850220    0.36000001    2.67000008
   13.81722260   94.63580322    0.36000001    2.67000008
   13.81777763   98.21299744    0.36000001    2.67000008
   13.82111073   94.08950043    0.36000001    2.67000008
   13.82444477   86.81729889    0.36000001    2.67000008
   13.82750034   96.13320160    0.38000000    2.66000009
   13.83083344   97.99009705    0.38000000    2.67000008
   13.83388901   95.32579803    0.36000001    2.66000009
   13.83722210   90.85739899    0.36000001    2.67000008
   13.84055519   93.42379761    0.36000001    2.66000009
   13.84638882   93.42379761    0.36000001    2.67000008
   13.85055637  102.52899933    0.36000001    2.67000008
   13.85388947   98.38200378    0.36000001    2.67000008
   13.85694504   91.45330048    0.36000001    2.67000008
   13.86027813   94.88159943    0.34000000    2.67000008
   13.86361122   87.82990265    0.34000000    2.67000008
   13.86666679   95.32009888    0.36000001    2.67000008
   13.86999989   97.73500061    0.34000000    2.66000009
   13.87333393   98.38610077    0.34000000    2.66000009
   13.87638855  100.55699921    0.36000001    2.67000008
   13.87972260   93.42230225    0.36000001    2.67000008
   13.88277817   90.70200348    0.36000001    2.66000009
   13.88388920   86.18379974    0.36000001    2.66000009
   13.88944435   86.18379974    0.34000000    2.67000008
   13.89333344   92.01339722    0.36000001    2.67000008
   13.89666653   92.31189728    0.34000000    2.67000008
   13.89999962   89.94640350    0.34000000    2.67000008
   13.91750050   92.17980194    0.36000001    2.67000008
   13.92000008  101.57800293    0.34000000    2.66000009
   13.92305565   87.19779968    0.34000000    2.67000008
   13.92638874   94.35859680    0.36000001    2.67000008
   13.93222237   94.35859680    0.34000000    2.67000008
   13.93638897   98.45339966    0.34000000    2.67000008
   13.93972206   97.23400116    0.36000001    2.67000008
   13.94305515   96.28250122    0.34000000    2.69000006
   13.94611073   91.59470367    0.34000000    2.69000006
   13.94944477   93.49430084    0.34000000    2.67000008
   13.95083332   92.34470367    0.34000000    2.69000006
   13.95305538   93.65299988    0.36000001    2.67000008
   13.95638847   95.10569763    0.34000000    2.67000008
   13.95972157   94.21389771    0.34000000    2.67000008
   13.96277714   94.84220123    0.34000000    2.67000008
   13.96611118   96.47019958    0.34000000    2.69000006
   13.96944427   90.13980103    0.34000000    2.67000008
   13.97527695   90.13980103    0.36000001    2.69000006
   13.97944355   85.74079895    0.36000001    2.69000006
   13.98249912   98.25250244    0.34000000    2.69000006
   13.98416710   99.89089966    0.34000000    2.69000006
   13.98611164   96.33159637    0.34000000    2.69000006
   13.98944473   96.24069977    0.34000000    2.69000006
   13.99277782   96.33699799    0.34000000    2.67000008
   13.99583340   95.04199982    0.34000000    2.67000008
   13.99916649   95.96910095    0.34000000    2.69000006
   14.00249958   97.48899841    0.34000000    2.67000008
   14.00555515   94.48280334    0.31999999    2.69000006
   14.00888920   94.74120331    0.31999999    2.69000006
   14.01222229   99.63549805    0.31999999    2.67000008
   14.01805496   99.63549805    0.34000000    2.69000006
   14.02222157   92.11990356    0.34000000    2.69000006
   14.02527714   97.77770233    0.31999999    2.69000006
   14.02861118   99.67379761    0.34000000    2.67000008
   14.03194427   91.69730377    0.34000000    2.69000006
   14.03500080   97.28410339    0.34000000    2.69000006
   14.03833389   95.04759979    0.36000001    2.69000006
   14.04166698   83.73400116    0.36000001    2.69000006
   14.04472256   95.64820099    0.36000001    2.69000006
   14.04805565   88.34059906    0.38000000    2.69000006
   14.05083370   92.83830261    0.38000000    2.69000006
   14.05166721   93.34300232    0.38000000    2.69000006
   14.05500031   96.45200348    0.38000000    2.69000006
   14.06083393   96.45200348    0.38000000    2.69000006
   14.06527805   96.40699768    0.38000000    2.69000006
   14.06833363   97.82630157    0.38000000    2.69000006
   14.07166672   89.13130188    0.38000000    2.69000006
   14.07499981   96.35209656    0.38000000    2.67000008
   14.07805538   96.98870087    0.38000000    2.69000006
   14.08138847  104.61699677    0.38000000    2.69000006
   14.08416653   93.63590240    0.38000000    2.69000006
   14.08527756  101.15899658    0.38000000    2.69000006
   14.08833313   90.82489777    0.38000000    2.69000006
   14.09166622  101.80699921    0.38000000    2.69000006
   14.09499931   97.76429749    0.36000001    2.69000006
   14.09805489   97.73429871    0.36000001    2.69000006
   14.10361195   97.73429871    0.36000001    2.71000004
   14.10777855   98.87819672    0.34000000    2.71000004
   14.11111164   91.66510010    0.36000001    2.69000006
   14.11444473  103.37500000    0.34000000    2.71000004
   14.11750031   95.44979858    0.34000000    2.71000004
   14.11777782   97.35469818    0.34000000    2.69000006
   14.12111092   95.05370331    0.34000000    2.69000006
   14.12444496   84.89469910    0.34000000    2.69000006
   14.12750053  102.58699799    0.36000001    2.71000004
   14.13083363   97.33399963    0.34000000    2.71000004
   14.13416672   99.96630096    0.34000000    2.69000006
   14.13722229   97.75160217    0.36000001    2.69000006
   14.14055538   94.29309845    0.34000000    2.69000006
   14.14666653   94.29309845    0.36000001    2.71000004
   14.15083313   88.63069916    0.38000000    2.69000006
   14.15111065   90.13549805    0.38000000    2.69000006
   14.15444374   94.84429932    0.38000000    2.69000006
   14.15777779   94.10299683    0.36000001    2.69000006
   14.16083336   98.92320251    0.36000001    2.69000006
   14.16416645  104.79100037    0.38000000    2.69000006
   14.16750050   99.56690216    0.36000001    2.69000006
   14.17055607  100.21700287    0.38000000    2.71000004
   14.17388916  102.35199738    0.38000000    2.69000006
   14.17722225   93.56040192    0.36000001    2.69000006
   14.18027782  105.29000092    0.36000001    2.71000004
   14.18361092   96.68109894    0.36000001    2.69000006
   14.18416691   95.69850159    0.38000000    2.69000006
   14.18944454   95.69850159    0.38000000    2.69000006
   14.19361115   95.09899902    0.38000000    2.69000006
   14.19666672  108.22100067    0.38000000    2.69000006
   14.19999981  106.61399841    0.38000000    2.69000006
   14.20333290  101.81500244    0.40000001    2.69000006
   14.20638847   98.48349762    0.40000001    2.71000004
   14.20972157  103.30000305    0.40000001    2.71000004
   14.21305561  100.78500366    0.40000001    2.71000004
   14.21611118   94.23380280    0.40000001    2.71000004
   14.21749973   95.50910187    0.40000001    2.69000006
   14.21972179   95.72109985    0.41999999    2.71000004
   14.22305489  101.33200073    0.41999999    2.69000006
   14.22638798   98.57540131    0.41999999    2.71000004
   14.23222160   98.57540131    0.41999999    2.69000006
   14.23638916   95.31790161    0.44000000    2.71000004
   14.23972225  101.25900269    0.44000000    2.71000004
   14.24277782  103.97499847    0.44000000    2.71000004
   14.24611092   98.18849945    0.44000000    2.71000004
   14.24944496   94.76719666    0.44000000    2.71000004
   14.25083351   98.82939911    0.44000000    2.69000006
   14.25305557   94.01589966    0.44000000    2.71000004
   14.25611115   92.00749969    0.44000000    2.71000004
   14.25944424   98.61849976    0.44000000    2.71000004
   14.26249981   98.88569641    0.44000000    2.71000004
   14.26583290  101.29599762    0.44000000    2.69000006
   14.26916599   95.22850037    0.44000000    2.71000004
   14.27499962   95.22850037    0.44000000    2.71000004
   14.27916622  100.08899689    0.41999999    2.71000004
   14.28249931   98.41429901    0.38000000    2.71000004
   14.28416729   99.16850281    0.38000000    2.71000004
   14.28611183   93.63439941    0.38000000    2.71000004
   14.28916740   99.70069885    0.38000000    2.71000004
   14.29250050   92.24490356    0.38000000    2.71000004
   14.29555607   92.59880066    0.36000001    2.71000004
   14.29888916   89.16190338    0.36000001    2.71000004
   14.30222225  101.88700104    0.31999999    2.71000004
   14.30527782   94.17960358    0.31999999    2.71000004
   14.30861092   95.05750275    0.31999999    2.71000004
   14.31194496   91.66439819    0.31999999    2.71000004
   14.31805515   91.66439819    0.31999999    2.71000004
   14.32194424   95.49079895    0.31999999    2.71000004
   14.32527733  100.89099884    0.31999999    2.71000004
   14.32861137   99.14530182    0.31999999    2.71000004
   14.33166695  100.68399811    0.34000000    2.73000002
   14.33500004  100.30999756    0.34000000    2.73000002
   14.33833313   89.60289764    0.34000000    2.73000002
   14.34138870   96.81549835    0.31999999    2.71000004
   14.34472179   98.35569763    0.31999999    2.71000004
   14.34805489   90.68299866    0.31999999    2.71000004
   14.35083389   98.83339691    0.31999999    2.71000004
   14.35166740   94.94249725    0.31999999    2.71000004
   14.35472298   89.97499847    0.31999999    2.71000004
   14.36083412   89.97499847    0.34000000    2.71000004
   14.36500072   97.73799896    0.34000000    2.71000004
   14.36833382   96.34590149    0.34000000    2.73000002
   14.37138939   98.34649658    0.34000000    2.71000004
   14.37472248   95.86470032    0.34000000    2.71000004
   14.37777805   93.01429749    0.31999999    2.73000002
   14.38111115   96.69249725    0.31999999    2.71000004
   14.38416672   86.18280029    0.31999999    2.73000002
   14.38500023   89.91139984    0.31999999    2.71000004
   14.38805580  100.73200226    0.34000000    2.73000002
   14.39138889  101.96900177    0.34000000    2.71000004
   14.39444447   97.13839722    0.34000000    2.71000004
   14.39777756   98.95919800    0.36000001    2.71000004
   14.40361118   98.95919800    0.34000000    2.71000004
   14.40777779   98.88230133    0.34000000    2.73000002
   14.41111088  106.98999786    0.34000000    2.71000004
   14.41416645   96.22859955    0.34000000    2.73000002
   14.41750050   89.66729736    0.34000000    2.73000002
   14.41805553   98.45200348    0.34000000    2.73000002
   14.42111111  105.20999908    0.31999999    2.73000002
   14.42444515   98.02189636    0.31999999    2.73000002
   14.42750072  101.00599670    0.31999999    2.71000004
   14.43083382   89.01589966    0.31999999    2.73000002
   14.43416691   90.90950012    0.31999999    2.73000002
   14.43722248   89.51390076    0.31999999    2.73000002
   14.44055557   99.11239624    0.31999999    2.73000002
   14.44638920   99.11239624    0.34000000    2.73000002
   14.45055580   94.77239990    0.34000000    2.73000002
   14.45111084   96.07990265    0.34000000    2.73000002
   14.45444393   89.06500244    0.34000000    2.71000004
   14.45777798   90.60870361    0.34000000    2.71000004
   14.46083355   94.56400299    0.34000000    2.71000004
   14.46416664   94.96170044    0.34000000    2.73000002
   14.46722221   99.39510345    0.34000000    2.73000002
   14.47055531  101.02300262    0.34000000    2.73000002
   14.47388840   94.40799713    0.34000000    2.73000002
   14.47694397   92.90129852    0.34000000    2.71000004
   14.48027706   97.58370209    0.34000000    2.73000002
   14.48361111   93.85729980    0.34000000    2.75000000
   14.48444462   96.71299744    0.34000000    2.75000000
   14.48944473   96.71299744    0.34000000    2.75000000
   14.49333382  106.31300354    0.31999999    2.73000002
   14.49666691   97.01650238    0.31999999    2.73000002
   14.50000000   94.12129974    0.31999999    2.73000002
   14.50305557   93.90640259    0.31999999    2.71000004
   14.50638866  106.49500275    0.31999999    2.73000002
   14.50972176   96.10780334    0.31999999    2.73000002
   14.51277733   98.81580353    0.31999999    2.73000002
   14.51611137   91.99050140    0.31999999    2.73000002
   14.51777744   91.86289978    0.31999999    2.73000002
   14.51972198   95.77410126    0.31999999    2.73000002
   14.52305508   92.85530090    0.30000001    2.73000002
   14.52611065   91.77040100    0.31999999    2.73000002
   14.53222179   91.77040100    0.31999999    2.73000002
   14.53638935   92.74890137    0.30000001    2.73000002
   14.53944492   90.01999664    0.31999999    2.75000000
   14.54277802   94.45520020    0.31999999    2.75000000
   14.54611111   85.99539948    0.31999999    2.73000002
   14.54916668   90.35530090    0.31999999    2.73000002
   14.55111122   94.99700165    0.31999999    2.75000000
   14.55305576   98.69059753    0.34000000    2.75000000
   14.55638885   87.36569977    0.34000000    2.75000000
   14.55944443  100.78399658    0.34000000    2.73000002
   14.56277752   88.52980042    0.34000000    2.73000002
   14.56583309   90.67880249    0.34000000    2.75000000
   14.56916618   97.92980194    0.34000000    2.73000002
   14.57499981   97.92980194    0.34000000    2.71000004
   14.57916641   89.46320343    0.34000000    2.73000002
   14.58249950   87.45179749    0.31999999    2.73000002
   14.58444405   95.57039642    0.31999999    2.73000002
   14.58611107   86.20120239    0.31999999    2.75000000
   14.58944416   93.46050262    0.34000000    2.75000000
   14.59249973   90.89679718    0.31999999    2.73000002
   14.59583282   92.20619965    0.31999999    2.75000000
   14.59888840   97.15370178    0.31999999    2.75000000
   14.60222244   89.66410065    0.31999999    2.73000002
   14.60555553   84.18000031    0.31999999    2.73000002
   14.60861111   91.57610321    0.31999999    2.73000002
   14.61194515   92.36479950    0.31999999    2.73000002
   14.61777782   92.36479950    0.31999999    2.73000002
   14.62194443   91.14340210    0.31999999    2.73000002
   14.62527752   94.99410248    0.31999999    2.73000002
   14.62833309   98.14520264    0.31999999    2.75000000
   14.63166714   90.26110077    0.31999999    2.73000002
   14.63500023   84.08110046    0.31999999    2.75000000
   14.63805580   97.46009827    0.31999999    2.73000002
   14.64138889   94.82859802    0.31999999    2.75000000
   14.64472198   89.61170197    0.31999999    2.75000000
   14.64777756   90.63339996    0.31999999    2.75000000
   14.65111065   94.63179779    0.31999999    2.75000000
   14.65277767   87.73079681    0.30000001    2.73000002
   14.65472221  100.27100372    0.30000001    2.75000000
   14.66083336  100.27100372    0.31999999    2.75000000
   14.66472149   86.19400024    0.31999999    2.75000000
   14.66805553   87.66960144    0.31999999    2.75000000
   14.67138958   86.77349854    0.31999999    2.73000002
   14.67444515   94.77780151    0.31999999    2.75000000
   14.67777824   88.17639923    0.31999999    2.73000002
   14.68111134   92.95050049    0.31999999    2.75000000
   14.68416691   91.95670319    0.31999999    2.75000000
   14.68638897   85.59570313    0.31999999    2.75000000
   14.68777752   88.32350159    0.31999999    2.75000000
   14.69111156   89.37680054    0.31999999    2.75000000
   14.69416714   86.19699860    0.31999999    2.75000000
   14.69750023   88.87719727    0.31999999    2.75000000
   14.70361137   88.87719727    0.31999999    2.73000002
   14.70777798   84.24600220    0.31999999    2.75000000
   14.71083355   91.01830292    0.34000000    2.73000002
   14.71416664   89.91280365    0.34000000    2.75000000
   14.71749973   92.80519867    0.38000000    2.75000000
   14.71972179   91.73600006    0.38000000    2.75000000
   14.72111034   94.95680237    0.38000000    2.75000000
   14.72444439   95.67099762    0.36000001    2.75000000
   14.72749996   95.84459686    0.36000001    2.73000002
   14.73083305   89.70379639    0.38000000    2.75000000
   14.73388958   88.73539734    0.38000000    2.75000000
   14.73722267   86.55259705    0.36000001    2.75000000
   14.74055576   84.25150299    0.36000001    2.75000000
   14.74638939   84.25150299    0.36000001    2.75000000
   14.75055599   86.11180115    0.36000001    2.75000000
   14.75305557   93.00710297    0.36000001    2.75000000
   14.75416660   85.68409729    0.36000001    2.75000000
   14.75749969   91.31549835    0.36000001    2.75000000
   14.76055527   82.41629791    0.38000000    2.75000000
   14.76388931   88.92310333    0.38000000    2.75000000
   14.76694393   85.83599854    0.38000000    2.75000000
   14.77027798   88.72329712    0.40000001    2.73000002
   14.77361107   94.94529724    0.40000001    2.75000000
   14.77666664   96.99349976    0.41999999    2.73000002
   14.77999973   77.84980011    0.41999999    2.73000002
   14.78333378   89.07499695    0.41999999    2.75000000
   14.78916740   89.07499695    0.44000000    2.73000002
   14.79333401   90.67870331    0.44000000    2.75000000
   14.79666710   80.91480255    0.44000000    2.73000002
   14.79972267   86.95510101    0.44000000    2.73000002
   14.80305576   92.58779907    0.44000000    2.75000000
   14.80638885   81.70379639    0.44000000    2.75000000
   14.80944443   90.70709991    0.44000000    2.73000002
   14.81277752   79.54409790    0.44000000    2.73000002
   14.81611156   87.31320190    0.38000000    2.75000000
   14.81916618   84.82029724    0.36000001    2.75000000
   14.82027817   97.58509827    0.38000000    2.75000000
   14.82277775   89.90350342    0.38000000    2.73000002
   14.82611084   85.77839661    0.36000001    2.73000002
   14.83222198   85.77839661    0.36000001    2.75000000
   14.83638859   74.73249817    0.36000001    2.75000000
   14.83972168   88.70590210    0.36000001    2.73000002
   14.84277725   96.77500153    0.34000000    2.75000000
   14.84611034   90.30010223    0.36000001    2.75000000
   14.84944439   80.10050201    0.34000000    2.75000000
   14.85249996   89.18630219    0.34000000    2.76999998
   14.85361195   83.44120026    0.34000000    2.76999998
   14.85611153   93.49019623    0.31999999    2.75000000
   14.85944462   83.93090057    0.31999999    2.75000000
   14.86250019   92.61710358    0.31999999    2.76999998
   14.86583328   91.43489838    0.30000001    2.75000000
   14.86916637   83.42659760    0.30000001    2.75000000
   14.87500000   83.42659760    0.31999999    2.75000000
   14.87916660   75.86589813    0.31999999    2.76999998
   14.88222218   86.69110107    0.31999999    2.75000000
   14.88555527   83.22080231    0.34000000    2.75000000
   14.88694477   87.03410339    0.34000000    2.75000000
   14.88916683   86.34259796    0.34000000    2.75000000
   14.89249992   81.87590027    0.34000000    2.75000000
   14.89555550   84.37920380    0.34000000    2.75000000
   14.89888859   80.41560364    0.34000000    2.75000000
   14.90194416   77.85299683    0.36000001    2.75000000
   14.90527725   83.21430206    0.36000001    2.75000000
   14.90861034   83.95570374    0.36000001    2.75000000
   14.91166592   86.76599884    0.34000000    2.76999998
   14.91777802   86.76599884    0.34000000    2.75000000
   14.93611145   90.24530029    0.31999999    2.76999998
   14.93944454   92.41210175    0.28000000    2.75000000
   14.94250011   84.65940094    0.28000000    2.75000000
   14.94583321   88.65619659    0.28000000    2.76999998
   14.94916630   89.42929840    0.28000000    2.76999998
   14.95222187   90.95790100    0.28000000    2.75000000
   14.95555496   88.34600067    0.28000000    2.75000000
   14.96083355   88.34600067    0.28000000    2.76999998
   14.96500015   83.57050323    0.28000000    2.75000000
   14.96833324   79.27590179    0.28000000    2.76999998
   14.96916580   88.23960114    0.28000000    2.76999998
   14.97194386   84.42649841    0.28000000    2.75000000
   14.97499943   85.66819763    0.28000000    2.78999996
   14.97833252   84.26290131    0.28000000    2.75000000
   14.98166656   86.82140350    0.28000000    2.75000000
   14.98472214   92.37190247    0.30000001    2.76999998
   14.98805618   78.15589905    0.28000000    2.76999998
   14.99138927   85.82309723    0.28000000    2.76999998
   14.99444485   84.50209808    0.28000000    2.78999996
   14.99777794   84.12599945    0.28000000    2.78999996
   15.00361156   84.12599945    0.30000001    2.76999998
   15.00777817   82.92710114    0.30000001    2.76999998
   15.01111126   86.83640289    0.30000001    2.76999998
   15.01444435   82.73809814    0.30000001    2.76999998
   15.01749992   76.63169861    0.30000001    2.76999998
   15.02083302   86.49250031    0.30000001    2.75000000
   15.12222195   -1.00000000   -1.00000000   -1.00000000
   15.21666622   -1.00000000   -1.00000000   -1.00000000
   15.33444405   -1.00000000   -1.00000000   -1.00000000
   15.43305588   -1.00000000   -1.00000000   -1.00000000
   15.46249962   82.63040161    0.31999999    2.78999996
   15.46583271   80.50009918    0.31999999    2.76999998
   15.46916580   76.36190033    0.31999999    2.76999998
   15.47222137   83.73040009    0.31999999    2.76999998
   15.47555542   88.27330017    0.34000000    2.78999996
   15.47888851   80.49420166    0.34000000    2.76999998
   15.48305511   80.49420166    0.34000000    2.76999998
   15.48694515   78.19609833    0.34000000    2.78999996
   15.49027824   81.63240051    0.34000000    2.78999996
   15.49361134   86.55059814    0.36000001    2.78999996
   15.49583340   77.97810364    0.36000001    2.78999996
   15.49722290   79.81379700    0.36000001    2.76999998
   15.50055599   81.35050201    0.36000001    2.76999998
   15.50361156   88.64569855    0.38000000    2.78999996
   15.50694466   86.27159882    0.38000000    2.78999996
   15.51027775   77.98699951    0.38000000    2.76999998
   15.51333332   75.54440308    0.40000001    2.76999998
   15.51666641   79.46810150    0.38000000    2.78999996
   15.51999950   74.89640045    0.38000000    2.78999996
   15.52583313   74.89640045    0.38000000    2.76999998
   15.52999973   84.97180176    0.38000000    2.78999996
   15.53305531   82.87699890    0.40000001    2.76999998
   15.53638935   79.21099854    0.38000000    2.78999996
   15.53972244   83.83399963    0.38000000    2.76999998
   15.54277802   81.00430298    0.38000000    2.75000000
   15.54611111   76.93129730    0.38000000    2.76999998
   15.54916668   73.47409821    0.38000000    2.78999996
   15.55249977   73.36270142    0.38000000    2.78999996
   15.55583382   79.16680145    0.36000001    2.78999996
   15.55888939   77.88619995    0.38000000    2.78999996
   15.56222248   76.26770020    0.36000001    2.76999998
   15.56277752   77.86859894    0.36000001    2.76999998
   15.56861115   77.86859894    0.36000001    2.78999996
   15.57277775   75.48449707    0.36000001    2.78999996
   15.57583332   78.59349823    0.36000001    2.78999996
   15.57916641   80.24849701    0.38000000    2.76999998
   15.58249950   76.48059845    0.38000000    2.78999996
   15.58555508   86.37770081    0.38000000    2.78999996
   15.58888817   81.93099976    0.38000000    2.78999996
   15.59222221   83.65219879    0.38000000    2.78999996
   15.59527779   77.87339783    0.38000000    2.78999996
   15.59611034   78.68509674    0.40000001    2.76999998
   15.59916592   77.83139801    0.40000001    2.78999996
   15.60222244   79.71630096    0.40000001    2.78999996
   15.60555553   76.78109741    0.38000000    2.78999996
   15.61138916   76.78109741    0.40000001    2.76999998
   15.61555576   75.20390320    0.40000001    2.80999994
   15.61888885   80.23410034    0.38000000    2.76999998
   15.62194443   84.35469818    0.38000000    2.76999998
   15.62527752   77.11740112    0.38000000    2.78999996
   15.62861156   73.18190002    0.40000001    2.76999998
   15.62944412   82.92539978    0.40000001    2.76999998
   15.63222218   78.86450195    0.40000001    2.76999998
   15.63527775   81.26429749    0.40000001    2.76999998
   15.63861084   81.17710114    0.40000001    2.80999994
   15.64194393   78.46720123    0.40000001    2.78999996
   15.64499950   78.46289825    0.40000001    2.78999996
   15.64833355   78.15019989    0.40000001    2.78999996
   15.65444374   78.15019989    0.36000001    2.78999996
   15.65833282   84.34839630    0.38000000    2.78999996
   15.66166592   80.17120361    0.36000001    2.78999996
   15.66277695   75.89389801    0.36000001    2.76999998
   15.66527748   80.10119629    0.36000001    2.76999998
   15.66833401   78.50640106    0.36000001    2.76999998
   15.67166710   76.31890106    0.36000001    2.78999996
   15.67500019   73.04969788    0.36000001    2.78999996
   15.67805576   74.50820160    0.36000001    2.78999996
   15.68138885   72.02539825    0.36000001    2.76999998
   15.68472195   85.85050201    0.36000001    2.78999996
   15.68777752   81.33039856    0.38000000    2.78999996
   15.69111156   69.11710358    0.36000001    2.78999996
   15.69722271   69.11710358    0.36000001    2.78999996
   15.70138836   71.35690308    0.36000001    2.76999998
   15.70444393   75.89309692    0.36000001    2.78999996
   15.70777798   71.76200104    0.36000001    2.78999996
   15.71111107   69.38760376    0.36000001    2.78999996
   15.71416664   71.71170044    0.36000001    2.78999996
   15.71749973   74.99500275    0.36000001    2.78999996
   15.72055531   67.27980042    0.36000001    2.76999998
   15.72388840   70.06369781    0.38000000    2.78999996
   15.72722149   77.49459839    0.36000001    2.78999996
   15.72944355   76.26989746    0.36000001    2.78999996
   15.73083305   75.17060089    0.36000001    2.78999996
   15.73388958   77.98889923    0.36000001    2.76999998
   15.74000072   77.98889923    0.36000001    2.78999996
   15.74416733   76.84140015    0.38000000    2.78999996
   15.74750042   78.29319763    0.36000001    2.78999996
   15.75055599   71.86270142    0.38000000    2.78999996
   15.75388908   71.01770020    0.36000001    2.78999996
   15.75694466   81.82830048    0.36000001    2.78999996
   15.76027775   69.87480164    0.36000001    2.78999996
   15.76277733   69.14489746    0.36000001    2.78999996
   15.76388931   67.28679657    0.38000000    2.78999996
   15.76694393   76.08709717    0.38000000    2.78999996
   15.77027798   74.48059845    0.36000001    2.78999996
   15.77361107   70.79679871    0.36000001    2.78999996
   15.77666664   69.71910095    0.36000001    2.78999996
   15.78277779   69.71910095    0.36000001    2.78999996
   15.78694534   70.30650330    0.36000001    2.78999996
   15.79027843   67.55310059    0.36000001    2.78999996
   15.79361153   69.28639984    0.36000001    2.78999996
   15.79611111   66.72450256    0.36000001    2.78999996
   15.79722309   74.00710297    0.36000001    2.78999996
   15.80027771   70.77960205    0.36000001    2.76999998
   15.80361176   71.11550140    0.36000001    2.78999996
   15.80694485   73.71839905    0.38000000    2.78999996
   15.81027794   73.58020020    0.34000000    2.78999996
   15.81333351   75.60079956    0.36000001    2.78999996
   15.81666660   69.11900330    0.34000000    2.78999996
   15.81972218   76.77909851    0.36000001    2.78999996
   15.82583332   76.77909851    0.36000001    2.78999996
   15.82972240   76.43789673    0.34000000    2.78999996
   15.83305550   70.12349701    0.36000001    2.78999996
   15.83638859   68.43309784    0.36000001    2.78999996
   15.83944416   72.98359680    0.36000001    2.80999994
   15.84277725   69.84310150    0.36000001    2.76999998
   15.84611034   73.71170044    0.36000001    2.78999996
   15.84916592   72.96710205    0.34000000    2.78999996
   15.85249996   74.23470306    0.36000001    2.78999996
   15.85555553   72.36340332    0.34000000    2.76999998
   15.85888958   67.85420227    0.36000001    2.78999996
   15.86222267   75.83830261    0.36000001    2.80999994
   15.86277771   72.25219727    0.36000001    2.80999994
   15.86861134   72.25219727    0.34000000    2.78999996
   15.87277794   75.41239929    0.36000001    2.78999996
   15.87583351   67.47000122    0.34000000    2.78999996
   15.87916660   77.24720001    0.34000000    2.76999998
   15.88249969   72.49810028    0.34000000    2.76999998
   15.88555527   73.41159821    0.34000000    2.78999996
   15.88888836   82.18470001    0.34000000    2.78999996
   15.89194393   71.51020050    0.38000000    2.78999996
   15.89527798   76.18049622    0.38000000    2.78999996
   15.89611053   74.53459930    0.36000001    2.78999996
   15.89888859   77.73760223    0.36000001    2.78999996
   15.90194416   73.12159729    0.38000000    2.78999996
   15.90527725   71.00060272    0.38000000    2.78999996
   15.91138840   71.00060272    0.38000000    2.78999996
   15.91555500   73.92060089    0.40000001    2.78999996
   15.91861153   77.14240265    0.38000000    2.78999996
   15.92194462   73.11830139    0.38000000    2.80999994
   15.92527771   72.73619843    0.38000000    2.78999996
   15.92833328   78.09880066    0.40000001    2.78999996
   15.92944431   71.64900208    0.38000000    2.78999996
   15.93222237   76.56040192    0.40000001    2.78999996
   15.93527794   76.91269684    0.40000001    2.78999996
   15.93861103   75.71269989    0.40000001    2.76999998
   15.94194412   71.83409882    0.40000001    2.78999996
   15.94499969   74.46330261    0.40000001    2.78999996
   15.94833374   72.25350189    0.41999999    2.78999996
   15.95416641   72.25350189    0.44000000    2.78999996
   15.95833302   81.16699982    0.44000000    2.78999996
   15.96166611   72.87359619    0.46000001    2.78999996
   15.96277714   66.00319672    0.46000001    2.78999996
   15.96527767   73.15910339    0.46000001    2.78999996
   15.96833324   76.36009979    0.44000000    2.78999996
   15.97166634   67.70400238    0.44000000    2.78999996
   15.97499943   69.89009857    0.41999999    2.78999996
   15.97805500   68.72769928    0.41999999    2.78999996
   15.98138809   76.46430206    0.44000000    2.78999996
   15.98472214   70.49700165    0.44000000    2.78999996
   15.98777771   69.26480103    0.44000000    2.78999996
   15.99111176   68.24739838    0.36000001    2.78999996
   15.99694443   68.24739838    0.38000000    2.78999996
   16.00111198   70.40950012    0.40000001    2.78999996
   16.00444412   73.92600250    0.40000001    2.78999996
   16.00777817   68.71510315    0.40000001    2.78999996
   16.01083374   66.99040222    0.41999999    2.78999996
   16.01416588   69.28949738    0.41999999    2.78999996
   16.01749992   74.73970032    0.41999999    2.78999996
   16.02055550   67.45520020    0.38000000    2.80999994
   16.02388954   78.88439941    0.38000000    2.78999996
   16.02694511   71.82939911    0.40000001    2.76999998
   16.02944374   71.06749725    0.40000001    2.78999996
   16.03083229   73.50229645    0.40000001    2.78999996
   16.03416634   68.29699707    0.40000001    2.78999996
   16.03999901   68.29699707    0.41999999    2.78999996
   16.04416656   67.55159760    0.41999999    2.78999996
   16.04722214   69.51930237    0.41999999    2.80999994
   16.05055428   68.77300262    0.41999999    2.78999996
   16.05388832   67.02380371    0.40000001    2.80999994
   16.05694389   69.57319641    0.40000001    2.80999994
   16.06027794   71.26490021    0.40000001    2.80999994
   16.06277657   69.50679779    0.40000001    2.80999994
   16.06388855   69.91449738    0.40000001    2.80999994
   16.06694603   72.27739716    0.40000001    2.78999996
   16.07027817   67.52570343    0.47999999    2.78999996
   16.07361221   70.89700317    0.51999998    2.78999996
   16.07666779   72.33439636    0.51999998    2.80999994
   16.08277893   72.33439636    0.50000000    2.80999994
   16.08694458   72.27110291    0.50000000    2.78999996
   16.09027863   70.26020050    0.51999998    2.80999994
   16.09333420   68.81230164    0.51999998    2.80999994
   16.09611130   67.48950195    0.46000001    2.78999996
   16.09694481   70.79340363    0.46000001    2.78999996
   16.10027885   74.40910339    0.47999999    2.78999996
   16.10333443   67.30130005    0.47999999    2.78999996
   16.10666656   68.04019928    0.47999999    2.80999994
   16.10972214   67.18769836    0.47999999    2.80999994
   16.11305618   71.68769836    0.50000000    2.78999996
   16.11638832   69.90979767    0.50000000    2.78999996
   16.11944389   73.15869904    0.50000000    2.78999996
   16.12555504   73.15869904    0.51999998    2.78999996
   16.12972260   67.98519897    0.51999998    2.78999996
   16.13305473   70.04830170    0.51999998    2.78999996
   16.13611031   69.15329742    0.50000000    2.78999996
   16.13944435   69.90200043    0.47999999    2.78999996
   16.14277840   71.33059692    0.41999999    2.78999996
   16.14583397   68.68170166    0.41999999    2.80999994
   16.14916611   69.24099731    0.40000001    2.80999994
   16.15222168   67.63569641    0.38000000    2.78999996
   16.15555573   68.37079620    0.38000000    2.78999996
   16.15888786   70.28060150    0.38000000    2.78999996
   16.16194344   67.36199951    0.38000000    2.80999994
   16.16277695   69.33719635    0.38000000    2.80999994
   16.16833305   69.33719635    0.38000000    2.78999996
   16.17249870   71.56839752    0.38000000    2.78999996
   16.17583275   70.08209991    0.38000000    2.78999996
   16.17916679   68.92089844    0.38000000    2.82999992
   16.18222237   67.45140076    0.38000000    2.82999992
   16.18555450   72.43450165    0.38000000    2.78999996
   16.18888855   72.01740265    0.38000000    2.78999996
   16.19194412   71.15989685    0.36000001    2.78999996
   16.19527626   73.16149902    0.36000001    2.78999996
   16.19610977   69.63929749    0.36000001    2.80999994
   16.19888878   70.37940216    0.36000001    2.80999994
   16.20222282   71.97370148    0.38000000    2.78999996
   16.20527840   67.70510101    0.36000001    2.78999996
   16.21138954   67.70510101    0.36000001    2.78999996
   16.21527863   68.30789948    0.36000001    2.80999994
   16.21861076   67.02359772    0.36000001    2.78999996
   16.22194481   67.26740265    0.34000000    2.80999994
   16.22500038   69.05100250    0.34000000    2.78999996
   16.22833443   70.58979797    0.34000000    2.78999996
   16.22944450   73.53170013    0.34000000    2.78999996
   16.23194504   68.25800323    0.34000000    2.80999994
   16.23527718   70.47609711    0.34000000    2.78999996
   16.23833275   68.74980164    0.34000000    2.78999996
   16.24166679   68.75689697    0.34000000    2.80999994
   16.24472237   71.08599854    0.31999999    2.80999994
   16.24805641   68.38110352    0.31999999    2.80999994
   16.25416756   68.38110352    0.31999999    2.80999994
   16.25833321   69.62449646    0.31999999    2.78999996
   16.26138878   68.79669952    0.31999999    2.78999996
   16.26277733   70.25830078    0.31999999    2.78999996
   16.26527786   68.63880157    0.31999999    2.78999996
   16.26861000   70.91369629    0.31999999    2.80999994
   16.27166557   69.20210266    0.31999999    2.78999996
   16.27499962   70.58129883    0.31999999    2.80999994
   16.27805519   69.33039856    0.31999999    2.78999996
   16.28138924   70.80220032    0.31999999    2.80999994
   16.28472137   72.24690247    0.31999999    2.80999994
   16.28777695   68.74349976    0.34000000    2.78999996
   16.29111099   69.77269745    0.34000000    2.78999996
   16.29694366   69.77269745    0.31999999    2.80999994
   16.30111122   70.78780365    0.31999999    2.80999994
   16.30444336   68.37220001    0.31999999    2.78999996
   16.30749893   69.86100006    0.34000000    2.78999996
   16.31083298   66.92340088    0.36000001    2.80999994
   16.31416512   70.04850006    0.34000000    2.82999992
   16.31722260   68.37640381    0.41999999    2.80999994
   16.32055664   69.10710144    0.41999999    2.80999994
   16.32361221   70.55760193    0.50000000    2.78999996
   16.32694626   66.90550232    0.51999998    2.78999996
   16.32944489   68.25969696    0.52999997    2.78999996
   16.33055687   69.81400299    0.52999997    2.78999996
   16.33388901   68.45330048    0.52999997    2.78999996
   16.33972359   68.45330048    0.58999997    2.78999996
   16.34388924   68.69709778    0.56999999    2.80999994
   16.34722328   69.93949890    0.55000001    2.78999996
   16.35055542   68.79540253    0.55000001    2.78999996
   16.35361099   68.39540100    0.56999999    2.78999996
   16.35694504   69.59889984    0.56999999    2.78999996
   16.36000061   69.73020172    0.55000001    2.78999996
   16.36277771   73.76390076    0.44000000    2.78999996
   16.36388969   68.25839996    0.44000000    2.78999996
   16.36722183   68.95099640    0.41999999    2.78999996
   16.37027740   68.00980377    0.40000001    2.80999994
   16.37361145   69.88480377    0.40000001    2.80999994
   16.37666702   71.63510132    0.38000000    2.80999994
   16.38277817   71.63510132    0.38000000    2.78999996
   16.38666725   67.27760315    0.38000000    2.80999994
   16.38999939   74.46179962    0.36000001    2.80999994
   16.39333344   70.55740356    0.36000001    2.78999996
   16.39611053   69.64119720    0.38000000    2.80999994
   16.39694405   70.73880005    0.36000001    2.80999994
   16.40027809   67.86049652    0.36000001    2.80999994
   16.40333366   67.74369812    0.36000001    2.80999994
   16.40666580   69.76660156    0.36000001    2.78999996
   16.40999985   69.19200134    0.38000000    2.78999996
   16.41305542   68.43370056    0.38000000    2.80999994
   16.41638756   69.54350281    0.38000000    2.80999994
   16.41944313   69.19229889    0.38000000    2.80999994
   16.42555428   69.19229889    0.40000001    2.78999996
   16.42972183   69.17130280    0.41999999    2.78999996
   16.43277740   67.50520325    0.40000001    2.78999996
   16.43610954   68.73709869    0.40000001    2.78999996
   16.43944359   67.52980042    0.38000000    2.78999996
   16.44249916   67.76629639    0.41999999    2.78999996
   16.44583321   67.77660370    0.40000001    2.78999996
   16.44888878   69.65419769    0.40000001    2.78999996
   16.45222282   71.44709778    0.38000000    2.80999994
   16.45555687   70.78520203    0.38000000    2.78999996
   16.45861244   68.51059723    0.38000000    2.80999994
   16.46194458   73.40419769    0.38000000    2.80999994
   16.46277809   68.38860321    0.38000000    2.80999994
   16.48361206   68.38860321    0.34000000    2.80999994
   16.48777771   95.58419800    0.34000000    2.80999994
   16.49111176   97.14610291    0.34000000    2.78999996
   16.49416733  110.69899750    0.34000000    2.78999996
   16.49611092   98.15920258    0.34000000    2.78999996
   16.49777794  100.24400330    0.31999999    2.80999994
   16.50111198   91.58670044    0.31999999    2.80999994
   16.50416756   93.03790283    0.36000001    2.80999994
   16.50749969   91.07839966    0.36000001    2.78999996
   16.51055527   93.10510254    0.34000000    2.80999994
   16.51388931  100.66600037    0.36000001    2.80999994
   16.51722145   93.60500336    0.36000001    2.78999996
   16.52027702  110.72399902    0.38000000    2.80999994
   16.52638817  110.72399902    0.36000001    2.78999996
   16.53055573  102.48500061    0.36000001    2.78999996
   16.53361130  104.06099701    0.36000001    2.82999992
   16.53694344   95.64649963    0.36000001    2.80999994
   16.54027748   95.51740265    0.36000001    2.78999996
   16.54333305   96.36080170    0.36000001    2.78999996
   16.54666710   93.38069916    0.36000001    2.80999994
   16.54972076   95.96189880    0.38000000    2.80999994
   16.55305481   99.63269806    0.36000001    2.78999996
   16.55638885  102.95999908    0.36000001    2.78999996
   16.55944443   93.13459778    0.38000000    2.80999994
   16.56277657   95.09210205    0.38000000    2.78999996
   16.56333351   87.63130188    0.38000000    2.78999996
   16.56916809   87.63130188    0.38000000    2.78999996
   16.57333374   91.34089661    0.40000001    2.78999996
   16.57666779   95.10630035    0.40000001    2.80999994
   16.57972336  100.31999969    0.40000001    2.80999994
   16.58305550   89.13990021    0.40000001    2.78999996
   16.58638954   92.78890228    0.41999999    2.78999996
   16.58944511   99.46279907    0.41999999    2.78999996
   16.59277916  101.18699646    0.41999999    2.78999996
   16.59583473   92.73419952    0.41999999    2.80999994
   16.59666824   98.03579712    0.41999999    2.80999994
   16.59972191   92.22679901    0.41999999    2.78999996
   16.60277748   91.61199951    0.44000000    2.80999994
   16.60611153   97.42530060    0.44000000    2.80999994
   16.61194420   97.42530060    0.41999999    2.78999996
   16.61611176   95.32869720    0.41999999    2.80999994
   16.61944389   83.94830322    0.41999999    2.78999996
   16.62249947   95.89679718    0.44000000    2.78999996
   16.62583351   94.33999634    0.41999999    2.78999996
   16.62916756   95.51450348    0.41999999    2.80999994
   16.63000107   99.41870117    0.41999999    2.78999996
   16.63277817   93.14109802    0.44000000    2.78999996
   16.63583374   99.43800354    0.41999999    2.78999996
   16.63916588   90.62889862    0.41999999    2.78999996
   16.64222145  107.37400055    0.41999999    2.78999996
   16.64555550   96.35179901    0.41999999    2.78999996
   16.64888954   96.41989899    0.41999999    2.78999996
   16.65499878   96.41989899    0.41999999    2.78999996
   16.65916634   94.66179657    0.41999999    2.78999996
   16.66222191   97.25009918    0.41999999    2.78999996
   16.66333389   98.42549896    0.41999999    2.78999996
   16.66611099   95.47029877    0.41999999    2.78999996
   16.66916656   99.04959869    0.41999999    2.80999994
   16.67249870  102.06300354    0.41999999    2.78999996
   16.67583275   99.93550110    0.44000000    2.78999996
   16.67888832  106.13700104    0.41999999    2.78999996
   16.68222237  101.39299774    0.41999999    2.80999994
   16.68527603   93.69609833    0.41999999    2.80999994
   16.68861008   92.83630371    0.41999999    2.78999996
   16.69194412  100.00700378    0.44000000    2.78999996
   16.69777679  100.00700378    0.44000000    2.80999994
   16.70194435   92.83110046    0.44000000    2.80999994
   16.70499992   96.80100250    0.41999999    2.80999994
   16.70833397   94.88659668    0.44000000    2.78999996
   16.71166801   96.03659821    0.41999999    2.78999996
   16.71472359   95.93789673    0.41999999    2.80999994
   16.71805573   91.35279846    0.41999999    2.80999994
   16.72138977   95.70359802    0.41999999    2.80999994
   16.72444534  100.12899780    0.40000001    2.78999996
   16.72777748   98.17060089    0.40000001    2.78999996
   16.73000145  102.80699921    0.40000001    2.78999996
   16.73139000   92.45290375    0.40000001    2.78999996
   16.73444557   98.48829651    0.41999999    2.80999994
   16.74055672   98.48829651    0.40000001    2.78999996
   16.74472237   93.84230042    0.40000001    2.80999994
   16.74805641   90.22149658    0.41999999    2.80999994
   16.75111198   92.67459869    0.40000001    2.80999994
   16.75444412   94.91079712    0.40000001    2.80999994
   16.75749969   90.78269958    0.40000001    2.78999996
   16.76083374   85.94380188    0.40000001    2.80999994
   16.76333427   86.73320007    0.40000001    2.78999996
   16.76472282   97.54989624    0.40000001    2.78999996
   16.76777840  100.03600311    0.40000001    2.80999994
   16.77111053   81.85070038    0.44000000    2.78999996
   16.77444458   92.28279877    0.44000000    2.80999994
   16.77750015   86.67240143    0.44000000    2.78999996
   16.78333282   86.67240143    0.44000000    2.78999996
   16.78750038   86.74479675    0.44000000    2.80999994
   16.79083252   97.86640167    0.44000000    2.78999996
   16.79388809   91.55819702    0.44000000    2.80999994
   16.79666710   87.75710297    0.44000000    2.80999994
   16.79777718   89.72740173    0.44000000    2.80999994
   16.80083275   91.14739990    0.46000001    2.80999994
   16.80416679   90.59519958    0.46000001    2.80999994
   16.80749893   89.82350159    0.44000000    2.80999994
   16.81055450   81.46980286    0.46000001    2.80999994
   16.81388855   90.79239655    0.46000001    2.80999994
   16.81722260   85.96260071    0.44000000    2.78999996
   16.82027817   91.69629669    0.44000000    2.80999994
   16.82638931   91.69629669    0.47999999    2.78999996
   16.83027840   89.21640015    0.47999999    2.80999994
   16.83361244   86.26619720    0.47999999    2.78999996
   16.83694458   88.70950317    0.47999999    2.78999996
   16.84000015   93.74069977    0.46000001    2.78999996
   16.84333420   94.85849762    0.46000001    2.80999994
   16.84666824   94.62090302    0.44000000    2.80999994
   16.84972191   89.45800018    0.44000000    2.80999994
   16.85305595   89.63520050    0.44000000    2.78999996
   16.85611153   82.50299835    0.41999999    2.78999996
   16.85944557   95.48480225    0.41999999    2.80999994
   16.86277771   99.19170380    0.44000000    2.80999994
   16.86333466   87.77899933    0.44000000    2.80999994
   16.86916733   87.77899933    0.44000000    2.78999996
   16.87333298   97.39959717    0.41999999    2.78999996
   16.87638855   94.26110077    0.41999999    2.78999996
   16.87972260   92.77729797    0.41999999    2.78999996
   16.88305473   94.29409790    0.44000000    2.78999996
   16.88611031   96.23889923    0.46000001    2.78999996
   16.88944435   88.93609619    0.46000001    2.78999996
   16.89277840   85.17639923    0.47999999    2.78999996
   16.89583397   85.22180176    0.46000001    2.78999996
   16.89666748   90.32790375    0.46000001    2.78999996
   16.89972115   86.90750122    0.47999999    2.78999996
   16.90277672   90.02050018    0.47999999    2.78999996
   16.90611076   91.47280121    0.46000001    2.80999994
   16.91194344   91.47280121    0.46000001    2.78999996
   16.91611099   91.54109955    0.46000001    2.78999996
   16.91944313   81.77919769    0.46000001    2.80999994
   16.92249870   88.47720337    0.47999999    2.78999996
   16.92583275   87.98269653    0.47999999    2.78999996
   16.92888832   87.41200256    0.46000001    2.80999994
   16.93000031   92.24839783    0.46000001    2.78999996
   16.93277740   95.31639862    0.46000001    2.78999996
   16.93583298   91.69550323    0.46000001    2.80999994
   16.93916512   86.59190369    0.46000001    2.78999996
   16.94249916   90.17389679    0.46000001    2.78999996
   16.94555473   88.11280060    0.46000001    2.78999996
   16.94888878   86.94650269    0.44000000    2.78999996
   16.95472336   86.94650269    0.44000000    2.78999996
   16.95888901   95.12889862    0.44000000    2.78999996
   16.96222305   97.34670258    0.44000000    2.78999996
   16.96333504   92.63729858    0.44000000    2.78999996
   16.96583366  108.43499756    0.44000000    2.78999996
   16.96888924   96.59670258    0.44000000    2.78999996
   16.97222328   91.91570282    0.44000000    2.78999996
   16.97555542   96.09040070    0.44000000    2.78999996
   16.97861099   90.57330322    0.44000000    2.78999996
   16.98194504  103.30300140    0.44000000    2.78999996
   16.98500061   86.47769928    0.41999999    2.78999996
   16.98833275   97.52940369    0.40000001    2.78999996
   16.99166679  103.49099731    0.38000000    2.80999994
   16.99777794  103.49099731    0.38000000    2.78999996
   17.00166702   94.16719818    0.40000001    2.78999996
   17.00499916   99.18640137    0.40000001    2.78999996
   17.00833321   98.64140320    0.40000001    2.80999994
   17.01138878   97.58820343    0.38000000    2.80999994
   17.01472282  104.83799744    0.38000000    2.80999994
   17.01805496  103.29199982    0.38000000    2.80999994
   17.02111053  101.05999756    0.38000000    2.78999996
   17.02444458   98.05950165    0.38000000    2.78999996
   17.02750015  107.75700378    0.38000000    2.80999994
   17.03000069  101.49600220    0.38000000    2.78999996
   17.03138924  103.71900177    0.38000000    2.78999996
   17.03444481  101.56999969    0.38000000    2.78999996
   17.04055595  101.56999969    0.38000000    2.78999996
   17.04472160  101.35800171    0.40000001    2.78999996
   17.04777718   91.17819977    0.40000001    2.78999996
   17.05111122  100.17700195    0.40000001    2.78999996
   17.05444336  100.67500305    0.40000001    2.78999996
   17.05749893   96.93640137    0.40000001    2.78999996
   17.06083298   90.96649933    0.40000001    2.78999996
   17.06333351   92.25279999    0.38000000    2.78999996
   17.06444359   94.09639740    0.40000001    2.78999996
   17.06777954   93.17169952    0.40000001    2.80999994
   17.07083511   98.52619934    0.40000001    2.78999996
   17.07416725   94.85089874    0.40000001    2.78999996
   17.07750130   95.11609650    0.41999999    2.78999996
   17.08333397   95.11609650    0.44000000    2.78999996
   17.08750153   87.19139862    0.44000000    2.78999996
   17.09055710   93.50129700    0.44000000    2.78999996
   17.09388924   92.57029724    0.44000000    2.78999996
   17.09666824   93.56520081    0.44000000    2.78999996
   17.09749985   95.87750244    0.44000000    2.78999996
   17.10055542   94.50569916    0.44000000    2.78999996
   17.10388947   93.62169647    0.44000000    2.78999996
   17.10722351   89.50119781    0.44000000    2.78999996
   17.11027908   88.79959869    0.44000000    2.78999996
   17.11361122   94.84079742    0.44000000    2.78999996
   17.11666679   88.82659912    0.44000000    2.78999996
   17.12000084   92.30000305    0.44000000    2.78999996
   17.12611198   92.30000305    0.44000000    2.78999996
   17.13027763   95.44740295    0.44000000    2.78999996
   17.13361168   95.64050293    0.41999999    2.78999996
   17.13666725   91.73429871    0.41999999    2.78999996
   17.13999939   84.80560303    0.44000000    2.78999996
   17.14333344   92.72570038    0.44000000    2.80999994
   17.14638901   87.88009644    0.44000000    2.78999996
   17.14972115   92.17230225    0.44000000    2.78999996
   17.15305519   91.75930023    0.44000000    2.78999996
   17.15611076   88.92120361    0.44000000    2.78999996
   17.15944481   89.95320129    0.44000000    2.80999994
   17.16250038   92.07230377    0.44000000    2.78999996
   17.16333389   89.82579803    0.44000000    2.78999996
   17.16916656   89.82579803    0.44000000    2.78999996
   17.17305565   88.47930145    0.41999999    2.78999996
   17.17638779   91.17510223    0.41999999    2.78999996
   17.17972183   94.75569916    0.41999999    2.78999996
   17.18277740   90.12719727    0.41999999    2.78999996
   17.18610954   98.03780365    0.41999999    2.78999996
   17.18916512   88.96440125    0.44000000    2.78999996
   17.19249916   89.01219940    0.44000000    2.78999996
   17.19583321   86.05480194    0.44000000    2.78999996
   17.19666672   90.47389984    0.44000000    2.78999996
   17.19944382   83.59010315    0.44000000    2.78999996
   17.20250130   87.85209656    0.41999999    2.78999996
   17.20583344   94.85430145    0.41999999    2.78999996
   17.21194458   94.85430145    0.41999999    2.78999996
   17.21611214   87.99449921    0.41999999    2.78999996
   17.21916771   91.45970154    0.41999999    2.78999996
   17.22249985   91.87670135    0.41999999    2.78999996
   17.22555542   89.14499664    0.41999999    2.78999996
   17.22888947   91.14170074    0.41999999    2.78999996
   17.23000145   90.49790192    0.41999999    2.78999996
   17.23250008   92.06140137    0.41999999    2.78999996
   17.23555565   92.04689789    0.41999999    2.78999996
   17.23888969   87.60620117    0.41999999    2.78999996
   17.24222183   92.26950073    0.47999999    2.78999996
   17.24527740   87.49880219    0.47999999    2.76999998
   17.24861145   89.31539917    0.46000001    2.78999996
   17.25472260   89.31539917    0.47999999    2.78999996
   17.25888824   87.88230133    0.47999999    2.78999996
   17.26222229   88.54560089    0.46000001    2.78999996
   17.26333427   79.20610046    0.46000001    2.78999996
   17.26583290   93.14489746    0.46000001    2.78999996
   17.26888847   86.82810211    0.44000000    2.78999996
   17.27222252   89.61119843    0.41999999    2.76999998
   17.27555466   85.01460266    0.40000001    2.78999996
   17.27861023   89.29879761    0.40000001    2.78999996
   17.28194427   90.41970062    0.40000001    2.78999996
   17.28527641   90.13719940    0.40000001    2.78999996
   17.28833199   89.79270172    0.38000000    2.78999996
   17.29166603   95.91169739    0.36000001    2.78999996
   17.29749870   95.91169739    0.36000001    2.78999996
   17.30166626   94.62359619    0.38000000    2.78999996
   17.30499840   86.87300110    0.38000000    2.78999996
   17.30805397   88.38490295    0.40000001    2.78999996
   17.31138802   83.99549866    0.38000000    2.78999996
   17.31472206   84.37779999    0.41999999    2.78999996
   17.31777954   87.93240356    0.46000001    2.78999996
   17.32111168   86.60790253    0.44000000    2.78999996
   17.32444572   86.91470337    0.44000000    2.78999996
   17.32750130   90.48349762    0.41999999    2.78999996
   17.33000183   90.25800323    0.41999999    2.78999996
   17.33111191   90.94270325    0.41999999    2.78999996
   17.33416748   86.37969971    0.40000001    2.78999996
   17.34055710   86.37969971    0.40000001    2.78999996
   17.34444427   93.21019745    0.38000000    2.78999996
   17.34777832   86.13359833    0.38000000    2.78999996
   17.35111237   82.12640381    0.40000001    2.76999998
   17.35416794   88.73760223    0.38000000    2.78999996
   17.35750008   84.55300140    0.40000001    2.78999996
   17.36055565   92.83969879    0.38000000    2.78999996
   17.36333466   85.86270142    0.38000000    2.80999994
   17.36444473   78.68900299    0.38000000    2.80999994
   17.36777878   95.73410034    0.40000001    2.78999996
   17.37083435   98.70749664    0.40000001    2.78999996
   17.37416649  107.80999756    0.40000001    2.78999996
   17.37722206  102.16699982    0.41999999    2.78999996
   17.38333321  102.16699982    0.41999999    2.78999996
   17.38750076  125.48699951    0.41999999    2.78999996
   17.39055634  136.40699768    0.41999999    2.76999998
   17.39388847  129.10699463    0.41999999    2.78999996
   17.39666748  143.66600037    0.41999999    2.78999996
   17.39749908  133.93400574    0.41999999    2.78999996
   17.40083313  137.40400696    0.41999999    2.78999996
   17.40388870  145.80299377    0.41999999    2.78999996
   17.40722275  148.12699890    0.41999999    2.78999996
   17.41027832  157.82400513    0.40000001    2.78999996
   17.41361046  145.92199707    0.40000001    2.78999996
   17.41694450  148.57899475    0.40000001    2.78999996
   17.42000008  163.08000183    0.40000001    2.78999996
   17.42611122  163.08000183    0.40000001    2.78999996
   17.43027687  163.95300293    0.40000001    2.78999996
   17.43333244  165.63400269    0.40000001    2.78999996
   17.43666649  145.00799561    0.40000001    2.78999996
   17.43999863  166.42100525    0.40000001    2.78999996
   17.44305420  163.64700317    0.40000001    2.78999996
   17.44638824  156.77200317    0.40000001    2.78999996
   17.44972038  141.02200317    0.38000000    2.78999996
   17.45277786  149.12399292    0.38000000    2.78999996
   17.45611191  148.68899536    0.38000000    2.78999996
   17.45916748  149.48699951    0.38000000    2.78999996
   17.46250153  181.70500183    0.38000000    2.78999996
   17.46333504  170.85600281    0.38000000    2.78999996
   17.46888924  170.85600281    0.38000000    2.78999996
   17.47305679  155.43099976    0.40000001    2.78999996
   17.47638893  148.11000061    0.40000001    2.76999998
   17.47944450  148.88699341    0.40000001    2.78999996
   17.49722290  174.00900269    0.41999999    2.78999996
   17.49944496  180.53100586    0.41999999    2.78999996
   17.50277710  156.65100098    0.40000001    2.78999996
   17.50611115  159.10000610    0.40000001    2.76999998
   17.51194382  159.10000610    0.40000001    2.78999996
   17.51611137  153.02400208    0.40000001    2.76999998
   17.51944351  145.25300598    0.40000001    2.78999996
   17.52249908  141.88600159    0.40000001    2.76999998
   17.52583313  158.85499573    0.40000001    2.76999998
   17.52888870  163.37699890    0.41999999    2.78999996
   17.53027725  178.40299988    0.41999999    2.78999996
   17.53277779  155.60499573    0.41999999    2.78999996
   17.53610992  123.95300293    0.41999999    2.78999996
   17.53916550  141.15600586    0.41999999    2.78999996
   17.54249954  146.33999634    0.41999999    2.78999996
   17.54583359  159.82299805    0.41999999    2.76999998
   17.54888916  138.88400269    0.46000001    2.78999996
   17.55472183  138.88400269    0.44000000    2.76999998
   17.55888748  146.56100464    0.46000001    2.78999996
   17.56222153  145.05599976    0.47999999    2.76999998
   17.56361008  128.27099609    0.47999999    2.78999996
   17.56583214  125.44499969    0.47999999    2.78999996
   17.56916809  127.02999878    0.46000001    2.78999996
   17.57222366  122.87000275    0.46000001    2.78999996
   17.57555580  123.61000061    0.50000000    2.78999996
   17.57888985  135.86300659    0.52999997    2.78999996
   17.58194542  113.56800079    0.55000001    2.76999998
   17.58527756  127.46900177    0.55000001    2.76999998
   17.58861160  129.39999390    0.55000001    2.78999996
   17.59166718  113.89800262    0.51999998    2.76999998
   17.59777832  113.89800262    0.47999999    2.76999998
   17.60166740  113.02300262    0.47999999    2.76999998
   17.60499954  115.78500366    0.47999999    2.76999998
   17.60833359  115.94300079    0.46000001    2.78999996
   17.61138916  115.27200317    0.46000001    2.76999998
   17.61472321  113.41600037    0.46000001    2.78999996
   17.61805534  101.95400238    0.46000001    2.78999996
   17.62111092  110.62300110    0.46000001    2.76999998
   17.62444496  103.53500366    0.46000001    2.76999998
   17.62750053  112.46199799    0.46000001    2.78999996
   17.63027763  119.29299927    0.47999999    2.76999998
   17.63111115  103.10800171    0.46000001    2.78999996
   17.63444519  110.63800049    0.46000001    2.78999996
   17.64055634  110.63800049    0.46000001    2.78999996
   17.64472198  103.45600128    0.46000001    2.76999998
   17.64777756  111.37500000    0.46000001    2.76999998
   17.65111160  110.66200256    0.46000001    2.76999998
   17.65444374  102.56600189    0.46000001    2.76999998
   17.65749931  103.66999817    0.47999999    2.76999998
   17.66083336  112.10900116    0.47999999    2.76999998
   17.66361046  101.50900269    0.47999999    2.76999998
   17.66444397   98.78230286    0.47999999    2.76999998
   17.66777802   97.46690369    0.47999999    2.76999998
   17.67111015  103.56400299    0.47999999    2.76999998
   17.67416573  102.01599884    0.47999999    2.76999998
   17.67749977  101.46399689    0.50000000    2.78999996
   17.68333244  101.46399689    0.50000000    2.76999998
   17.68750000  101.12599945    0.47999999    2.76999998
   17.69083214   98.33399963    0.47999999    2.76999998
   17.69388771  103.93900299    0.47999999    2.76999998
   17.69722176   99.60970306    0.50000000    2.76999998
   17.69749832  100.73999786    0.50000000    2.76999998
   17.70083427  102.64700317    0.47999999    0.41999999
   17.70388985  106.19000244    0.47999999    2.76999998
   17.70722389   95.64790344    0.47999999    2.76999998
   17.71055603  106.93099976    0.47999999    2.76999998
   17.71361160   94.01370239    0.47999999    2.76999998
   17.71694565  105.71499634    0.47999999    2.76999998
   17.72000122  100.07199860    0.47999999    2.76999998
   17.72611237  100.07199860    0.50000000    2.76999998
   17.73055649  105.37500000    0.50000000    2.76999998
   17.73111153   99.57920074    0.50000000    2.76999998
   17.73416710   94.80529785    0.50000000    2.76999998
   17.73750114   92.27799988    0.50000000    2.76999998
   17.74083328   88.61840057    0.50000000    2.76999998
   17.74388885   99.62090302    0.50000000    2.76999998
   17.74722290   94.03600311    0.50000000    2.76999998
   17.75055504   93.08059692    0.50000000    2.78999996
   17.75361061   89.01290131    0.51999998    2.76999998
   17.75694466   91.00399780    0.51999998    2.76999998
   17.76000023   99.37339783    0.51999998    2.78999996
   17.76333427  102.46199799    0.51999998    2.76999998
   17.76388931   96.00379944    0.51999998    2.76999998
   17.76916695   96.00379944    0.50000000    2.76999998
   17.77305603   96.19129944    0.52999997    2.76999998
   17.77638817   89.52449799    0.52999997    2.76999998
   17.77972221   94.36399841    0.51999998    2.76999998
   17.78277779   93.25930023    0.51999998    2.76999998
   17.78610992   96.33570099    0.52999997    2.76999998
   17.78944397   97.99130249    0.51999998    2.76999998
   17.79249954   90.44550323    0.51999998    2.76999998
   17.79583359   84.32859802    0.52999997    2.76999998
   17.79722214   88.53459930    0.52999997    2.76999998
   17.79944420   95.24749756    0.52999997    2.76999998
   17.80249977   91.96040344    0.58999997    2.75000000
   17.80583191   84.86060333    0.70999998    2.76999998
   17.81194305   84.86060333    0.67000002    2.75000000
   17.81611061   94.70120239    0.67000002    2.75000000
   17.81916809   89.18470001    0.67000002    2.75000000
   17.82250023   86.30090332    0.88000000    2.76999998
   17.82583427   90.50759888    0.92000002    2.75000000
   17.82888985   88.61889648    0.88000000    2.76999998
   17.83055687   89.82620239    0.88000000    2.75000000
   17.83277893   92.65910339    0.88000000    2.75000000
   17.83583450   88.21990204    0.81999999    2.76999998
   17.83916664   91.89589691    0.75000000    2.76999998
   17.84250069   96.07589722    0.58999997    2.76999998
   17.84555626   96.42810059    0.56999999    2.76999998
   17.84889030   87.43869781    0.56999999    2.76999998
   17.85472298   87.43869781    0.55000001    2.78999996
   17.85888863  100.13600159    0.52999997    2.76999998
   17.86222267  102.15399933    0.52999997    2.76999998
   17.86388969   93.75379944    0.52999997    2.76999998
   17.86583328   96.51930237    0.52999997    2.76999998
   17.86888885   99.11100006    0.51999998    2.76999998
   17.87222290   93.60949707    0.51999998    2.78999996
   17.87555504   95.70749664    0.51999998    2.78999996
   17.87861061   90.82939911    0.47999999    2.76999998
   17.88194466   90.35829926    0.47999999    2.76999998
   17.88500023   92.65190125    0.50000000    2.76999998
   17.88833237   93.17939758    0.51999998    2.76999998
   17.89166641   96.54389954    0.51999998    2.76999998
   17.89749908   96.54389954    0.52999997    2.76999998
   17.90166664   92.02369690    0.52999997    2.76999998
   17.90499878   93.90149689    0.55000001    2.76999998
   17.90805435   91.73919678    0.58999997    2.76999998
   17.91138840   87.92530060    0.61000001    2.76999998
   17.91472244   86.37409973    0.63000000    2.76999998
   17.91777802   92.82610321    0.63000000    2.76999998
   17.92111015   94.13189697    0.63000000    2.75000000
   17.92444420   84.85410309    0.64999998    2.75000000
   17.92749977   90.62599945    0.70999998    2.75000000
   17.93055534   89.70760345    0.73000002    2.76999998
   17.93138885   95.39289856    0.73000002    2.76999998
   17.93444443   89.32700348    0.73000002    2.76999998
   17.94055557   89.32700348    0.70999998    2.76999998
   17.94444275   86.34359741    0.70999998    2.76999998
   17.94777679   87.18720245    0.69000000    2.75000000
   17.95111275   95.64630127    0.69000000    2.75000000
   17.95416832   90.79389954    0.67000002    2.76999998
   17.95750046   92.49909973    0.67000002    2.76999998
   17.96083450  100.49900055    0.67000002    2.75000000
   17.96389008   89.85220337    0.67000002    2.75000000
   17.96444511   87.75939941    0.67000002    2.75000000
   17.96750069   92.27100372    0.67000002    2.76999998
   17.97083473   90.43489838    0.64999998    2.75000000
   17.97416687   91.85469818    0.64999998    2.75000000
   17.97722244   89.38510132    0.64999998    2.75000000
   17.98333359   89.38510132    0.63000000    2.76999998
   17.98750114   86.97699738    0.61000001    2.76999998
   17.99055672   88.69850159    0.63000000    2.75000000
   17.99388885   95.49949646    0.69000000    2.76999998
   17.99722290   90.93389893    0.70999998    2.76999998
   17.99777794   90.34839630    0.70999998    2.76999998
   18.00083351   91.35790253    0.73000002    2.76999998
   18.00416756   90.42240143    0.73000002    2.76999998
   18.00749969   96.22360229    0.69000000    2.75000000
   18.01055527   90.35870361    0.64999998    2.76999998
   18.01388931   92.10130310    0.63000000    2.75000000
   18.01694489   87.41560364    0.61000001    2.76999998
   18.02027702   94.63800049    0.58999997    2.78999996
   18.02611160   94.63800049    0.58999997    2.76999998
   18.03027725   92.16899872    0.56999999    2.76999998
   18.03111076   88.78450012    0.55000001    2.76999998
   18.03388786   96.11889648    0.55000001    2.76999998
   18.03722191   89.87190247    0.55000001    2.75000000
   18.04055595   92.63140106    0.56999999    2.75000000
   18.04361153   90.22589874    0.56999999    2.75000000
   18.04694366   91.38369751    0.55000001    2.76999998
   18.04999924   91.52349854    0.56999999    2.75000000
   18.05333328   91.17140198    0.56999999    2.75000000
   18.05666542   96.30049896    0.56999999    2.76999998
   18.05972099   90.05680084    0.56999999    2.75000000
   18.06305504   94.75890350    0.56999999    2.75000000
   18.06444359   94.05699921    0.56999999    2.75000000
   18.06888962   94.05699921    0.55000001    2.76999998
   18.07305717   94.00469971    0.56999999    2.76999998
   18.07638931   89.94010162    0.56999999    2.76999998
   18.07944489   90.22200012    0.56999999    2.76999998
   18.08277893   95.87560272    0.58999997    2.76999998
   18.08611107   89.38670349    0.61000001    2.75000000
   18.08944511   85.88269806    0.64999998    2.76999998
   18.09250069   91.13849640    0.67000002    2.75000000
   18.09583473   86.37899780    0.70999998    2.75000000
   18.09777832   89.85939789    0.70999998    2.75000000
   18.09944534   92.54930115    0.69000000    2.76999998
   18.10277748   92.22570038    0.70999998    2.75000000
   18.10611153   92.16549683    0.69000000    2.75000000
   18.11194420   92.16549683    0.70999998    2.75000000
   18.11583328   88.56189728    0.73000002    2.75000000
   18.11916733   85.36049652    0.73000002    2.76999998
   18.12249947   89.36260223    0.73000002    2.75000000
   18.12555504   91.13249969    0.73000002    2.75000000
   18.12888908   90.85990143    0.70999998    2.75000000
   18.13111115   93.07279968    0.69000000    2.75000000
   18.13249969   88.73049927    0.69000000    2.75000000
   18.13583374   95.16480255    0.69000000    2.75000000
   18.13916588   89.17389679    0.69000000    2.75000000
   18.14222145   87.79679871    0.63000000    2.75000000
   18.14555550   92.10859680    0.61000001    2.75000000
   18.14888954   98.09719849    0.56999999    2.76999998
   18.15472221   98.09719849    0.55000001    2.76999998
   18.15888786   84.38359833    0.55000001    2.75000000
   18.16194344   86.87319946    0.52999997    2.75000000
   18.16444397   83.29250336    0.52999997    2.76999998
   18.16555595   90.39669800    0.52999997    2.75000000
   18.16888809   87.78620148    0.52999997    2.75000000
   18.17222214   87.21890259    0.52999997    2.75000000
   18.17527771   87.08959961    0.52999997    2.75000000
   18.17860985   91.24579620    0.55000001    2.76999998
   18.18166542   84.83550262    0.55000001    2.76999998
   18.18499947   86.49859619    0.55000001    2.75000000
   18.18833160   86.68650055    0.56999999    2.75000000
   18.19138718   85.15940094    0.56999999    2.75000000
   18.19749832   85.15940094    0.56999999    2.76999998
   18.20166779   84.38510132    0.56999999    2.75000000
   18.20499992   84.43699646    0.56999999    2.75000000
   18.20805550   83.76470184    0.58999997    2.75000000
   18.21138954   85.17440033    0.56999999    2.75000000
   18.21444511   87.73139954    0.55000001    2.76999998
   18.21777916   81.32550049    0.55000001    2.76999998
   18.22111130   90.12220001    0.55000001    2.75000000
   18.22416687   81.73069763    0.55000001    2.75000000
   18.22750092   85.08609772    0.56999999    2.76999998
   18.23083305   83.67040253    0.56999999    2.75000000
   18.23250008   90.91089630    0.56999999    2.75000000
   18.23444557   78.67060089    0.56999999    2.75000000
   18.24027824   78.67060089    0.56999999    2.75000000
   18.24444389   81.97550201    0.56999999    2.75000000
   18.24777794   88.87770081    0.56999999    2.75000000
   18.25111198   88.74060059    0.56999999    2.75000000
   18.25416756   84.04299927    0.56999999    2.75000000
   18.25749969   91.14320374    0.56999999    2.75000000
   18.26055527   84.03540039    0.56999999    2.75000000
   18.26388931   88.91390228    0.56999999    2.75000000
   18.26583290   89.10549927    0.56999999    2.75000000
   18.26749992   92.73079681    0.56999999    2.75000000
   18.27083397   81.81890106    0.56999999    2.75000000
   18.27388954   89.58709717    0.56999999    2.75000000
   18.27722168   90.17800140    0.56999999    2.75000000
   18.28333282   90.17800140    0.61000001    2.75000000
   18.28750038   89.22309875    0.61000001    2.75000000
   18.29055595   85.62190247    0.61000001    2.75000000
   18.29388809   85.92669678    0.61000001    2.75000000
   18.29694366   87.21499634    0.61000001    2.75000000
   18.29944420   90.42130280    0.61000001    2.76999998
   18.30083275   85.82150269    0.61000001    2.76999998
   18.30388832   89.29820251    0.61000001    2.75000000
   18.30722237   86.33640289    0.58999997    2.75000000
   18.31055450   88.75839996    0.58999997    2.75000000
   18.31361008   84.82150269    0.58999997    2.76999998
   18.31694603   90.43129730    0.58999997    2.75000000
   18.32027817   91.96659851    0.58999997    2.75000000
   18.32611275   91.96659851    0.58999997    2.75000000
   18.33027840   89.57250214    0.61000001    2.75000000
   18.33277893   86.61239624    0.61000001    2.75000000
   18.33388901   83.91760254    0.61000001    2.75000000
   18.33694458   88.42970276    0.63000000    2.75000000
   18.34027863   87.73870087    0.63000000    2.75000000
   18.34361267   91.25000000    0.63000000    2.75000000
   18.34666824   90.89230347    0.63000000    2.75000000
   18.35000038   92.43389893    0.63000000    2.76999998
   18.35333443   87.50019836    0.63000000    2.75000000
   18.35639000   92.44120026    0.63000000    2.75000000
   18.35972214   86.71659851    0.63000000    2.75000000
   18.36277771   77.57879639    0.63000000    2.75000000
   18.36888885   77.57879639    0.61000001    2.75000000
   18.37305641   88.37310028    0.63000000    2.75000000
   18.37638855   80.85359955    0.61000001    2.75000000
   18.37944412   85.70020294    0.61000001    2.75000000
   18.38277817   88.79509735    0.58999997    2.75000000
   18.38611031   85.70310211    0.61000001    2.73000002
   18.38916588   92.88410187    0.63000000    2.75000000
   18.39249992   89.09249878    0.64999998    2.73000002
   18.39555550   83.07050323    0.69000000    2.75000000
   18.39888954   91.82659912    0.70999998    2.75000000
   18.39972115   88.63729858    0.73000002    2.75000000
   18.40250015   86.02169800    0.79000002    2.75000000
   18.40583229   90.17130280    0.80000001    2.75000000
   18.41166687   90.17130280    0.79000002    2.75000000
   18.41583252   87.53309631    0.75000000    2.75000000
   18.41916656   88.90730286    0.75000000    2.75000000
   18.42249870   86.82740021    0.70999998    2.75000000
   18.42555428   90.97679901    0.70999998    2.75000000
   18.42888832   92.77880096    0.70999998    2.75000000
   18.43222237   92.17489624    0.70999998    2.75000000
   18.43305397   88.17230225    0.70999998    2.75000000
   18.43583298   84.35119629    0.69000000    2.73000002
   18.43916512   89.72530365    0.69000000    2.75000000
   18.44222069   86.17929840    0.70999998    2.75000000
   18.44555473   90.96189880    0.70999998    2.75000000
   18.44861031   88.50749969    0.70999998    2.75000000
   18.45444489   88.50749969    0.81999999    2.73000002
   18.45861244   82.31819916    0.83999997    2.73000002
   18.46194458   84.25959778    0.79000002    2.73000002
   18.46527863   87.71589661    0.75000000    2.75000000
   18.46666718   89.54039764    0.75000000    2.75000000
   18.46888924   88.76390076    0.76999998    2.75000000
   18.47194481   91.16349792    0.76999998    2.75000000
   18.47527885   92.25420380    0.80000001    2.75000000
   18.47861099   83.45369720    0.80000001    2.75000000
   18.48166656   95.60610199    0.86000001    2.73000002
   18.48500061   92.50189972    0.88000000    2.73000002
   18.48805618   92.35800171    0.89999998    2.73000002
   18.49138832   87.67590332    0.92000002    2.73000002
   18.49749947   87.67590332    0.89999998    2.75000000
   18.51583290   85.02269745    0.88000000    2.75000000
   18.51916695   92.84069824    0.83999997    2.75000000
   18.52222252   85.05010223    0.79000002    2.75000000
   18.52555466   85.03179932    0.76999998    2.75000000
   18.52888870   83.90480042    0.76999998    2.75000000
   18.53194427   93.57080078    0.73000002    2.76999998
   18.53527641   90.49620056    0.73000002    2.73000002
   18.54055595   90.49620056    0.86000001    2.73000002
   18.54472160   98.41470337    0.83999997    2.75000000
   18.54777718   89.15640259    0.81999999    2.73000002
   18.54888916   90.37100220    0.80000001    2.73000002
   18.55166626   91.32460022    0.79000002    2.73000002
   18.55472183   90.31109619    0.79000002    2.73000002
   18.55805397   92.86609650    0.75000000    2.73000002
   18.56110954   99.49189758    0.75000000    2.73000002
   18.56444359   91.83910370    0.75000000    2.73000002
   18.56777954   92.34960175    0.67000002    2.75000000
   18.57083511   88.30829620    0.64999998    2.73000002
   18.57416725   89.65869904    0.67000002    2.73000002
   18.57750130   89.19239807    0.67000002    2.73000002
   18.58333397   89.19239807    0.64999998    2.73000002
   18.58750153   85.98999786    0.64999998    2.75000000
   18.59083366   88.50430298    0.63000000    2.73000002
   18.59388924   87.66880035    0.63000000    2.73000002
   18.59722328   86.83969879    0.63000000    2.73000002
   18.60055542   90.34239960    0.63000000    2.73000002
   18.60361099   92.56639862    0.63000000    2.73000002
   18.60694504   92.96499634    0.63000000    2.75000000
   18.61027908   86.79699707    0.61000001    2.75000000
   18.61333466   91.47889709    0.61000001    2.75000000
   18.61555672   90.20770264    0.61000001    2.73000002
   18.61722183   89.47239685    0.58999997    2.73000002
   18.62027740   86.36270142    0.61000001    2.75000000
   18.62611198   86.36270142    0.58999997    2.73000002
   18.63027763   90.19259644    0.61000001    2.73000002
   18.63361168   85.82849884    0.58999997    2.73000002
   18.63694382   85.19529724    0.58999997    2.73000002
   18.63999939   85.77970123    0.58999997    2.75000000
   18.64333344   89.32430267    0.58999997    2.75000000
   18.64638901   91.46859741    0.58999997    2.75000000
   18.64888954   91.75219727    0.58999997    2.73000002
   18.65027809   84.02950287    0.58999997    2.73000002
   18.65333366   86.49479675    0.58999997    2.73000002
   18.65666580   81.53479767    0.58999997    2.73000002
   18.65999985   83.50389862    0.58999997    2.73000002
   18.66305542   84.20140076    0.58999997    2.73000002
   18.66916656   84.20140076    0.58999997    2.75000000
   18.67333221   85.66139984    0.67000002    2.75000000
   18.67638779   84.41120148    0.88000000    2.73000002
   18.67972183   78.89600372    0.88000000    2.75000000
   18.68222237   85.05200195    0.89999998    2.73000002
   18.68333244   86.80909729    0.89999998    2.73000002
   18.68638802   85.58930206    0.63000000    2.73000002
   18.68972206   84.74669647    0.63000000    2.73000002
   18.69305420   87.42209625    0.56999999    2.73000002
   18.69610977   87.54910278    0.55000001    2.73000002
   18.69944382   87.62020111    0.55000001    2.73000002
   18.70250130   87.46810150    0.55000001    2.73000002
   18.70583344   86.04479980    0.52999997    2.73000002
   18.71194458   86.04479980    0.52999997    2.75000000
   18.71611214   86.36609650    0.52999997    2.75000000
   18.71916771   88.23120117    0.52999997    2.75000000
   18.72249985   83.84149933    0.55000001    2.73000002
   18.72583389   84.05539703    0.55000001    2.73000002
   18.72888947   80.75170135    0.55000001    2.73000002
   18.73222351   80.55480194    0.55000001    2.73000002
   18.73527718   83.35569763    0.55000001    2.73000002
   18.73861122   78.18099976    0.55000001    2.75000000
   18.74194527   83.96379852    0.55000001    2.73000002
   18.74500084   87.46569824    0.55000001    2.73000002
   18.74833298   84.70379639    0.56999999    2.73000002
   18.74888992   85.26159668    0.56999999    2.73000002
   18.75472260   85.26159668    0.56999999    2.73000002
   18.75888824   93.21569824    0.56999999    2.71000004
   18.76222229   88.25460052    0.55000001    2.73000002
   18.76527786   88.07479858    0.55000001    2.73000002
   18.76861000   86.65440369    0.55000001    2.73000002
   18.77194405   85.89730072    0.55000001    2.73000002
   18.77499962   79.69599915    0.55000001    2.73000002
   18.77833366   86.33270264    0.55000001    2.73000002
   18.78166580   87.48840332    0.52999997    2.73000002
   18.78222275   94.14929962    0.52999997    2.73000002
   18.78527641   88.35019684    0.52999997    2.73000002
   18.78861046   90.12940216    0.52999997    2.73000002
   18.79166603   82.37699890    0.52999997    2.73000002
   18.79749870   82.37699890    0.51999998    2.73000002
   18.80166626   86.41519928    0.50000000    2.73000002
   18.80499840   87.27970123    0.50000000    2.73000002
   18.80805397   80.06410217    0.51999998    2.73000002
   18.81138802   82.91660309    0.50000000    2.73000002
   18.81472206   87.34490204    0.50000000    2.73000002
   18.81555557   85.68180084    0.50000000    2.73000002
   18.81833458   81.42420197    0.50000000    2.73000002
   18.82139015   85.63970184    0.50000000    2.73000002
   18.82472229   86.72460175    0.51999998    2.75000000
   18.82805634   84.43520355    0.52999997    2.73000002
   18.83111191   83.28790283    0.55000001    2.71000004
   18.83444595   88.46600342    0.56999999    2.71000004
   18.84055710   88.46600342    0.56999999    2.71000004
   18.84444427   93.41850281    0.56999999    2.73000002
   18.84777832   82.44159698    0.56999999    2.73000002
   18.84889030   89.27380371    0.56999999    2.73000002
   18.85138893   91.65499878    0.56999999    2.73000002
   18.85444450   86.74790192    0.58999997    2.71000004
   18.85777855   88.99929810    0.56999999    2.73000002
   18.86111069   88.48320007    0.56999999    2.71000004
   18.86416626   90.68250275    0.56999999    2.71000004
   18.86750031   87.95960236    0.58999997    2.73000002
   18.87083435   90.66549683    0.58999997    2.73000002
   18.87388992   87.81919861    0.56999999    2.73000002
   18.87722206   87.01879883    0.58999997    2.71000004
   18.88333321   87.01879883    0.58999997    2.71000004
   18.88750076   85.13040161    0.58999997    2.71000004
   18.89055634   81.18489838    0.58999997    2.71000004
   18.89388847   83.44029999    0.58999997    2.71000004
   18.89722252   78.19249725    0.61000001    2.71000004
   18.90027809   84.21170044    0.58999997    2.71000004
   18.90361023   88.06410217    0.58999997    2.71000004
   18.90666580   79.62850189    0.58999997    2.71000004
   18.90999985   84.71240234    0.58999997    2.71000004
   18.91333389   85.30899811    0.58999997    2.73000002
   18.91555595   83.16870117    0.55000001    2.71000004
   18.91694450   88.96399689    0.56999999    2.73000002
   18.92000008   84.30100250    0.55000001    2.73000002
   18.92611122   84.30100250    0.55000001    2.71000004
   18.93027687   85.07949829    0.52999997    2.71000004
   18.93361092   82.88220215    0.52999997    2.71000004
   18.93666649   86.54350281    0.52999997    2.73000002
   18.93999863   85.71640015    0.52999997    2.73000002
   18.94305420   82.42099762    0.55000001    2.71000004
   18.94638824   82.98829651    0.55000001    2.71000004
   18.94888878   83.53099823    0.55000001    2.71000004
   18.95000076   82.88240051    0.55000001    2.71000004
   18.95333481   85.24970245    0.55000001    2.71000004
   18.95639038   85.28260040    0.55000001    2.73000002
   18.95972252   80.77079773    0.52999997    2.73000002
   18.96305656   81.23100281    0.52999997    2.73000002
   18.96888924   81.23100281    0.55000001    2.73000002
   18.97305679   82.17310333    0.55000001    2.71000004
   18.97638893   87.58560181    0.55000001    2.71000004
   18.97944450   83.59600067    0.55000001    2.71000004
   18.98222351   84.05879974    0.55000001    2.71000004
   18.98333359   84.47609711    0.55000001    2.71000004
   18.98638916   81.74340057    0.56999999    2.71000004
   18.98972321   80.54850006    0.56999999    2.71000004
   18.99305534   79.00859833    0.55000001    2.71000004
   18.99611092   79.49250031    0.55000001    2.71000004
   18.99944496   78.14469910    0.55000001    2.71000004
   19.00277710   76.47029877    0.55000001    2.71000004
   19.00583267   78.78569794    0.56999999    2.71000004
   19.01194382   78.78569794    0.56999999    2.71000004
   19.01611137   77.60389709    0.56999999    2.71000004
   19.01916695   79.24069977    0.55000001    2.71000004
   19.02249908   76.43840027    0.55000001    2.71000004
   19.02555466   80.54299927    0.55000001    2.71000004
   19.02888870   82.30909729    0.56999999    2.71000004
   19.03222275   83.25299835    0.52999997    2.71000004
   19.03527641   85.83689880    0.52999997    2.71000004
   19.03861046   82.45850372    0.52999997    2.71000004
   19.04194450   84.80560303    0.51999998    2.71000004
   19.04500008   79.61840057    0.51999998    2.71000004
   19.04833221   83.50499725    0.55000001    2.71000004
   19.04888916   87.61060333    0.55000001    2.71000004
   19.05472183   87.61060333    0.52999997    2.71000004
   19.05888748   81.40670013    0.52999997    2.71000004
   19.06194305   79.81929779    0.51999998    2.71000004
   19.06527710   81.73580170    0.52999997    2.71000004
   19.06861115   82.96040344    0.51999998    2.71000004
   19.07166672   82.11419678    0.51999998    2.71000004
   19.07500076   82.15380096    0.51999998    2.71000004
   19.07833481   79.96649933    0.51999998    2.71000004
   19.08139038   81.38569641    0.51999998    2.71000004
   19.08222389   80.78469849    0.51999998    2.71000004
   19.08500099   81.26889801    0.52999997    2.71000004
   19.08805656   79.85900116    0.52999997    2.71000004
   19.09138870   84.10130310    0.55000001    2.71000004
   19.09749985   84.10130310    0.55000001    2.71000004
   19.10166740   79.54560089    0.55000001    2.71000004
   19.10499954   78.11080170    0.55000001    2.69000006
   19.10805511   80.91529846    0.55000001    2.69000006
   19.11138916   79.23179626    0.52999997    2.71000004
   19.11472321   81.70459747    0.52999997    2.71000004
   19.11555672   81.10959625    0.52999997    2.71000004
   19.11833382   79.02330017    0.51999998    2.69000006
   19.12138939   76.87339783    0.52999997    2.71000004
   19.12472153   84.38169861    0.52999997    2.71000004
   19.12805557   81.91419983    0.55000001    2.69000006
   19.13111115   81.97360229    0.55000001    2.69000006
   19.13444519   81.52249908    0.55000001    2.71000004
   19.14027786   81.52249908    0.55000001    2.69000006
   19.14444351   79.33730316    0.56999999    2.71000004
   19.14777756   83.51540375    0.56999999    2.71000004
   19.14888954   86.37349701    0.56999999    2.69000006
   19.15138817   90.00969696    0.56999999    2.69000006
   19.15472221   84.65399933    0.58999997    2.69000006
   19.15777779   79.70600128    0.61000001    2.71000004
   19.16110992   82.30879974    0.58999997    2.69000006
   19.16416550   82.15000153    0.58999997    2.71000004
   19.16749954   79.16419983    0.58999997    2.69000006
   19.17083359   79.99549866    0.58999997    2.69000006
   19.17388916   76.23190308    0.56999999    2.71000004
   19.17722130   79.89649963    0.56999999    2.69000006
   19.18333244   79.89649963    0.56999999    2.69000006
   19.18722153   79.86350250    0.56999999    2.69000006
   19.19055557   78.58609772    0.56999999    2.69000006
   19.19388771   82.10459900    0.58999997    2.71000004
   19.19694328   78.89600372    0.58999997    2.71000004
   19.20027924   78.20729828    0.61000001    2.69000006
   19.20361137   83.24009705    0.61000001    2.69000006
   19.20666695   78.88159943    0.61000001    2.69000006
   19.21000099   82.77770233    0.63000000    2.71000004
   19.21305656   77.90450287    0.63000000    2.71000004
   19.21555710   78.37159729    0.63000000    2.69000006
   19.21694565   78.80889893    0.64999998    2.69000006
   19.22027779   78.17310333    0.64999998    2.69000006
   19.22611237   78.17310333    0.67000002    2.69000006
   19.23027802   81.12860107    0.67000002    2.69000006
   19.23333359   76.48609924    0.67000002    2.67000008
   19.23666763   81.80719757    0.67000002    2.69000006
   19.23999977   75.86460114    0.67000002    2.69000006
   19.24305534   80.31030273    0.67000002    2.69000006
   19.24638939   79.73680115    0.67000002    2.69000006
   19.24888992   80.18959808    0.64999998    2.69000006
   19.25000000   79.78160095    0.64999998    2.69000006
   19.25333405   78.57360077    0.67000002    2.69000006
   19.25638962   78.26889801    0.67000002    2.69000006
   19.25972176   75.63739777    0.73000002    2.69000006
   19.26277733   79.01570129    0.73000002    2.69000006
   19.26888847   79.01570129    0.69000000    2.69000006
   19.27305603   80.67269897    0.69000000    2.69000006
   19.27638817   74.53659821    0.69000000    2.69000006
   19.27944374   83.41699982    0.64999998    2.69000006
   19.28222275   77.14730072    0.64999998    2.69000006
   19.28305435   81.99060059    0.64999998    2.69000006
   19.28638840   79.57289886    0.64999998    2.69000006
   19.28944397   82.61620331    0.67000002    2.69000006
   19.29277802   77.69170380    0.64999998    2.69000006
   19.29583359   81.33689880    0.63000000    2.69000006
   19.29916573   84.70210266    0.64999998    2.69000006
   19.30249977   76.29979706    0.63000000    2.69000006
   19.30555534   74.65689850    0.63000000    2.67000008
   19.31166649   74.65689850    0.63000000    2.67000008
   19.31583214   78.68280029    0.67000002    2.69000006
   19.31916809   78.63649750    0.67000002    2.69000006
   19.32222366   81.56479645    0.64999998    2.67000008
   19.32555580   81.09940338    0.63000000    2.69000006
   19.32888985   82.54910278    0.63000000    2.67000008
   19.33194542   79.26969910    0.63000000    2.69000006
   19.33527756   74.12400055    0.63000000    2.67000008
   19.33861160   79.91680145    0.63000000    2.69000006
   19.34166718   79.83560181    0.63000000    2.69000006
   19.34500122   81.84500122    0.61000001    2.67000008
   19.34805679   -1.00000000    0.61000001    2.67000008
   19.35472298   -1.00000000    0.58999997    2.67000008
   19.35888863   81.80680084    0.58999997    2.69000006
   19.36194420   80.29830170    0.58999997    2.67000008
   19.36527824   76.36109924    0.58999997    2.67000008
   19.36861038   74.29319763    0.61000001    2.67000008
   19.37166595   76.03299713    0.63000000    2.67000008
   19.37500000   75.58020020    0.61000001    2.67000008
   19.37805557   74.76930237    0.64999998    2.69000006
   19.38138962   77.63939667    0.64999998    2.67000008
   19.38222313   78.04299927    0.64999998    2.67000008
   19.38500023   74.93949890    0.63000000    2.69000006
   19.38833237   77.16870117    0.61000001    2.67000008
   19.39138794   80.07550049    0.61000001    2.69000006
   19.39749908   80.07550049    0.63000000    2.67000008
   19.40166664   77.53160095    0.63000000    2.67000008
   19.40472221   75.35890198    0.63000000    2.67000008
   19.40805435   73.70230103    0.63000000    2.67000008
   19.41110992   72.44170380    0.63000000    2.67000008
   19.41444397   80.76770020    0.63000000    2.67000008
   19.41555595   85.60140228    0.63000000    2.67000008
   19.41805458   78.28949738    0.63000000    2.67000008
   19.42138863   72.13420105    0.63000000    2.67000008
   19.42444420   76.85469818    0.64999998    2.67000008
   19.42777634   75.70909882    0.67000002    2.67000008
   19.43111038   74.61900330    0.69000000    2.67000008
   19.43416595   75.77989960    0.67000002    2.67000008
   19.44027710   75.77989960    0.75000000    2.67000008
   19.44444275   74.88690186    0.70999998    2.67000008
   19.44749832   74.04720306    0.69000000    2.67000008
   19.44888878   76.70729828    0.70999998    2.67000008
   19.45138931   75.61930084    0.67000002    2.67000008
   19.45472336   76.30100250    0.67000002    2.67000008
   19.45777893   76.92289734    0.64999998    2.67000008
   19.46111107   73.11849976    0.67000002    2.67000008
   19.46444511   78.73339844    0.67000002    2.67000008
   19.46750069   76.94029999    0.63000000    2.67000008
   19.47083473   74.43949890    0.63000000    2.66000009
   19.47389030   74.59819794    0.63000000    2.67000008
   19.47722244   76.31860352    0.63000000    2.67000008
   19.48305511   76.31860352    0.64999998    2.67000008
   19.48722267   72.78150177    0.64999998    2.67000008
   19.49055672   74.10070038    0.64999998    2.67000008
   19.49361229   75.20469666    0.64999998    2.67000008
   19.49694443   73.19619751    0.64999998    2.67000008
   19.50027847   80.04769897    0.64999998    2.67000008
   19.50333405   74.16439819    0.64999998    2.66000009
   19.50666618   74.27519989    0.64999998    2.66000009
   19.50972176   72.32270050    0.64999998    2.66000009
   19.51305580   71.64730072    0.64999998    2.66000009
   19.51555634   75.46620178    0.64999998    2.66000009
   19.53638840   75.46620178    0.64999998    2.66000009
   19.54055595   86.69000244    0.64999998    2.66000009
   19.54361153   87.81349945    0.64999998    2.66000009
   19.54694366   84.24559784    0.70999998    2.66000009
   19.54888916   87.81680298    0.70999998    2.67000008
   19.55055428   87.00749969    0.70999998    2.66000009
   19.55388832   91.59860229    0.70999998    2.67000008
   19.55722237   89.47699738    0.69000000    2.66000009
   19.56027794   86.72000122    0.67000002    2.66000009
   19.56361008   85.94409943    0.67000002    2.66000009
   19.56666756   87.31569672    0.67000002    2.66000009
   19.57000160   86.29519653    0.67000002    2.66000009
   19.57333374   85.70939636    0.67000002    2.66000009
   19.57916832   85.70939636    0.67000002    2.66000009
   19.58305550   87.83000183    0.67000002    2.67000008
   19.58638954   83.83709717    0.67000002    2.66000009
   19.58972359   89.47550201    0.67000002    2.66000009
   19.59277916   87.86949921    0.69000000    2.66000009
   19.59611130   91.51159668    0.67000002    2.66000009
   19.59944534   90.53389740    0.69000000    2.66000009
   19.60250092   84.69190216    0.67000002    2.66000009
   19.60583305   83.23829651    0.69000000    2.66000009
   19.60888863   87.94329834    0.69000000    2.64000010
   19.61222267   83.54460144    0.69000000    2.66000009
   19.61555672   83.28820038    0.69000000    2.66000009
   19.61611176   87.65000153    0.70999998    2.64000010
   19.62194443   87.65000153    0.70999998    2.64000010
   19.62611198   80.00669861    0.70999998    2.66000009
   19.62916756   89.20839691    0.67000002    2.67000008
   19.63249969   81.65989685    0.69000000    2.66000009
   19.63583374   87.59459686    0.69000000    2.66000009
   19.63888931   85.76149750    0.69000000    2.64000010
   19.64222145   87.77290344    0.67000002    2.66000009
   19.64555550   83.98439789    0.69000000    2.64000010
   19.64861107   80.35489655    0.67000002    2.66000009
   19.64944458   88.44470215    0.67000002    2.66000009
   19.65222168   85.81069946    0.69000000    2.64000010
   19.65555573   82.20480347    0.69000000    2.66000009
   19.65888786   88.35810089    0.69000000    2.64000010
   19.66472244   88.35810089    0.69000000    2.64000010
   19.66888809   85.33920288    0.70999998    2.64000010
   19.67222214   85.68250275    0.70999998    2.66000009
   19.67527771   84.69309998    0.70999998    2.66000009
   19.67860985   86.41829681    0.70999998    2.64000010
   19.68166542   92.23899841    0.70999998    2.64000010
   19.68277740   82.19830322    0.70999998    2.64000010
   19.68527603   87.01380157    0.70999998    2.64000010
   19.68861008   86.33519745    0.70999998    2.64000010
   19.69194412   84.96859741    0.70999998    2.64000010
   19.69499969   83.55870056    0.70999998    2.64000010
   19.69833183   85.11329651    0.70999998    2.64000010
   19.70166779   80.76830292    0.70999998    2.64000010
   19.70750046   80.76830292    0.70999998    2.64000010
   19.71166801   84.32420349    0.70999998    2.64000010
   19.71500015   91.82749939    0.70999998    2.64000010
   19.71611214   86.98490143    0.70999998    2.64000010
   19.71861076   86.74330139    0.70999998    2.64000010
   19.72194481   92.93890381    0.70999998    2.64000010
   19.72527885   85.02279663    0.70999998    2.64000010
   19.72833443   90.26309967    0.70999998    2.64000010
   19.73166656   92.36080170    0.70999998    2.64000010
   19.73500061   84.07679749    0.73000002    2.64000010
   19.73805618   86.03260040    0.73000002    2.64000010
   19.74138832   83.89520264    0.73000002    2.64000010
   19.74444389   84.33519745    0.73000002    2.64000010
   19.75055504   84.33519745    0.70999998    2.64000010
   19.75444412   91.62850189    0.70999998    2.64000010
   19.75777817   95.05619812    0.70999998    2.64000010
   19.76111031   85.44550323    0.70999998    2.64000010
   19.76416588   89.76540375    0.70999998    2.64000010
   19.76749992   93.27829742    0.73000002    2.64000010
   19.77083397   89.52870178    0.75000000    2.64000010
   19.77388954   92.08419800    0.75000000    2.64000010
   19.77722168   93.33869934    0.70999998    2.64000010
   19.78055573   94.58840179    0.73000002    2.61999989
   19.78277779   93.05470276    0.73000002    2.64000010
   19.78388786   90.71549988    0.73000002    2.64000010
   19.78722191   93.77239990    0.73000002    2.61999989
   19.79333305   93.77239990    0.70999998    2.61999989
   19.79749870   91.64550018    0.73000002    2.64000010
   19.80055428   86.74140167    0.70999998    2.61999989
   19.80388832   84.57920074    0.70999998    2.64000010
   19.80722237   95.40380096    0.70999998    2.61999989
   19.81027794   86.89050293    0.70999998    2.61999989
   19.81361008   87.36350250    0.73000002    2.61999989
   19.81611061   91.56369781    0.73000002    2.61999989
   19.81722260   86.23619843    0.73000002    2.61999989
   19.82055664   88.17919922    0.73000002    2.61999989
   19.82389069   94.55310059    0.75000000    2.64000010
   19.82694626   89.07569885    0.79000002    2.61999989
   19.83027840   87.30770111    0.79000002    2.61999989
   19.83611107   87.30770111    0.76999998    2.61999989
   19.84027863   86.12139893    0.75000000    2.61999989
   19.84361267   92.62979889    0.75000000    2.61999989
   19.84666824   90.10410309    0.76999998    2.61999989
   19.84944534   95.87619781    0.80000001    2.61999989
   19.85027885   92.06210327    0.80000001    2.61999989
   19.85361099   95.57710266    0.83999997    2.61999989
   19.85694504   91.94309998    0.83999997    2.61999989
   19.86000061   90.93920135    0.86000001    2.61999989
   19.86333466   90.14700317    0.81999999    2.61999989
   19.86666679   98.99639893    0.81999999    2.61999989
   19.86972237   94.14700317    0.79000002    2.61999989
   19.87305641   90.80840302    0.79000002    2.61999989
   19.87888908   90.80840302    0.79000002    2.61999989
   19.88305473   92.46209717    0.76999998    2.61999989
   19.88638878   91.27929688    0.79000002    2.59999990
   19.88944435   93.66259766    0.79000002    2.61999989
   19.89277840   90.40350342    0.79000002    2.61999989
   19.89611053  101.57599640    0.79000002    2.61999989
   19.89916611   88.08779907    0.79000002    2.59999990
   19.90250015   87.68520355    0.79000002    2.61999989
   19.90583229   91.97920227    0.76999998    2.61999989
   19.90888786   94.48739624    0.79000002    2.61999989
   19.91222191   95.08110046    0.79000002    2.61999989
   19.91555595   93.05120087    0.79000002    2.61999989
   19.91611099   91.69570160    0.79000002    2.61999989
   19.92194366   91.69570160    0.76999998    2.61999989
   19.92583275   86.16320038    0.76999998    2.59999990
   19.92916679   90.31210327    0.76999998    2.59999990
   19.93249893   91.49189758    0.76999998    2.59999990
   19.93555450  106.87999725    0.76999998    2.61999989
   19.93888855  116.79499817    0.76999998    2.59999990
   19.94222069  120.19000244    0.76999998    2.59999990
   19.94527626  138.85299683    0.75000000    2.59999990
   19.94861031  117.53500366    0.76999998    2.59999990
   19.94944382  115.85099792    0.76999998    2.59999990
   19.95194435  130.56199646    0.76999998    2.59999990
   19.95527840  123.85600281    0.76999998    2.59999990
   19.95861244  113.66699982    0.76999998    2.59999990
   19.96472359  113.66699982    0.76999998    2.61999989
   19.96888924   -1.00000000    0.76999998    2.59999990
   19.97194481   -1.00000000    0.76999998    2.59999990
   19.97527885   -1.00000000    0.76999998    2.57999992
   19.97861099   -1.00000000    0.76999998    2.59999990
   19.98166656   -1.00000000    0.75000000    2.59999990
   19.98527718   -1.00000000    0.75000000    2.59999990
   19.98861122   -1.00000000    0.75000000    2.59999990
   19.99166679   -1.00000000    0.75000000    2.59999990
   19.99500084   -1.00000000    0.75000000    2.59999990
   19.99833298   -1.00000000    0.73000002    2.59999990
   20.00138855   -1.00000000    0.73000002    2.59999990
   20.01166725   -1.00000000    0.70999998    2.59999990
   20.01472282   -1.00000000    0.70999998    2.59999990
   20.01833344   -1.00000000    0.69000000    2.57999992
   20.02166557   -1.00000000    0.69000000    2.59999990
   20.02472115   -1.00000000    0.69000000    2.59999990
   20.02805519   -1.00000000    0.69000000    2.59999990
   20.03138924   -1.00000000    0.69000000    2.59999990
   20.03444481   -1.00000000    0.69000000    2.57999992
   20.03777695   -1.00000000    0.69000000    2.59999990
   20.04083252   -1.00000000    0.70999998    2.59999990
   20.04416656   -1.00000000    0.70999998    2.59999990
   20.05444336   -1.00000000    0.69000000    2.57999992
   20.05749893   -1.00000000    0.69000000    2.57999992
   20.06083298   -1.00000000    0.69000000    2.57999992
   20.06416512   -1.00000000    0.69000000    2.57999992
   20.06722260   -1.00000000    0.69000000    2.57999992
   20.07055664   -1.00000000    0.69000000    2.57999992
   20.07389069   -1.00000000    0.70999998    2.57999992
   20.07694626   -1.00000000    0.70999998    2.59999990
   20.08027840   -1.00000000    0.70999998    2.57999992
   20.08388901   -1.00000000    0.70999998    2.57999992
   20.08722305   -1.00000000    0.70999998    2.57999992
   20.09722328   -1.00000000    0.70999998    2.57999992
   20.10055542   -1.00000000    0.70999998    2.57999992
