    HOUR (UT)   FLARE FACTOR    SKY TESTER    SUN TESTER
   11.44499969   -1.00000000   -1.00000000   -1.00000000
   11.49499989  121.67299652    2.53999996    1.89999998
   11.49805546  102.05300140    2.53999996    1.89999998
   11.50138855  104.47899628    2.53999996    1.89999998
   11.50472260  109.35900116    2.53999996    1.89999998
   11.50777817  104.73300171    2.53999996    1.89999998
   11.51111126  103.61199951    2.53999996    1.91999996
   11.51527786  103.61199951    2.51999998    1.91999996
   11.51944447  124.72799683    2.50000000    1.91999996
   11.52250004  135.12899780    2.48000002    1.89999998
   11.52583313  117.47699738    2.44000006    1.91999996
   11.52833271  130.32600403    2.39000010    1.94000006
   11.52944374  114.58200073    2.36999989    1.91999996
   11.53277779  129.05999756    2.30999994    1.89999998
   11.53583336  124.56700134    2.30999994    1.89999998
   11.53916740  121.47000122    2.32999992    1.91999996
   11.54250050  122.81099701    2.32999992    1.94000006
   11.54555607  136.74200439    2.32999992    1.94000006
   11.54888916  116.03800201    2.28999996    1.94000006
   11.55222225  138.46000671    2.26999998    1.94000006
   11.55805588  138.46000671    2.30999994    1.96000004
   11.56222248  130.41400146    2.34999990    1.96000004
   11.56527805  149.76600647    2.36999989    1.96000004
   11.56861115  147.05999756    2.34999990    1.96000004
   11.57194424  156.68299866    2.34999990    1.96000004
   11.57499981  151.03500366    2.32999992    1.98000002
   11.57833290  136.06300354    2.28999996    1.96000004
   11.58166695  144.10099792    2.25000000    1.98000002
   11.58472157  149.26699829    2.21000004    1.98000002
   11.58805561  147.02900696    2.19000006    1.98000002
   11.59111118  142.48199463    2.15000010    2.00000000
   11.59444427  161.30099487    2.11999989    2.00000000
   11.59499931  149.44299316    2.11999989    2.00000000
   11.60083389  149.44299316    2.09999990    2.00000000
   11.60500050  164.29200745    2.09999990    2.00000000
   11.60833359  161.30700684    2.09999990    2.00000000
   11.61138916  162.77200317    2.09999990    2.00000000
   11.61472225  178.77699280    2.09999990    2.00000000
   11.61805534  170.72700500    2.07999992    2.00000000
   11.62111092  175.97500610    2.07999992    2.01999998
   11.62444496  181.91900635    2.05999994    2.01999998
   11.62750053  173.00199890    2.03999996    2.01999998
   11.62833309  184.22099304    2.03999996    2.01999998
   11.63138866  174.87100220    2.01999998    2.01999998
   11.63444424  186.72500610    2.00000000    2.03999996
   11.63777733  178.77900696    1.98000002    2.03999996
   11.64361095  178.77900696    1.94000006    2.03999996
   11.64777756  171.72999573    1.91999996    2.03999996
   11.65111065  167.01199341    1.89999998    2.03999996
   11.65444374  183.23699951    1.89999998    2.03999996
   11.65749931  163.22300720    1.88000000    2.03999996
   11.66083336  167.25000000    1.88000000    2.05999994
   11.66166592  169.44000244    1.88000000    2.05999994
   11.66444397  172.39900208    1.88000000    2.05999994
   11.66750050  168.32600403    1.88000000    2.05999994
   11.67083359  164.96699524    1.86000001    2.05999994
   11.67416668  176.98800659    1.86000001    2.05999994
   11.67722225  170.84599304    1.86000001    2.07999992
   11.68055630  171.49600220    1.85000002    2.07999992
   11.68666649  171.49600220    1.83000004    2.07999992
   11.69083309  174.62699890    1.83000004    2.09999990
   11.69388866  186.05599976    1.83000004    2.07999992
   11.69499969  170.01899719    1.83000004    2.09999990
   11.69777775  170.16400146    1.80999994    2.09999990
   11.70083332  177.49600220    1.80999994    2.07999992
   11.70416641  178.44500732    1.80999994    2.09999990
   11.70749950  192.74499512    1.80999994    2.09999990
   11.71055508  183.35000610    1.80999994    2.09999990
   11.71388912  196.25300598    1.80999994    2.09999990
   11.71694374  178.88200378    1.80999994    2.09999990
   11.72027779  159.68400574    1.78999996    2.09999990
   11.72361088  177.88699341    1.78999996    2.11999989
   11.72944355  177.88699341    1.78999996    2.09999990
   11.73361111  171.89300537    1.80999994    2.11999989
   11.73666668  162.81300354    1.80999994    2.11999989
   11.74000072  160.45599365    1.80999994    2.11999989
   11.74333382  179.01400757    1.80999994    2.11999989
   11.74638939  168.86399841    1.80999994    2.11999989
   11.74972248  156.47599792    1.78999996    2.11999989
   11.75305557  165.19500732    1.78999996    2.11999989
   11.75611115  174.98199463    1.80999994    2.13000011
   11.75944424  165.69400024    1.78999996    2.11999989
   11.76166630  165.08700562    1.78999996    2.13000011
   11.76305580  168.37899780    1.78999996    2.13000011
   11.76611137  170.19999695    1.76999998    2.13000011
   11.77222157  170.19999695    1.76999998    2.13000011
   11.77638817  157.79100037    1.75000000    2.13000011
   11.77972221  159.55299377    1.75000000    2.13000011
   11.78277779  167.96099854    1.75000000    2.13000011
   11.78611183  156.19200134    1.75000000    2.13000011
   11.78944492  162.69999695    1.75000000    2.15000010
   11.79250050  153.95500183    1.73000002    2.13000011
   11.79500008  160.36799622    1.73000002    2.13000011
   11.79638958  158.32499695    1.73000002    2.13000011
   11.79944515  155.82200623    1.73000002    2.13000011
   11.80277824  157.83799744    1.73000002    2.15000010
   11.80611134  156.57800293    1.73000002    2.15000010
   11.80916691  162.80999756    1.73000002    2.15000010
   11.81527805  162.80999756    1.73000002    2.15000010
   11.81916618  146.42399597    1.69000006    2.15000010
   11.82250023  155.47599792    1.69000006    2.17000008
   11.82583332  145.96600342    1.69000006    2.17000008
   11.82833290  150.97599792    1.69000006    2.17000008
   11.82944393  146.27600098    1.66999996    2.17000008
   11.83249950  155.26300049    1.66999996    2.17000008
   11.83583260  159.36500549    1.66999996    2.17000008
   11.83916664  149.60099792    1.66999996    2.17000008
   11.84222221  156.36399841    1.66999996    2.19000006
   11.84555531  148.62800598    1.64999998    2.19000006
   11.84888840  149.40299988    1.64999998    2.19000006
   11.85194492  155.89999390    1.64999998    2.19000006
   11.85805607  155.89999390    1.66999996    2.19000006
   11.86222267  166.72399902    1.64999998    2.19000006
   11.86527824  150.37100220    1.64999998    2.21000004
   11.86861134  150.44099426    1.64999998    2.21000004
   11.87194443  146.05799866    1.64999998    2.21000004
   11.87500000  152.12100220    1.64999998    2.21000004
   11.87833309  155.29600525    1.64999998    2.21000004
   11.88138866  145.79400635    1.64999998    2.21000004
   11.88472176  157.83099365    1.64999998    2.19000006
   11.88805580  160.70700073    1.64999998    2.19000006
   11.89111137  149.08099365    1.64999998    2.19000006
   11.89444447  151.20500183    1.64999998    2.21000004
   11.89499950  153.79299927    1.64999998    2.21000004
   11.90083313  153.79299927    1.63000000    2.21000004
   11.90499973  147.02999878    1.63000000    2.21000004
   11.90805531  141.32200623    1.63000000    2.21000004
   11.91138840  143.02299500    1.63000000    2.23000002
   11.91472149  146.16299438    1.63000000    2.23000002
   11.91777802  141.64599609    1.63000000    2.21000004
   11.92111111  150.72599792    1.63000000    2.23000002
   11.92444515  150.70899963    1.63000000    2.23000002
   11.92750072  147.59800720    1.63000000    2.23000002
   11.92833328  143.55999756    1.63000000    2.23000002
   11.93111134  155.78700256    1.63000000    2.23000002
   11.93416691  164.99000549    1.63000000    2.25000000
   11.93750000  147.52000427    1.63000000    2.25000000
   11.94361115  147.52000427    1.61000001    2.25000000
   11.94777775  141.76699829    1.60000002    2.23000002
   11.95111084  135.14999390    1.61000001    2.25000000
   11.95416641  138.27099609    1.60000002    2.25000000
   11.95749950  138.90899658    1.60000002    2.25000000
   11.96083355  144.45599365    1.60000002    2.25000000
   11.96166611  138.90100098    1.60000002    2.25000000
   11.96444416  138.69599915    1.60000002    2.25000000
   11.96777725  139.26199341    1.58000004    2.25000000
   11.97083282  131.87500000    1.58000004    2.25000000
   11.97416592  136.82899475    1.58000004    2.25000000
   11.97722149  140.35899353    1.58000004    2.26999998
   11.98055553  133.83099365    1.58000004    2.25000000
   11.98666668  133.83099365    1.55999994    2.26999998
   11.99055576  123.80799866    1.55999994    2.25000000
   11.99388885  131.43099976    1.53999996    2.26999998
   11.99499989  138.32200623    1.53999996    2.26999998
   11.99750042  138.95300293    1.53999996    2.26999998
   12.00055599  137.30599976    1.53999996    2.26999998
   12.00388908  135.57000732    1.51999998    2.26999998
   12.00722218  133.46499634    1.51999998    2.26999998
   12.01027775  126.32599640    1.51999998    2.28999996
   12.01361084  137.82899475    1.51999998    2.26999998
   12.01694393  129.04400635    1.48000002    2.28999996
   12.01999950  131.87399292    1.48000002    2.28999996
   12.02333355  129.45500183    1.48000002    2.28999996
   12.02944374  129.45500183    1.48000002    2.28999996
   12.03361130  127.48899841    1.46000004    2.28999996
   12.03666687  126.86799622    1.46000004    2.28999996
   12.04000092  125.98699951    1.48000002    2.30999994
   12.04333401  138.45599365    1.46000004    2.28999996
   12.04638958  133.15499878    1.46000004    2.28999996
   12.04972267  134.27499390    1.46000004    2.28999996
   12.05277824  136.21499634    1.46000004    2.30999994
   12.05611134  133.16099548    1.44000006    2.28999996
   12.05944443  141.49800110    1.44000006    2.28999996
   12.06166649  126.06900024    1.44000006    2.30999994
   12.06305599  125.47899628    1.46000004    2.30999994
   12.06638908  138.19299316    1.46000004    2.30999994
   12.07222176  138.19299316    1.46000004    2.30999994
   12.07638836  130.94299316    1.44000006    2.30999994
   12.07944393  124.06099701    1.44000006    2.30999994
   12.08277798  128.24499512    1.46000004    2.32999992
   12.08611107  125.64600372    1.44000006    2.30999994
   12.08916664  130.51499939    1.44000006    2.30999994
   12.09249973  136.84599304    1.44000006    2.30999994
   12.09499931  132.79299927    1.44000006    2.30999994
   12.09611034  127.11599731    1.44000006    2.30999994
   12.09944439  134.10400391    1.44000006    2.30999994
   12.10249996  128.94900513    1.44000006    2.30999994
   12.10583401  133.52999878    1.44000006    2.32999992
   12.10888958  135.50100708    1.44000006    2.32999992
   12.11500072  135.50100708    1.41999996    2.32999992
   12.11916637  132.27099609    1.41999996    2.32999992
   12.12250042  123.31800079    1.41999996    2.30999994
   12.12555599  123.23500061    1.41999996    2.32999992
   12.12833309  125.40599823    1.41999996    2.32999992
   12.12944412  126.12200165    1.41999996    2.32999992
   12.13277817  124.58499908    1.41999996    2.34999990
   12.13583279  128.14399719    1.39999998    2.32999992
   12.13916683  132.55200195    1.39999998    2.32999992
   12.14249992  126.15000153    1.39999998    2.32999992
   12.14555550  128.63000488    1.39999998    2.32999992
   12.14888859  129.30099487    1.39999998    2.32999992
   12.15194416  133.66999817    1.39999998    2.34999990
   12.15777779  133.66999817    1.38000000    2.34999990
   12.16194439  124.46399689    1.38000000    2.34999990
   12.16527748  122.48500061    1.38000000    2.34999990
   12.16861153  115.73200226    1.38000000    2.34999990
   12.17166710  111.50900269    1.38000000    2.34999990
   12.17500019  116.72000122    1.38000000    2.34999990
   12.17833328  127.58899689    1.38000000    2.34999990
   12.18138885  121.56700134    1.38000000    2.34999990
   12.18472195  123.26499939    1.38000000    2.34999990
   12.18777752  128.84399414    1.38000000    2.36999989
   12.19111156  103.36699677    1.36000001    2.36999989
   12.19444466  125.06999969    1.36000001    2.36999989
   12.19499969  125.38600159    1.36000001    2.36999989
   12.20083332  125.38600159    1.36000001    2.36999989
   12.20499992  118.26399994    1.36000001    2.34999990
   12.20805550  126.37899780    1.34000003    2.36999989
   12.21138859  113.33499908    1.34000003    2.36999989
   12.21444416  112.02100372    1.34000003    2.36999989
   12.21777725  122.02600098    1.34000003    2.39000010
   12.22111034  139.51300049    1.34000003    2.39000010
   12.22416592  139.38400269    1.33000004    2.39000010
   12.22749996  135.46400452    1.33000004    2.39000010
   12.22833252  122.76599884    1.33000004    2.39000010
   12.23111057  121.75700378    1.33000004    2.39000010
   12.23444462  115.68299866    1.33000004    2.39000010
   12.23750019  121.38999939    1.33000004    2.39000010
   12.24361134  121.38999939    1.30999994    2.39000010
   12.24777794  114.83399963    1.30999994    2.39000010
   12.25111103  107.88099670    1.30999994    2.39000010
   12.25444412  116.62200165    1.28999996    2.40000010
   12.25749969  117.16699982    1.30999994    2.39000010
   12.26083374  118.38400269    1.28999996    2.39000010
   12.26166630  115.46099854    1.28999996    2.39000010
   12.26444435  122.08999634    1.28999996    2.39000010
   12.26777744  117.27600098    1.28999996    2.39000010
   12.27083302  118.23799896    1.30999994    2.39000010
   12.27416611  126.59400177    1.30999994    2.39000010
   12.27722168  116.15599823    1.28999996    2.39000010
   12.28055573  123.05699921    1.30999994    2.39000010
   12.28638935  123.05699921    1.28999996    2.40000010
   12.29055595  142.31700134    1.28999996    2.40000010
   12.29388905  131.96299744    1.28999996    2.40000010
   12.29500008  119.66400146    1.28999996    2.40000010
   12.29750061  120.70500183    1.28999996    2.40000010
   12.30083370  119.39600372    1.26999998    2.40000010
   12.30388927  125.37300110    1.26999998    2.40000010
   12.30722237  123.04699707    1.26999998    2.39000010
   12.31055546  126.34400177    1.26999998    2.40000010
   12.31361103  125.75299835    1.26999998    2.40000010
   12.31694412  113.48999786    1.28999996    2.40000010
   12.31999969  122.86900330    1.28999996    2.40000010
   12.32333374  115.57900238    1.28999996    2.42000008
   12.32916641  115.57900238    1.28999996    2.42000008
   12.33333302  106.84700012    1.30999994    2.40000010
   12.33666611  111.39700317    1.28999996    2.42000008
   12.34000015  113.74800110    1.28999996    2.42000008
   12.34305477  114.80100250    1.30999994    2.40000010
   12.34638882  114.00599670    1.30999994    2.42000008
   12.34944439  128.22399902    1.30999994    2.42000008
   12.35277843  128.75700378    1.28999996    2.42000008
   12.35611153  136.17799377    1.30999994    2.42000008
   12.35916710  129.37100220    1.28999996    2.42000008
   12.36166668  131.01499939    1.30999994    2.42000008
   12.36277771  122.76799774    1.28999996    2.42000008
   12.36611176  125.97000122    1.28999996    2.42000008
   12.37222195  125.97000122    1.28999996    2.42000008
   12.37638855  114.00199890    1.28999996    2.44000006
   12.37944412  111.28600311    1.26999998    2.42000008
   12.38277817  115.33599854    1.26999998    2.42000008
   12.38611126  108.13700104    1.26999998    2.42000008
   12.38916683  115.41600037    1.25000000    2.42000008
   12.39249992  118.41300201    1.25000000    2.42000008
   12.39499950  115.38300323    1.23000002    2.44000006
   12.39611053  121.05300140    1.23000002    2.44000006
   12.39944458  114.92900085    1.23000002    2.44000006
   12.40249920  114.14900208    1.23000002    2.44000006
   12.40583324  116.64600372    1.21000004    2.44000006
   12.40916634  100.73600006    1.21000004    2.44000006
   12.41499996  100.73600006    1.19000006    2.46000004
   12.41916656  106.26899719    1.19000006    2.44000006
   12.42222214  127.07900238    1.16999996    2.44000006
   12.42555618  109.94699860    1.19000006    2.44000006
   12.42833328  122.06500244    1.19000006    2.46000004
   12.42916679  105.98300171    1.19000006    2.46000004
   12.43249989  120.17900085    1.16999996    2.46000004
   12.43555546  116.96099854    1.16999996    2.46000004
   12.43888855  110.26599884    1.19000006    2.46000004
   12.44222260  104.95700073    1.16999996    2.46000004
   12.44527817  107.26100159    1.16999996    2.46000004
   12.44861126  110.29599762    1.16999996    2.46000004
   12.45166683  103.43199921    1.16999996    2.46000004
   12.45777798  103.43199921    1.16999996    2.48000002
   12.46194458  102.47599792    1.19000006    2.46000004
   12.46527767  106.07299805    1.19000006    2.46000004
   12.46833324  104.65599823    1.19000006    2.46000004
   12.47166634   99.75080109    1.19000006    2.46000004
   12.47499943   94.22299957    1.19000006    2.46000004
   12.47833252  102.63300323    1.19000006    2.46000004
   12.48138809  114.09899902    1.19000006    2.46000004
   12.48472214  108.58799744    1.19000006    2.46000004
   12.48805618  106.25499725    1.19000006    2.46000004
   12.49111176  101.15599823    1.19000006    2.46000004
   12.49444485  111.90899658    1.16999996    2.46000004
   12.49499989  122.58300018    1.16999996    2.46000004
   12.51583290  122.58300018    1.14999998    2.48000002
   12.51999950  157.62899780    1.14999998    2.48000002
   12.52333355  182.96299744    1.14999998    2.46000004
   12.52638817  179.27600098    1.14999998    2.48000002
   12.52833271  146.55400085    1.14999998    2.48000002
   12.52999973  155.66900635    1.13000000    2.48000002
   12.53333378  170.28999329    1.13000000    2.48000002
   12.53638935  165.36999512    1.13000000    2.48000002
   12.53972244  159.72399902    1.13000000    2.48000002
   12.54305553  161.51100159    1.13000000    2.48000002
   12.54611111  161.13800049    1.13000000    2.48000002
   12.54944515  165.71699524    1.13000000    2.48000002
   12.55277824  165.62399292    1.11000001    2.50000000
   12.55861092  165.62399292    1.11000001    2.50000000
   12.56277752  188.25999451    1.11000001    2.48000002
   12.56611156  189.71200562    1.11000001    2.48000002
   12.56916618  151.17599487    1.11000001    2.48000002
   12.57250023  154.68200684    1.09000003    2.48000002
   12.57555580  147.92999268    1.09000003    2.48000002
   12.57888889  172.45899963    1.11000001    2.50000000
   12.58222198  191.17799377    1.09000003    2.48000002
   12.58527756  178.58099365    1.09000003    2.48000002
   12.58861065  164.33200073    1.09000003    2.48000002
   12.59194374  220.37100220    1.09000003    2.50000000
   12.59527779  170.68600464    1.09000003    2.50000000
   12.59555531  185.43600464    1.09000003    2.50000000
   12.60138893  185.43600464    1.07000005    2.50000000
   12.60555553  169.83900452    1.07000005    2.50000000
   12.60888958  182.54600525    1.07000005    2.50000000
   12.61194515  175.39100647    1.07000005    2.50000000
   12.61527824  178.24000549    1.05999994    2.50000000
   12.61861134  195.99899292    1.05999994    2.50000000
   12.62166691  171.32899475    1.05999994    2.50000000
   12.62500000  189.28500366    1.05999994    2.50000000
   12.62833309  190.32000732    1.03999996    2.51999998
   12.62861156  161.75799561    1.03999996    2.51999998
   12.63194466  181.42999268    1.03999996    2.51999998
   12.63527775  174.99099731    1.01999998    2.50000000
   12.63833332  199.81700134    1.01999998    2.51999998
   12.64444447  199.81700134    1.01999998    2.51999998
   12.64833355  204.91799927    1.01999998    2.50000000
   12.65166664  196.87399292    1.01999998    2.51999998
   12.65499973  223.22900391    1.01999998    2.51999998
   12.65805531  200.86500549    1.01999998    2.51999998
   12.66138840  206.80499268    1.01999998    2.51999998
   12.66222191  173.18299866    1.01999998    2.51999998
   12.66499996  166.21600342    1.01999998    2.51999998
   12.66833401  177.78999329    1.01999998    2.51999998
   12.67138958  186.52600098    1.01999998    2.51999998
   12.67472267  174.51100159    1.01999998    2.51999998
   12.67805576  182.96299744    1.01999998    2.51999998
   12.68111134  163.61900330    1.01999998    2.51999998
   12.68722248  163.61900330    1.00000000    2.50000000
   12.69138908  193.98500061    1.00000000    2.51999998
   12.69444466  173.25599670    1.00000000    2.53999996
   12.69555569  174.14799500    1.00000000    2.53999996
   12.69805527  162.39599609    1.01999998    2.53999996
   12.70138836  141.82299805    1.01999998    2.51999998
   12.70444393  173.15100098    1.01999998    2.53999996
   12.70777798  173.61399841    1.01999998    2.53999996
   12.71111107  156.02099609    1.00000000    2.51999998
   12.71416664  157.58799744    1.00000000    2.53999996
   12.71749973  125.42700195    1.00000000    2.53999996
   12.72083282  164.83299255    0.98000002    2.53999996
   12.72388840  167.53500366    0.98000002    2.53999996
   12.72999954  167.53500366    0.98000002    2.53999996
   12.73444462  142.17599487    1.00000000    2.53999996
   12.73750019  171.73800659    0.98000002    2.53999996
   12.74083328  150.30999756    0.95999998    2.53999996
   12.74388885  181.63900757    0.95999998    2.53999996
   12.74722290  194.71800232    0.95999998    2.53999996
   12.75055599  171.86700439    0.95999998    2.53999996
   12.75361156  169.83399963    0.94000000    2.53999996
   12.75694466  181.79299927    0.94000000    2.55999994
   12.76027775  170.80599976    0.94000000    2.53999996
   12.76222229  158.67799377    0.94000000    2.53999996
   12.76361084  165.43499756    0.94000000    2.55999994
   12.76694393  145.81500244    0.94000000    2.55999994
   12.77277756  145.81500244    0.94000000    2.53999996
   12.77694416  148.29200745    0.94000000    2.53999996
   12.78027725  147.03599548    0.94000000    2.55999994
   12.78333378  144.52900696    0.92000002    2.53999996
   12.78666687  140.38299561    0.92000002    2.53999996
   12.79000092  147.58900452    0.92000002    2.55999994
   12.79305553  137.82699585    0.92000002    2.53999996
   12.79555607  137.35299683    0.92000002    2.53999996
   12.79666710  143.76600647    0.92000002    2.53999996
   12.80000019  139.64500427    0.89999998    2.53999996
   12.80333328  128.57899475    0.89999998    2.53999996
   12.80638885  137.63600159    0.89999998    2.55999994
   12.80972195  147.79899597    0.89999998    2.55999994
   12.81555557  147.79899597    0.89999998    2.55999994
   12.81972218  134.46699524    0.92000002    2.53999996
   12.82305527  131.22599792    0.92000002    2.55999994
   12.82638836  129.94500732    0.92000002    2.55999994
   12.82888889  134.82600403    0.92000002    2.55999994
   12.82972240  116.89800262    0.89999998    2.55999994
   12.83305550  126.36599731    0.89999998    2.55999994
   12.83638859  131.05799866    0.92000002    2.53999996
   12.83944416  125.35600281    0.92000002    2.55999994
   12.84277725  132.09399414    0.89999998    2.55999994
   12.84611034  137.85899353    0.89999998    2.55999994
   12.84916592  156.96299744    0.89999998    2.57999992
   12.85249996  161.77200317    0.88000000    2.55999994
   12.85861111  161.77200317    0.88000000    2.55999994
   12.86277771  141.24299622    0.88000000    2.55999994
   12.86583328  142.16000366    0.88000000    2.55999994
   12.86916637  161.10600281    0.88000000    2.55999994
   12.87222195  146.02799988    0.88000000    2.57999992
   12.87555599  155.19500732    0.86000001    2.57999992
   12.87888908  138.18699646    0.86000001    2.57999992
   12.88194466  160.57400513    0.86000001    2.55999994
   12.88527775  134.79899597    0.86000001    2.55999994
   12.88861084  139.07600403    0.86000001    2.55999994
   12.89166641  151.88099670    0.86000001    2.55999994
   12.89499950  128.59100342    0.88000000    2.57999992
   12.89555550  146.98300171    0.88000000    2.57999992
   12.90138817  146.98300171    0.86000001    2.57999992
   12.90555477  127.39900208    0.88000000    2.55999994
   12.90888882  126.20800018    0.86000001    2.57999992
   12.91194439  125.32700348    0.86000001    2.57999992
   12.91527748  124.06900024    0.86000001    2.57999992
   12.91833401  117.78900146    0.86000001    2.57999992
   12.92166710  133.57000732    0.86000001    2.57999992
   12.92500019  127.85199738    0.86000001    2.57999992
   12.92805576  122.94699860    0.83999997    2.57999992
   12.92888927  129.55799866    0.83999997    2.57999992
   12.93194485  136.70599365    0.81999999    2.57999992
   12.93500042  122.20300293    0.83999997    2.57999992
   12.93833351  124.97599792    0.81999999    2.57999992
   12.94416714  124.97599792    0.83999997    2.57999992
   12.94833374  126.63099670    0.83999997    2.59999990
   12.95166683  112.87100220    0.83999997    2.59999990
   12.95472240  128.51800537    0.81999999    2.57999992
   12.95805550  118.92400360    0.81999999    2.57999992
   12.96138859  118.25700378    0.81999999    2.57999992
   12.96222210  129.74400330    0.81999999    2.57999992
   12.96472168  125.48300171    0.81999999    2.57999992
   12.96805477  116.55999756    0.81999999    2.59999990
   12.97138882  136.65600586    0.81999999    2.59999990
   12.97444439  122.37300110    0.81999999    2.59999990
   12.97777748  134.61900330    0.81999999    2.59999990
   12.98111057  124.98200226    0.83999997    2.57999992
   12.98694515  124.98200226    0.81999999    2.61999989
   12.99111176  132.58200073    0.81999999    2.59999990
   12.99444485  123.20800018    0.81999999    2.57999992
   12.99555588  131.40499878    0.81999999    2.57999992
   12.99833393  122.82099915    0.81999999    2.57999992
   13.00138855  132.36099243    0.81999999    2.59999990
   13.00472260  128.89599609    0.81999999    2.59999990
   13.00777817  130.10800171    0.81999999    2.59999990
   13.01111126  130.49299622    0.80000001    2.57999992
   13.01444435  128.52600098    0.80000001    2.59999990
   13.01749992  139.36399841    0.80000001    2.59999990
   13.02083302  141.66099548    0.80000001    2.59999990
   13.02416611  139.41200256    0.80000001    2.59999990
   13.02999973  139.41200256    0.80000001    2.59999990
   13.03416729  115.77799988    0.80000001    2.59999990
   13.03722286  106.37799835    0.80000001    2.59999990
   13.04055595  122.18199921    0.80000001    2.59999990
   13.04361153  121.51399994    0.79000002    2.59999990
   13.04694462  118.02999878    0.80000001    2.59999990
   13.05027771  120.26699829    0.80000001    2.59999990
   13.05333328  139.28399658    0.80000001    2.59999990
   13.05666733  107.93000031    0.80000001    2.59999990
   13.06000042  111.96700287    0.80000001    2.59999990
   13.06222248  126.21800232    0.80000001    2.61999989
   13.06361103  126.15399933    0.80000001    2.61999989
   13.06666660  118.40499878    0.80000001    2.59999990
   13.07277775  118.40499878    0.79000002    2.59999990
   13.07694435  125.69799805    0.79000002    2.59999990
   13.07999992  136.68400574    0.79000002    2.59999990
   13.08333302  124.64499664    0.79000002    2.59999990
   13.08666611  122.69799805    0.79000002    2.59999990
   13.08972168  138.72200012    0.79000002    2.59999990
   13.09305477  111.15200043    0.79000002    2.59999990
   13.09555531  107.03900146    0.79000002    2.59999990
   13.09666634  121.16300201    0.79000002    2.59999990
   13.10000038  121.73300171    0.80000001    2.59999990
   13.10333347  106.95200348    0.79000002    2.59999990
   13.10638905  118.54699707    0.79000002    2.61999989
   13.10972214  106.57399750    0.79000002    2.61999989
   13.11555576  106.57399750    0.79000002    2.61999989
   13.11972237  119.58999634    0.79000002    2.61999989
   13.12305546  102.21099854    0.79000002    2.59999990
   13.12611103  110.07700348    0.76999998    2.61999989
   13.12888908  109.04199982    0.79000002    2.64000010
   13.13000011  109.51300049    0.76999998    2.61999989
   13.13305569  116.11900330    0.76999998    2.61999989
   13.13638878  110.18000031    0.76999998    2.61999989
   13.13944435  100.89700317    0.76999998    2.61999989
   13.14277744  109.40599823    0.76999998    2.61999989
   13.14611053  113.04699707    0.76999998    2.61999989
   13.14916611  106.98799896    0.76999998    2.61999989
   13.15249920  117.15699768    0.76999998    2.61999989
   13.15833282  117.15699768    0.76999998    2.64000010
   13.16249943  105.37599945    0.76999998    2.61999989
   13.16583252  103.84999847    0.76999998    2.59999990
   13.16916656  105.69599915    0.76999998    2.61999989
   13.17222214  105.50499725    0.76999998    2.59999990
   13.17555618  110.56300354    0.76999998    2.61999989
   13.17888927  112.64600372    0.76999998    2.61999989
   13.18194485  116.53800201    0.76999998    2.61999989
   13.18527794  104.69699860    0.79000002    2.61999989
   13.18833351  108.27799988    0.79000002    2.61999989
   13.19166660  105.09300232    0.79000002    2.61999989
   13.19499969  119.15499878    0.79000002    2.61999989
   13.19555569  112.59799957    0.79000002    2.61999989
   13.20138836  112.59799957    0.79000002    2.64000010
   13.20555496  103.86399841    0.79000002    2.61999989
   13.20861053  103.70600128    0.79000002    2.61999989
   13.21194458  103.10099792    0.79000002    2.61999989
   13.21527767   88.70839691    0.79000002    2.64000010
   13.21833324   98.71820068    0.79000002    2.61999989
   13.22166634  112.59400177    0.79000002    2.61999989
   13.22472191   99.53019714    0.80000001    2.61999989
   13.22805500  107.80100250    0.79000002    2.61999989
   13.22888851  105.25900269    0.79000002    2.61999989
   13.23194408   95.64479828    0.79000002    2.64000010
   13.23527813   88.78450012    0.79000002    2.64000010
   13.23833370  100.44000244    0.79000002    2.64000010
   13.24416733  100.44000244    0.79000002    2.61999989
   13.24833393  101.83499908    0.76999998    2.64000010
   13.25138855  108.86499786    0.79000002    2.61999989
   13.25472260   97.97550201    0.79000002    2.64000010
   13.25805569  104.47699738    0.79000002    2.61999989
   13.26111126  109.13800049    0.79000002    2.61999989
   13.26222229  111.80300140    0.79000002    2.61999989
   13.26500034  106.41899872    0.79000002    2.64000010
   13.26805496  107.85399628    0.79000002    2.61999989
   13.27138901  116.38200378    0.76999998    2.64000010
   13.27444458   98.14160156    0.76999998    2.64000010
   13.27777767  107.33999634    0.76999998    2.64000010
   13.28111076   96.87719727    0.79000002    2.64000010
   13.28694534   96.87719727    0.76999998    2.64000010
   13.29111195  114.31400299    0.76999998    2.64000010
   13.29444504  101.94499969    0.76999998    2.64000010
   13.29555607  108.24299622    0.76999998    2.64000010
   13.29805565   99.60849762    0.76999998    2.64000010
   13.30138874  104.56600189    0.76999998    2.64000010
   13.30444431  102.01999664    0.75000000    2.64000010
   13.30777836  106.23699951    0.75000000    2.64000010
   13.31111145   93.80879974    0.73000002    2.64000010
   13.31416702   96.60369873    0.73000002    2.64000010
   13.31750011   96.85340118    0.73000002    2.64000010
   13.32083321   94.96730042    0.73000002    2.64000010
   13.32388878   93.35579681    0.73000002    2.64000010
   13.32972240   93.35579681    0.73000002    2.64000010
   13.33388901  101.51899719    0.70999998    2.64000010
   13.33722210   92.80719757    0.70999998    2.66000009
   13.34055519   88.27729797    0.70999998    2.66000009
   13.34361076   92.53299713    0.73000002    2.64000010
   13.34694386   91.06079865    0.70999998    2.66000009
   13.35000038  104.87899780    0.70999998    2.66000009
   13.35333347   88.30609894    0.70999998    2.64000010
   13.35666752   93.59680176    0.70999998    2.66000009
   13.35972214   85.06199646    0.70999998    2.66000009
   13.36222267   93.98410034    0.70999998    2.66000009
   13.36361122   97.62619781    0.70999998    2.64000010
   13.36666679   90.66729736    0.69000000    2.66000009
   13.37277794   90.66729736    0.69000000    2.66000009
   13.37694454   87.55359650    0.69000000    2.66000009
   13.38000011   94.04609680    0.69000000    2.66000009
   13.38333321  104.00800323    0.69000000    2.66000009
   13.38638878  108.04799652    0.69000000    2.66000009
   13.38972187  119.14299774    0.70999998    2.66000009
   13.39305496   94.47550201    0.69000000    2.64000010
   13.39555550  104.61399841    0.69000000    2.64000010
   13.39666653  103.36199951    0.69000000    2.64000010
   13.39972210  110.57800293    0.69000000    2.67000008
   13.40305519  101.32199860    0.69000000    2.66000009
   13.40611076  102.60099792    0.69000000    2.66000009
   13.40944386   93.04180145    0.69000000    2.66000009
   13.41555500   93.04180145    0.69000000    2.66000009
   13.41972256   99.36219788    0.69000000    2.66000009
   13.42277813   85.70749664    0.69000000    2.66000009
   13.42611122   96.10379791    0.70999998    2.66000009
   13.42888927   93.68930054    0.70999998    2.67000008
   13.43000031   89.70610046    0.70999998    2.67000008
   13.43305588   98.17489624    0.70999998    2.66000009
   13.43638897   90.24939728    0.70999998    2.66000009
   13.43972206   88.35980225    0.69000000    2.66000009
   13.44277763   91.18379974    0.67000002    2.67000008
   13.44611073   88.09310150    0.67000002    2.66000009
   13.44916630   95.64649963    0.67000002    2.67000008
   13.45249939   87.87120056    0.67000002    2.66000009
   13.45833302   87.87120056    0.67000002    2.67000008
   13.46249962   76.98609924    0.64999998    2.66000009
   13.46583271   84.12149811    0.64999998    2.67000008
   13.46888828   92.31099701    0.64999998    2.66000009
   13.47222137   91.73449707    0.67000002    2.66000009
   13.47555542   87.73449707    0.64999998    2.66000009
   13.47861099   88.17870331    0.67000002    2.66000009
   13.48194408   97.66200256    0.64999998    2.66000009
   13.48500061   86.17970276    0.64999998    2.66000009
   13.48833370  111.33999634    0.64999998    2.67000008
   13.49166679   93.48269653    0.67000002    2.67000008
   13.49472237   90.40869904    0.64999998    2.67000008
   13.49555588   82.95480347    0.64999998    2.67000008
   13.50111103   82.95480347    0.64999998    2.67000008
   13.50527763   89.79499817    0.64999998    2.67000008
   13.50861073   86.04190063    0.64999998    2.67000008
   13.51194477   94.83350372    0.64999998    2.67000008
   13.52944374  122.00800323    0.64999998    2.67000008
   13.53194427  101.45200348    0.67000002    2.67000008
   13.53500080  100.30100250    0.64999998    2.69000006
   13.53833389  102.06999969    0.64999998    2.69000006
   13.54416752  102.06999969    0.64999998    2.67000008
   13.54833412  115.45700073    0.64999998    2.67000008
   13.55166721  107.90000153    0.64999998    2.67000008
   13.55472279  115.87400055    0.64999998    2.67000008
   13.55805588  112.53199768    0.64999998    2.67000008
   13.56138897  102.09799957    0.64999998    2.67000008
   13.56277752   99.70860291    0.64999998    2.69000006
   13.56500053  106.44100189    0.64999998    2.69000006
   13.56833363  111.14299774    0.64999998    2.67000008
   13.57166672   98.16010284    0.64999998    2.67000008
   13.57472229  101.48000336    0.64999998    2.67000008
   13.57805538  105.92299652    0.63000000    2.67000008
   13.58111095  114.38899994    0.64999998    2.67000008
   13.58722210  114.38899994    0.64999998    2.67000008
   13.59111118  111.70300293    0.64999998    2.67000008
   13.59444427  106.75099945    0.64999998    2.67000008
   13.59611034  104.96199799    0.64999998    2.67000008
   13.59805489  112.09100342    0.64999998    2.67000008
   13.60138893  111.24900055    0.67000002    2.67000008
   13.60472298  107.16699982    0.67000002    2.67000008
   13.60777855  113.29799652    0.64999998    2.67000008
   13.61111164   99.98190308    0.67000002    2.67000008
   13.61444473  113.62899780    0.67000002    2.67000008
   13.61750031  118.08300018    0.67000002    2.67000008
   13.62083340  108.91000366    0.64999998    2.69000006
   13.62388897  117.80200195    0.64999998    2.67000008
   13.63000011  117.80200195    0.64999998    2.69000006
   13.63416672  134.13400269    0.64999998    2.69000006
   13.63722229  123.11000061    0.64999998    2.69000006
   13.64055538  114.76999664    0.64999998    2.69000006
   13.64361095  114.79799652    0.64999998    2.67000008
   13.64694405  111.18399811    0.64999998    2.67000008
   13.65027714  115.59600067    0.64999998    2.66000009
   13.65361118  114.11499786    0.63000000    2.67000008
   13.65694427  105.79199982    0.64999998    2.67000008
   13.65999985  112.46499634    0.64999998    2.67000008
   13.66277695   98.24449921    0.64999998    2.67000008
   13.66361046  106.15699768    0.64999998    2.67000008
   13.66694450  108.54000092    0.64999998    2.69000006
   13.67277813  108.54000092    0.64999998    2.69000006
   13.67694473  106.14700317    0.63000000    2.69000006
   13.68000031  103.12500000    0.63000000    2.69000006
   13.68333340  101.83399963    0.63000000    2.67000008
   13.68666649  104.17600250    0.63000000    2.69000006
   13.68972206  104.74099731    0.63000000    2.69000006
   13.69305515  101.51499939    0.63000000    2.69000006
   13.69611073  105.07700348    0.63000000    2.69000006
   13.69666672  101.96800232    0.63000000    2.69000006
   13.69999981   86.78949738    0.64999998    2.69000006
   13.70305538  105.07599640    0.63000000    2.71000004
   13.70638847   95.62270355    0.64999998    2.69000006
   13.70972157  108.53500366    0.64999998    2.67000008
   13.71555519  108.53500366    0.63000000    2.69000006
   13.71972179   96.55460358    0.64999998    2.69000006
   13.72305489  110.32900238    0.64999998    2.69000006
   13.72611046  109.94000244    0.63000000    2.69000006
   13.72944355  105.92500305    0.63000000    2.71000004
   13.72972202   96.56189728    0.63000000    2.71000004
   13.73305511  111.16600037    0.63000000    2.71000004
   13.73611164  105.72000122    0.63000000    2.69000006
   13.73944473  111.05300140    0.63000000    2.69000006
   13.74277782  110.54900360    0.63000000    2.69000006
   13.74583340  114.46099854    0.63000000    2.67000008
   13.74916649  107.36499786    0.64999998    2.67000008
   13.75249958  114.59300232    0.64999998    2.69000006
   13.75861073  114.59300232    0.63000000    2.69000006
   13.76277733  105.58999634    0.63000000    2.69000006
   13.76305580  101.05100250    0.63000000    2.69000006
   13.76638889  114.60600281    0.64999998    2.69000006
   13.76944447  108.51000214    0.63000000    2.69000006
   13.77277756  105.51399994    0.63000000    2.69000006
   13.77611065  101.17400360    0.63000000    2.69000006
   13.77916622  107.02400208    0.63000000    2.69000006
   13.78249931  100.71700287    0.63000000    2.69000006
   13.78583336   93.20619965    0.63000000    2.71000004
   13.78888893   95.49400330    0.63000000    2.71000004
   13.79222298  108.23200226    0.63000000    2.69000006
   13.79555607  103.56999969    0.58999997    2.69000006
   13.79611111  100.41100311    0.58999997    2.69000006
   13.80138874  100.41100311    0.56999999    2.71000004
   13.80555534  103.91100311    0.58999997    2.71000004
   13.80861092  100.55999756    0.58999997    2.71000004
   13.81194496   95.44219971    0.58999997    2.71000004
   13.81500053  111.59300232    0.58999997    2.71000004
   13.81833363  107.03399658    0.61000001    2.69000006
   13.82166672   98.04879761    0.61000001    2.69000006
   13.82472229   95.42769623    0.61000001    2.69000006
   13.82805538  104.76200104    0.58999997    2.69000006
   13.82944393  110.63600159    0.58999997    2.69000006
   13.83166695  111.01100159    0.61000001    2.71000004
   13.83500004  105.26100159    0.58999997    2.71000004
   13.83833313  103.47899628    0.58999997    2.69000006
   13.84416676  103.47899628    0.58999997    2.71000004
   13.84833336  105.84300232    0.58999997    2.69000006
   13.85138893  106.22699738    0.58999997    2.69000006
   13.85472298   96.11419678    0.58999997    2.71000004
   13.85805607   97.27610016    0.58999997    2.71000004
   13.86111164   97.08159637    0.58999997    2.71000004
   13.86277771  104.92800140    0.58999997    2.69000006
   13.86472225   99.08470154    0.58999997    2.69000006
   13.86805534   99.09709930    0.61000001    2.69000006
   13.87138939   98.91660309    0.61000001    2.69000006
   13.87444496  104.50399780    0.58999997    2.71000004
   13.87777805  102.25199890    0.58999997    2.71000004
   13.88083363  102.38300323    0.58999997    2.71000004
   13.88694477  102.38300323    0.61000001    2.69000006
   13.89111137  103.35399628    0.61000001    2.69000006
   13.89444447  101.67199707    0.61000001    2.69000006
   13.89611053  108.23799896    0.61000001    2.69000006
   13.89805508  100.75399780    0.61000001    2.69000006
   13.90138817  104.93499756    0.61000001    2.71000004
   13.90472221  107.15599823    0.61000001    2.71000004
   13.90777779  101.40699768    0.61000001    2.71000004
   13.91111088  116.92099762    0.61000001    2.71000004
   13.91444397   97.94210052    0.58999997    2.69000006
   13.91750050   99.97319794    0.58999997    2.71000004
   13.92083359  107.55699921    0.61000001    2.71000004
   13.92388916  102.36100006    0.58999997    2.71000004
   13.92972279  102.36100006    0.58999997    2.71000004
   13.93388939  179.75199890    0.58999997    2.71000004
   13.93722248  111.78099823    0.58999997    2.71000004
   13.94055557  115.73699951    0.58999997    2.71000004
   13.94361115  112.37899780    0.58999997    2.71000004
   13.94694424  108.74600220    0.58999997    2.71000004
   13.95027733  102.88300323    0.56999999    2.71000004
   13.95333290  113.32499695    0.56999999    2.71000004
   13.95666695  109.58999634    0.56999999    2.71000004
   13.95972157  110.49099731    0.56999999    2.71000004
   13.96277714  114.46099854    0.56999999    2.71000004
   13.96333313  111.62999725    0.56999999    2.71000004
   13.96666622  105.44499969    0.56999999    2.71000004
   13.97277737  105.44499969    0.56999999    2.71000004
   13.97694397   97.41799927    0.56999999    2.71000004
   13.97999954   94.25620270    0.58999997    2.71000004
   13.98333359   91.83910370    0.56999999    2.71000004
   13.98638916  104.83200073    0.56999999    2.71000004
   13.98972225   99.47779846    0.56999999    2.71000004
   13.99305534  104.16100311    0.56999999    2.71000004
   13.99611092  106.76599884    0.58999997    2.71000004
   13.99638939   98.10230255    0.56999999    2.71000004
   13.99972248   97.16609955    0.56999999    2.71000004
   14.00305557   99.64779663    0.56999999    2.71000004
   14.00611115  101.35600281    0.56999999    2.73000002
   14.00944424   94.68830109    0.56999999    2.71000004
   14.01555538   94.68830109    0.58999997    2.73000002
   14.01972198  100.51599884    0.58999997    2.69000006
   14.02277756  100.86199951    0.58999997    2.71000004
   14.02611065  104.06400299    0.58999997    2.71000004
   14.02944374   97.59140015    0.58999997    2.71000004
   14.02972221  100.14099884    0.58999997    2.71000004
   14.03305531   98.92649841    0.58999997    2.71000004
   14.03638935   94.80909729    0.58999997    2.71000004
   14.03944492   94.50189972    0.56999999    2.71000004
   14.04277802   95.88169861    0.56999999    2.71000004
   14.04583359  101.00099945    0.56999999    2.69000006
   14.04916668   93.78060150    0.55000001    2.71000004
   14.05249977  101.90699768    0.56999999    2.73000002
   14.05833340  101.90699768    0.55000001    2.71000004
   14.06250000   98.48709869    0.55000001    2.71000004
   14.06305599   95.68720245    0.56999999    2.71000004
   14.06638908   92.13880157    0.56999999    2.73000002
   14.06944466   98.76750183    0.56999999    2.71000004
   14.07277775   98.91359711    0.55000001    2.71000004
   14.07611084   97.01219940    0.56999999    2.71000004
   14.07916641   97.02980042    0.56999999    2.73000002
   14.08249950   95.56629944    0.56999999    2.71000004
   14.08555508  100.20300293    0.56999999    2.73000002
   14.08888817   96.54940033    0.56999999    2.73000002
   14.09222221  101.92800140    0.56999999    2.73000002
   14.09527779   95.14630127    0.56999999    2.69000006
   14.09638882  101.84400177    0.56999999    2.71000004
   14.10111141  101.84400177    0.56999999    2.73000002
   14.10527802   95.12750244    0.56999999    2.71000004
   14.10861111  104.26999664    0.55000001    2.71000004
   14.11194515   99.40309906    0.55000001    2.71000004
   14.11500072  102.45899963    0.55000001    2.73000002
   14.11833382   96.71070099    0.55000001    2.73000002
   14.12166691   95.69259644    0.55000001    2.73000002
   14.12472248   98.13230133    0.55000001    2.71000004
   14.12805557  106.94300079    0.55000001    2.73000002
   14.12972260   98.03260040    0.55000001    2.73000002
   14.13166714  102.56999969    0.55000001    2.73000002
   14.13472176  111.96800232    0.55000001    2.73000002
   14.13805580  114.57800293    0.55000001    2.73000002
   14.14416695  114.57800293    0.52999997    2.73000002
   14.14833355   99.86830139    0.52999997    2.73000002
   14.15138817  102.20800018    0.55000001    2.71000004
   14.15472221  115.22799683    0.55000001    2.73000002
   14.15777779  105.36699677    0.55000001    2.73000002
   14.16111088  106.90399933    0.52999997    2.73000002
   14.16305542  100.16799927    0.52999997    2.73000002
   14.16499996  105.88200378    0.52999997    2.73000002
   14.16805553   96.23680115    0.52999997    2.73000002
   14.17138958   99.47679901    0.52999997    2.73000002
   14.17444515   97.81780243    0.52999997    2.73000002
   14.17777824   99.76490021    0.52999997    2.73000002
   14.18111134   93.74530029    0.52999997    2.71000004
   14.18694496   93.74530029    0.52999997    2.75000000
   14.19111156   91.80120087    0.52999997    2.73000002
   14.19416714   96.30899811    0.52999997    2.73000002
   14.19638920   96.41059875    0.52999997    2.73000002
   14.19805527   91.51889801    0.52999997    2.71000004
   14.20111084   95.49819946    0.55000001    2.73000002
   14.20444393   94.70500183    0.55000001    2.73000002
   14.20777798  102.70099640    0.52999997    2.73000002
   14.21111107   96.50479889    0.55000001    2.73000002
   14.21416664   97.09819794    0.55000001    2.73000002
   14.21749973   93.06050110    0.55000001    2.73000002
   14.22083282   92.64659882    0.52999997    2.73000002
   14.22388840   90.55300140    0.52999997    2.73000002
   14.22972202   90.55300140    0.52999997    2.73000002
   14.23388958   85.84449768    0.52999997    2.71000004
   14.23722267  100.54599762    0.52999997    2.71000004
   14.24027824   93.91600037    0.56999999    2.73000002
   14.24361134   92.40560150    0.55000001    2.73000002
   14.24666691  103.91899872    0.51999998    2.73000002
   14.25000000  103.98200226    0.52999997    2.73000002
   14.25333309   97.71779633    0.52999997    2.73000002
   14.25638866   95.42530060    0.51999998    2.73000002
   14.25972176   93.59049988    0.51999998    2.73000002
   14.26305580   99.20010376    0.51999998    2.73000002
   14.26361084   94.59239960    0.51999998    2.73000002
   14.26666641  105.73000336    0.51999998    2.73000002
   14.27250004  105.73000336    0.52999997    2.75000000
   14.27666664   93.15709686    0.51999998    2.73000002
   14.27999973   99.04450226    0.51999998    2.73000002
   14.28305531  106.73000336    0.50000000    2.73000002
   14.28638935   95.21160126    0.51999998    2.73000002
   14.28972244  101.80300140    0.50000000    2.73000002
   14.29277802   92.67350006    0.50000000    2.73000002
   14.29611111   97.09020233    0.50000000    2.73000002
   14.29694462   96.12500000    0.50000000    2.73000002
   14.29972267   94.42269897    0.50000000    2.73000002
   14.30305576   93.93810272    0.51999998    2.73000002
   14.30611134   98.19570160    0.51999998    2.73000002
   14.30944443   99.14409637    0.51999998    2.73000002
   14.31555557   99.14409637    0.50000000    2.73000002
   14.31944466   96.24939728    0.50000000    2.73000002
   14.32277775  107.38700104    0.50000000    2.75000000
   14.32611084   94.93370056    0.50000000    2.73000002
   14.32916641   98.14749908    0.50000000    2.73000002
   14.33027744  101.91400146    0.50000000    2.73000002
   14.33277798  102.18599701    0.50000000    2.73000002
   14.33611107  110.44300079    0.50000000    2.73000002
   14.33916664   97.97190094    0.50000000    2.75000000
   14.34249973   92.09909821    0.50000000    2.73000002
   14.34583282  106.43800354    0.50000000    2.75000000
   14.34888840  105.61299896    0.50000000    2.75000000
   14.35222244  106.60299683    0.50000000    2.75000000
   14.35833359  106.60299683    0.50000000    2.73000002
   14.36250019   89.87950134    0.50000000    2.73000002
   14.36361122   95.61129761    0.50000000    2.73000002
   14.36611176   93.68419647    0.47999999    2.73000002
   14.36944485   88.71420288    0.47999999    2.73000002
   14.37250042   94.29779816    0.47999999    2.73000002
   14.37583351   95.50540161    0.47999999    2.73000002
   14.37916660   94.67720032    0.47999999    2.73000002
   14.38222218  101.69899750    0.47999999    2.73000002
   14.38555527   92.73249817    0.47999999    2.73000002
   14.38888836   90.34970093    0.47999999    2.73000002
   14.39194393   98.88449860    0.47999999    2.75000000
   14.39527798   96.14050293    0.47999999    2.75000000
   14.39694405   91.01650238    0.47999999    2.75000000
   14.40111065   91.01650238    0.46000001    2.75000000
   14.40527725   89.01020050    0.47999999    2.73000002
   14.40861034   93.41149902    0.46000001    2.75000000
   14.41166592   92.39510345    0.46000001    2.75000000
   14.41499996   93.95030212    0.46000001    2.71000004
   14.41805553   96.17489624    0.46000001    2.71000004
   14.42138958   94.80560303    0.46000001    2.75000000
   14.42472267   87.33650208    0.46000001    2.73000002
   14.42777824   91.28690338    0.44000000    2.75000000
   14.43027782   95.83570099    0.44000000    2.75000000
   14.43138885  101.07099915    0.44000000    2.73000002
   14.43472195  101.48200226    0.44000000    2.73000002
   14.43805599   96.31870270    0.44000000    2.75000000
   14.44388866   96.31870270    0.44000000    2.73000002
   14.44805527   97.77130127    0.44000000    2.73000002
   14.45138836  101.40399933    0.44000000    2.75000000
   14.45472240   84.89129639    0.44000000    2.73000002
   14.45777798  101.84500122    0.44000000    2.75000000
   14.46111107   95.43180084    0.44000000    2.75000000
   14.46361065  101.54100037    0.44000000    2.75000000
   14.46472168   99.46720123    0.44000000    2.75000000
   14.46805477  100.10500336    0.44000000    2.75000000
   14.47138882   97.70169830    0.44000000    2.73000002
   14.47444439   99.49030304    0.46000001    2.75000000
   14.47777748   98.41220093    0.46000001    2.75000000
   14.48083305   97.02030182    0.44000000    2.75000000
   14.48694515   97.02030182    0.44000000    2.75000000
   14.49111176  106.90599823    0.44000000    2.75000000
   14.49416733  101.28199768    0.44000000    2.75000000
   14.49694443   99.37059784    0.44000000    2.75000000
   14.49777794  101.55000305    0.44000000    2.75000000
   14.50111103   93.34079742    0.44000000    2.75000000
   14.50444412   95.61540222    0.46000001    2.75000000
   14.50749969   94.71089935    0.44000000    2.73000002
   14.51083374   89.51450348    0.44000000    2.75000000
   14.51416683   96.37940216    0.44000000    2.73000002
   14.51722240   93.10169983    0.44000000    2.75000000
   14.52055550   98.11740112    0.46000001    2.75000000
   14.52361107   91.24960327    0.46000001    2.73000002
   14.52972221   91.24960327    0.46000001    2.75000000
   14.54805565   87.94950104    0.44000000    2.75000000
   14.55138874   95.22059631    0.44000000    2.75000000
   14.55444431   90.51319885    0.44000000    2.75000000
   14.55777836   95.60099792    0.44000000    2.75000000
   14.56083393   94.68190002    0.44000000    2.75000000
   14.56416702   94.90509796    0.44000000    2.75000000
   14.56750011   95.23320007    0.41999999    2.75000000
   14.57277775   95.23320007    0.44000000    2.75000000
   14.57694435   89.82350159    0.44000000    2.75000000
   14.57999992   93.75569916    0.44000000    2.76999998
   14.58111095   87.62560272    0.44000000    2.76999998
   14.58388901   85.97460175    0.44000000    2.76999998
   14.58694458   85.29409790    0.44000000    2.75000000
   14.59027767   81.05159760    0.44000000    2.76999998
   14.59361076   88.16190338    0.44000000    2.75000000
   14.59666634   93.23950195    0.44000000    2.76999998
   14.60000038   93.99669647    0.44000000    2.75000000
   14.60333347   92.86930084    0.44000000    2.75000000
   14.60638905   87.53720093    0.44000000    2.75000000
   14.60972214   86.12660217    0.44000000    2.75000000
   14.61555576   86.12660217    0.44000000    2.75000000
   14.61972237   90.33280182    0.47999999    2.75000000
   14.62305546   86.25080109    0.52999997    2.75000000
   14.62611103   82.71189880    0.55000001    2.75000000
   14.62944412   88.63130188    0.55000001    2.76999998
   14.63277817   91.18859863    0.55000001    2.75000000
   14.63611126   81.26580048    0.56999999    2.75000000
   14.63916683   94.44969940    0.58999997    2.75000000
   14.64249992   86.59220123    0.58999997    2.75000000
   14.64583302   95.47380066    0.64999998    2.75000000
   14.64777756   78.11299896    0.64999998    2.75000000
   14.64944458   88.65399933    0.69000000    2.75000000
   14.65249920   90.74340057    0.69000000    2.76999998
   14.65833282   90.74340057    0.70999998    2.75000000
   14.66249943   84.38569641    0.76999998    2.75000000
   14.66583252   83.29180145    0.80000001    2.75000000
   14.66916656   84.85260010    0.70999998    2.75000000
   14.67222214   82.90959930    0.64999998    2.75000000
   14.67555618   83.51750183    0.56999999    2.75000000
   14.67861176   79.71949768    0.56999999    2.75000000
   14.68111134   81.90650177    0.56999999    2.76999998
   14.68249989   78.45120239    0.56999999    2.75000000
   14.68555546   81.79409790    0.58999997    2.75000000
   14.68888855   77.64289856    0.61000001    2.75000000
   14.69222260   82.46589661    0.63000000    2.75000000
   14.69527817   79.68820190    0.67000002    2.75000000
   14.70138836   79.68820190    0.69000000    2.75000000
   14.70555496   82.06990051    0.64999998    2.75000000
   14.70861053   74.31510162    0.55000001    2.75000000
   14.71194458   79.61849976    0.55000001    2.75000000
   14.71444416   74.09140015    0.56999999    2.75000000
   14.71555519   78.22530365    0.58999997    2.76999998
   14.71861076   81.49160004    0.58999997    2.75000000
   14.72194386   83.27670288    0.58999997    2.75000000
   14.72527695   83.30819702    0.58999997    2.75000000
   14.72833252   80.41369629    0.58999997    2.75000000
   14.73166656   80.53929901    0.61000001    2.76999998
   14.73500061   79.53679657    0.58999997    2.75000000
   14.73805618   77.19139862    0.63000000    2.75000000
   14.74416733   77.19139862    0.75000000    2.75000000
   14.74833393   78.01490021    0.67000002    2.75000000
   14.75138855   74.54499817    0.75000000    2.75000000
   14.75472260   76.41829681    0.94000000    2.75000000
   14.75805569   76.67189789    0.98000002    2.75000000
   14.76111126   77.70549774    0.69000000    2.75000000
   14.76444435   81.38420105    0.64999998    2.76999998
   14.76777744   82.60910034    0.56999999    2.76999998
   14.77083302   75.76950073    0.55000001    2.75000000
   14.77416611   78.61270142    0.55000001    2.75000000
   14.77722168   81.88079834    0.55000001    2.75000000
   14.78055573   83.79509735    0.56999999    2.76999998
   14.78111076   84.73509979    0.56999999    2.76999998
   14.78694534   84.73509979    0.56999999    2.76999998
   14.79111195   77.82160187    0.51999998    2.75000000
   14.79444504   81.60430145    0.50000000    2.75000000
   14.79750061   82.66770172    0.50000000    2.75000000
   14.80083370   81.82630157    0.50000000    2.75000000
   14.80416679   74.65360260    0.50000000    2.75000000
   14.80722237   85.12169647    0.50000000    2.75000000
   14.81055546   81.65070343    0.50000000    2.75000000
   14.81388950   79.57900238    0.50000000    2.75000000
   14.81444454   84.20839691    0.50000000    2.75000000
   14.81750011   79.53800201    0.50000000    2.75000000
   14.82055569   90.00109863    0.50000000    2.76999998
   14.82388878   85.79429626    0.50000000    2.75000000
   14.82972240   85.79429626    0.50000000    2.76999998
   14.83388901   80.55930328    0.50000000    2.75000000
   14.83722210   81.51159668    0.50000000    2.76999998
   14.84055519   75.57399750    0.50000000    2.76999998
   14.84361076   77.79599762    0.51999998    2.75000000
   14.84694386   80.48359680    0.51999998    2.75000000
   14.84777737   82.98100281    0.51999998    2.76999998
   14.85055637   77.11180115    0.51999998    2.75000000
   14.85361195   82.23110199    0.51999998    2.76999998
   14.85694504   75.32910156    0.51999998    2.76999998
   14.86027813   77.94860077    0.51999998    2.76999998
   14.86333370   76.45310211    0.50000000    2.76999998
   14.86666679   76.16780090    0.51999998    2.75000000
   14.87277794   76.16780090    0.51999998    2.76999998
   14.87694454   72.68329620    0.51999998    2.76999998
   14.88000011   74.18609619    0.50000000    2.76999998
   14.88111115   76.43679810    0.51999998    2.75000000
   14.88388920   76.53749847    0.51999998    2.75000000
   14.88694477   75.01789856    0.52999997    2.75000000
   14.89027786   71.04479980    0.52999997    2.76999998
   14.89361095   77.45130157    0.51999998    2.76999998
   14.89666653   74.59429932    0.51999998    2.76999998
   14.89999962   73.90470123    0.51999998    2.76999998
   14.90333271   75.16799927    0.50000000    2.78999996
   14.90638828   77.85590363    0.50000000    2.78999996
   14.90972137   75.64739990    0.50000000    2.75000000
   14.91555500   75.64739990    0.50000000    2.76999998
   14.91972256   70.64510345    0.47999999    2.75000000
   14.92277813   86.25489807    0.47999999    2.75000000
   14.92611122   73.39959717    0.47999999    2.76999998
   14.92944431   75.85230255    0.47999999    2.75000000
   14.93249989   80.12590027    0.47999999    2.76999998
   14.93583298   73.14779663    0.47999999    2.76999998
   14.93916702   76.89869690    0.47999999    2.76999998
   14.94222260   78.13300323    0.50000000    2.76999998
   14.94555569   72.82779694    0.50000000    2.76999998
   14.94777775   75.79160309    0.50000000    2.76999998
   14.94916630   73.20690155    0.50000000    2.76999998
   14.95222187   73.21019745    0.63000000    2.76999998
   14.95833302   73.21019745    1.01999998    2.76999998
   14.96249962   78.59100342    1.05999994    2.75000000
   14.96583271   72.23560333    2.11999989    2.73000002
   14.96888828   72.53060150    1.98000002    2.75000000
   14.97222137   73.40419769    1.60000002    2.75000000
   14.97555542   79.73290253    1.53999996    2.78999996
   14.97861099   71.92620087    1.48000002    2.76999998
   14.98111057   74.63169861    1.50000000    2.75000000
   14.98222160   75.25810242    1.44000006    2.75000000
   14.98527813   73.07810211    3.11999989    2.75000000
   14.98861122   73.24199677    1.34000003    2.76999998
   14.99194431   75.14140320    1.55999994    2.76999998
   14.99499989   80.40699768    2.69000006    2.71000004
   15.00111103   80.40699768    2.55999994    2.76999998
   15.00527763   79.11049652    4.01999998    2.76999998
   15.00861073   73.12879944    4.90999985    2.73000002
   15.01166630   76.53669739    4.90999985    2.69000006
   15.01444435   74.99510193    4.90999985    2.69000006
   15.01555538   73.71479797    4.90999985    2.69000006
   15.01861095   83.55999756    4.90999985    2.75000000
   15.02194405  106.05699921    4.90999985    2.51999998
   15.02527714   84.71019745    4.90999985    2.40000010
   15.02833271   88.75019836    4.90999985    2.39000010
   15.03166676   74.63670349    4.90999985    2.39000010
   15.03500080   75.04660034    4.90999985    2.67000008
   15.03805637   76.37270355    4.90999985    2.59999990
   15.04416752   76.37270355    4.90999985    2.48000002
   15.04805565   77.60130310    4.90999985    2.57999992
   15.05138874   75.12590027    4.90999985    2.57999992
   15.15499973   -1.00000000   -1.00000000   -1.00000000
   15.25500011   -1.00000000   -1.00000000   -1.00000000
   15.35750008   -1.00000000   -1.00000000   -1.00000000
   15.41166592   78.27829742    4.90999985    2.21000004
   15.41472149   79.33619690    4.90999985    2.26999998
   15.41805553   85.32569885    4.90999985    2.25000000
   15.42138958   83.21630096    4.90999985    2.30999994
   15.42444515   86.46240234    4.90999985    2.21000004
   15.42777824   81.04869843    4.90999985    2.11999989
   15.43194485   81.04869843    4.90999985    2.13000011
   15.43611145   81.52089691    4.90999985    2.42000008
   15.43916702   78.61180115    4.90999985    2.40000010
   15.44250011   73.99130249    4.90999985    2.40000010
   15.44472218   78.55719757    4.90999985    2.34999990
   15.44611073   75.26329803    4.90999985    2.32999992
   15.44944477   82.70709991    4.90999985    2.30999994
   15.45249939   80.11199951    4.90999985    2.32999992
   15.45583344   81.14340210    4.90999985    2.30999994
   15.45916653   73.90090179    4.90999985    2.30999994
   15.46222210   75.38439941    4.90999985    2.34999990
   15.46555519   75.15160370    4.90999985    2.36999989
   15.46861076   83.85169983    4.90999985    2.40000010
   15.47472191   83.85169983    4.90999985    2.19000006
   15.47888851   79.03170013    4.90999985    2.28999996
   15.48222160   80.24500275    4.90999985    2.34999990
   15.48527813   86.58670044    4.90999985    2.25000000
   15.48861122   79.33000183    4.90999985    2.26999998
   15.49194431   76.20619965    4.90999985    2.36999989
   15.49499989   79.33399963    4.90999985    2.32999992
   15.49833393   81.28820038    4.90999985    2.34999990
   15.50166702   78.84420013    4.90999985    2.36999989
   15.50472260   76.14219666    4.90999985    2.40000010
   15.50805569   79.15370178    4.90999985    2.42000008
   15.51111126   76.54530334    4.90999985    2.42000008
   15.51166630   75.13339996    4.90999985    2.40000010
   15.51749992   75.13339996    4.90999985    2.34999990
   15.52166653   84.61049652    4.90999985    2.36999989
   15.52499962   81.85739899    4.90999985    2.11999989
   15.52805519   82.43209839    4.90999985    2.23000002
   15.53138828   85.75389862    4.90999985    2.23000002
   15.53472233   84.80100250    4.90999985    2.26999998
   15.53777790   86.54620361    4.90999985    2.19000006
   15.54111195   86.82279968    4.90999985    2.05999994
   15.54444504   87.12000275    4.90999985    2.07999992
   15.54500008  113.53900146    4.90999985    2.09999990
   15.54805565  113.23000336    4.90999985    2.01999998
   15.55138874  100.63800049    4.90999985    2.07999992
   15.55444431  110.55100250    4.90999985    1.98000002
   15.56055546  110.55100250    4.90999985    2.30999994
   15.56444454   81.09140015    4.90999985    2.36999989
   15.56777763   94.27880096    4.90999985    2.44000006
   15.57111073   79.28029633    4.90999985    2.23000002
   15.57416630   88.22010040    4.90999985    2.21000004
   15.57750034   82.76879883    4.90999985    2.11999989
   15.57833290   87.30110168    4.90999985    2.09999990
   15.58111095  102.72299957    4.90999985    2.09999990
   15.58444405  172.76899719    4.90999985    2.09999990
   15.58749962  314.17300415    4.90999985    1.85000002
   15.59083271   -1.00000000    4.90999985    1.69000006
   15.59416676  177.70100403    4.90999985    1.55999994
   15.59722233  108.26000214    4.90999985    1.76999998
   15.60333347  108.26000214    4.90999985    2.34999990
   15.60750008  175.77000427    4.90999985    2.30999994
   15.61055565  181.72200012    4.90999985    2.26999998
   15.61166668  234.09300232    4.90999985    2.25000000
   15.61416721  271.65399170    4.90999985    2.13000011
   15.61750031  260.18200684    4.90999985    2.15000010
   15.62055588  240.00199890    4.90999985    2.21000004
   15.62388897  247.31900024    4.90999985    2.28999996
   15.62722206  214.32800293    4.90999985    2.19000006
   15.63027763  240.35699463    4.90999985    2.39000010
   15.63361073  226.34899902    4.90999985    2.32999992
   15.63666630  227.72000122    4.90999985    2.34999990
   15.64000034  248.27699280    4.90999985    2.40000010
   15.64611053  248.27699280    4.90999985    2.50000000
   15.65027714  286.88500977    4.90999985    2.36999989
   15.65361118  313.86599731    4.90999985    2.28999996
   15.65666676  372.08999634    4.90999985    2.32999992
   15.65999985  395.83999634    4.90999985    2.21000004
   15.66305542  405.61898804    4.90999985    2.15000010
   15.66527748  405.42498779    4.90999985    2.15000010
   15.66638851  394.53399658    4.90999985    2.23000002
   15.66777802  414.08099365    4.90999985    2.25000000
   15.66916656  684.85900879    4.90999985    2.25000000
   15.67055607  696.64099121    4.90999985    2.11999989
   15.67194462  520.89599609    4.90999985    1.76999998
   15.67333412  525.93902588    4.90999985    1.85000002
   15.67472267  667.60101318    4.90999985    1.96000004
   15.67611122  565.05297852    4.90999985    1.98000002
   15.67750072  540.77899170    4.90999985    1.96000004
   15.67888927  564.08502197    4.90999985    2.01999998
   15.68027782  474.40701294    4.90999985    2.03999996
   15.68166733  474.06399536    4.90999985    2.21000004
   15.68305588  447.50698853    4.90999985    2.26999998
   15.68444443  464.81698608    4.90999985    2.34999990
   15.68583298  446.26300049    4.90999985    2.30999994
   15.68722248  407.82598877    4.90999985    2.34999990
   15.68861103  381.11099243    4.90999985    2.50000000
   15.69000053  447.05801392    4.90999985    2.53999996
   15.69138908  380.42300415    4.90999985    2.46000004
   15.69277763  391.62600708    4.90999985    2.40000010
   15.69416714  369.46398926    4.90999985    2.48000002
   15.69555569  379.18798828    4.90999985    2.48000002
   15.69694424  447.42999268    4.90999985    2.42000008
   15.69833374  495.58401489    4.90999985    2.39000010
   15.69972229  641.25402832    4.90999985    2.26999998
   15.70111084  328.54400635    4.90999985    2.01999998
   15.70138836  395.83999634    4.90999985    2.21000004
   15.70138836  405.61898804    4.90999985    2.15000010
   15.70166683  240.35699463    4.90999985    2.39000010
   15.70166683  226.34899902    4.90999985    2.32999992
   15.70166683  227.72000122    4.90999985    2.34999990
   15.70194435  248.27699280    4.90999985    2.40000010
   15.70194435  286.88500977    4.90999985    2.36999989
   15.70194435  313.86599731    4.90999985    2.28999996
   15.70222187  372.08999634    4.90999985    2.32999992
   15.70277786  352.14199829    4.90999985    2.01999998
   15.70583344  397.04098511    4.90999985    2.25000000
   15.70916653  443.12298584    4.90999985    2.15000010
   15.71111107  380.98901367    4.90999985    2.15000010
   15.71249962  382.44299316    4.90999985    2.25000000
   15.71388912  384.96200562    4.90999985    2.23000002
   15.71527767  419.21499634    4.90999985    2.34999990
   15.71666622  364.95901489    4.90999985    2.44000006
   15.71805477  396.11599731    4.90999985    2.44000006
   15.71944427  395.49499512    4.90999985    2.51999998
   15.72083282  372.03201294    4.90999985    2.59999990
   15.72222137  443.93798828    4.90999985    2.59999990
   15.72361088  376.32199097    4.90999985    2.51999998
   15.72499943  367.76699829    4.90999985    2.40000010
   15.72638798  380.80801392    4.90999985    2.53999996
   15.72777748  366.60800171    4.90999985    2.48000002
   15.72916603  371.42599487    4.90999985    2.53999996
   15.73055553  362.83898926    4.90999985    2.42000008
   15.73194408  387.72399902    4.90999985    2.40000010
   15.73333359  357.11499023    4.90999985    2.34999990
   15.73472214  358.42700195    4.90999985    2.40000010
   15.73611164  332.90798950    4.90999985    2.46000004
   15.73611164  352.14199829    4.90999985    2.01999998
   15.73638916  397.04098511    4.90999985    2.25000000
   15.73638916  443.12298584    4.90999985    2.15000010
   15.73694515  330.63400269    4.90999985    2.46000004
   15.74027824  348.82699585    4.90999985    2.39000010
   15.74333382  353.16101074    4.90999985    2.39000010
   15.74666691  317.89599609    4.90999985    2.61999989
   15.75000000  314.54098511    4.90999985    2.64000010
   15.75305557  328.14801025    4.90999985    2.67000008
   15.75722218  328.14801025    4.90999985    2.66000009
   15.76138878  284.07299805    4.90999985    2.59999990
   15.76472187  326.96398926    4.90999985    2.50000000
   15.76777744  316.14599609    4.90999985    2.61999989
   15.76999950  297.22399902    4.90999985    2.64000010
   15.77166653  283.03399658    4.90999985    2.61999989
   15.77472210  268.03100586    4.90999985    2.71000004
   15.77805519  282.12399292    4.65999985    2.71000004
   15.78111076  308.79699707    4.23999977    2.73000002
   15.78444481  266.59399414    4.73999977    2.73000002
   15.78777790  273.49099731    4.90999985    2.71000004
   15.79083347  266.48400879    4.90999985    2.71000004
   15.79416752  280.62399292    4.90999985    2.67000008
   15.80000019  280.62399292    4.30999994    2.73000002
   15.80416679  282.55899048    4.90999985    2.71000004
   15.80749989  254.27900696    4.90999985    2.64000010
   15.81055546  260.87899780    4.90999985    2.50000000
   15.81388950  282.91299438    4.90999985    2.50000000
   15.81722260  349.17599487    4.90999985    2.39000010
   15.82027817  311.32800293    4.90999985    2.19000006
   15.82361126  320.80099487    4.90999985    2.19000006
   15.82694435  851.78497314    4.90999985    2.05999994
   15.82888889  552.80200195    4.90999985    1.88000000
   15.83027744  712.26202393    4.90999985    1.89999998
   15.83166695  843.45898438    4.90999985    1.89999998
   15.83305550  481.02999878    4.90999985    1.76999998
   15.83444405  456.58801270    4.90999985    1.78999996
   15.83583260  778.16601563    4.90999985    1.76999998
   15.83722210  443.98001099    4.90999985    1.88000000
   15.83861065  699.31402588    4.90999985    1.76999998
   15.84000015  638.19000244    4.90999985    1.76999998
   15.84138870  673.22802734    4.90999985    1.83000004
   15.84277725  525.78601074    4.90999985    1.94000006
   15.84416676  790.80798340    4.90999985    1.94000006
   15.84555531  609.44201660    4.90999985    1.83000004
   15.84694386  848.05700684    4.90999985    1.83000004
   15.84833336  553.13702393    4.90999985    1.80999994
   15.84972191  595.04699707    4.90999985    1.83000004
   15.85111141  576.84600830    4.90999985    1.69000006
   15.85249996  319.43399048    4.90999985    1.78999996
   15.85249996  254.27900696    4.90999985    2.64000010
   15.85249996  260.87899780    4.90999985    2.50000000
   15.85277843  282.91299438    4.90999985    2.50000000
   15.85277843  349.17599487    4.90999985    2.39000010
   15.85277843  311.32800293    4.90999985    2.19000006
   15.85305595  320.80099487    4.90999985    2.19000006
   15.85305595  851.78497314    4.90999985    2.05999994
   15.85305595  280.62399292    4.90999985    2.67000008
   15.85333347  282.55899048    4.90999985    2.71000004
   15.85388947  357.08300781    4.90999985    1.91999996
   15.85694504   23.57019997    4.90999985    1.75000000
   15.86027813   -1.00000000    4.90999985    1.55999994
   15.86361122   -1.00000000    4.90999985    1.48000002
   15.86666679   55.02550125    4.90999985    1.46000004
   15.87722206   -1.00000000    4.90999985    1.48000002
   15.88055611   45.85010147    4.90999985    1.64999998
   15.88361073   78.31919861    4.90999985    1.34000003
   15.88638878   -1.00000000   -1.00000000   -1.00000000
   15.88722229   -1.00000000    4.90999985    1.41999996
   15.89055538   -1.00000000    4.90999985    1.30999994
   15.89361095   65.55840302    4.90999985    1.44000006
   15.89694405  278.23199463    4.90999985    1.80999994
   15.90027714  263.28799438    4.90999985    2.07999992
   15.90333271  251.45100403    4.90999985    2.28999996
   15.90666676  211.88999939    4.90999985    2.28999996
   15.90999985  220.49099731    4.90999985    2.36999989
   15.91611099  220.49099731    4.90999985    2.28999996
   15.92027855  206.48199463    4.90999985    2.32999992
   15.92333412  195.32099915    4.90999985    2.42000008
   15.92666721  193.65299988    4.90999985    2.34999990
   15.93000031  156.40499878    4.90999985    2.39000010
   15.93305588  153.28599548    4.90999985    2.25000000
   15.93638897  214.96099854    4.90999985    2.32999992
   15.93972206  306.85699463    4.90999985    1.86000001
   15.94277763   87.22119904    4.90999985    1.69000006
   15.94611073   56.23860168    4.90999985    1.53999996
   15.94944477   27.94400024    4.90999985    1.63000000
   15.95249939   -1.00000000    4.90999985    1.41999996
   15.95888901   -1.00000000    4.90999985    1.50000000
   15.96305561  137.55200195    4.90999985    2.07999992
   15.96638870  204.02099609    4.90999985    2.19000006
   15.96944427  277.19000244    4.90999985    1.98000002
   15.97277737  253.40100098    4.90999985    1.86000001
   15.97583294  341.71499634    4.90999985    1.76999998
   15.97916603   -1.00000000    4.90999985    1.61000001
   15.98249912   86.60559845    4.90999985    1.44000006
   15.98555565   -1.00000000    4.90999985    1.58000004
   15.98916721  196.09899902    4.90999985    1.53999996
   15.99250031  185.02400208    4.90999985    1.64999998
   15.99583340  157.07200623    4.90999985    1.73000002
   16.00583267   -1.00000000    4.90999985    0.81999999
   16.00888824   -1.00000000    4.90999985    0.67000002
   16.01222229   -1.00000000    4.90999985    0.89999998
   16.01555634   -1.00000000    4.90999985    1.30999994
   16.01861000  189.90100098    4.90999985    1.48000002
   16.01972198  242.71899414    4.90999985    1.58000004
   16.02249908  108.37300110    4.90999985    1.73000002
   16.02555466  325.86199951    4.90999985    1.75000000
   16.02888870   -1.00000000    4.90999985    1.50000000
   16.03222275   -1.00000000    4.90999985    1.51999998
   16.03527641   -1.00000000    4.90999985    1.38000000
   16.03861046   -1.00000000    4.90999985    1.38000000
   16.04861069   -1.00000000    4.90999985    1.13000000
   16.05194283   -1.00000000    4.90999985    1.30999994
   16.05527687   -1.00000000    4.90999985    1.21000004
   16.05861092   -1.00000000    4.90999985    1.23000002
   16.06194305   -1.00000000    4.90999985    0.92000002
   16.06499863   -1.00000000    4.90999985    0.75000000
   16.06833458   -1.00000000    4.90999985    0.73000002
   16.07166672   -1.00000000    4.90999985    0.67000002
   16.07472229   -1.00000000    4.90999985    0.92000002
   16.07805634   -1.00000000    4.90999985    1.11000001
   16.08111191   -1.00000000    4.90999985    1.21000004
   16.09138870   -1.00000000    4.90999985    0.89999998
   16.09472275   -1.00000000    4.90999985    1.13000000
   16.09805679   -1.00000000    4.90999985    1.28999996
   16.10111237   -1.00000000    4.90999985    1.28999996
   16.10444450   -1.00000000    4.90999985    1.36000001
   16.10777855   -1.00000000    4.90999985    1.44000006
   16.11083412  328.33801270    4.90999985    1.58000004
   16.11416626  189.46000671    4.90999985    1.69000006
   16.11750031   -1.00000000    4.90999985    1.63000000
   16.11972237   59.53990173    4.90999985    1.48000002
   16.12111092   -1.00000000    4.90999985    1.48000002
   16.12416649   -1.00000000    4.90999985    1.51999998
   16.13444519   -1.00000000    4.90999985    1.30999994
   16.13750076   -1.00000000    4.90999985    1.30999994
   16.14083290   -1.00000000    4.90999985    1.41999996
   16.14388847   -1.00000000    4.90999985    1.46000004
   16.14722252   -1.00000000    4.90999985    1.44000006
   16.15055466   -1.00000000    4.90999985    1.41999996
   16.15388870   -1.00000000    4.90999985    1.07000005
   16.15722275   -1.00000000    4.90999985    1.16999996
   16.16055489   -1.00000000    4.90999985    1.03999996
   16.16361046   -1.00000000    4.90999985    1.01999998
   16.16694450   -1.00000000    4.90999985    1.09000003
   16.17722130   -1.00000000    4.90999985    1.14999998
   16.18027687   -1.00000000    4.90999985    1.11000001
   16.18361092   -1.00000000    4.90999985    0.94000000
   16.18694305   -1.00000000    4.90999985    0.76999998
   16.19027710   -1.00000000    4.90999985    0.73000002
   16.19361115   -1.00000000    4.90999985    0.83999997
   16.19666672   -1.00000000    4.90999985    0.88000000
   16.20000076   -1.00000000    4.90999985    1.05999994
   16.20333481   -1.00000000    4.90999985    1.01999998
   16.20639038   -1.00000000    4.90999985    1.11000001
   16.20972252   -1.00000000    4.90999985    1.03999996
   16.22000122   -1.00000000    4.90999985    0.94000000
   16.22333336   -1.00000000    4.90999985    1.03999996
   16.22638893   -1.00000000    4.90999985    1.14999998
   16.22972298   -1.00000000    4.90999985    1.34000003
   16.23305511   -1.00000000    4.90999985    1.26999998
   16.23611069   -1.00000000    4.90999985    1.21000004
   16.23944473   -1.00000000    4.90999985    1.13000000
   16.24250031   -1.00000000    4.90999985    1.25000000
   16.24583435   -1.00000000    4.90999985    0.83999997
   16.24916649   -1.00000000    4.90999985    0.70999998
   16.25222206   -1.00000000    4.90999985    0.64999998
   16.26277733   -1.00000000    4.90999985    1.41999996
   16.26611137   -1.00000000    4.90999985    1.14999998
   16.26944351   -1.00000000    4.90999985    1.33000004
   16.27249908   -1.00000000   -1.00000000   -1.00000000
   16.27583313   -1.00000000    4.90999985    1.53999996
   16.27888870  194.57600403    4.90999985    1.50000000
   16.28222275   -1.00000000    4.90999985    1.58000004
   16.28555489  114.48200226    4.90999985    1.55999994
   16.28638840  111.79599762    4.90999985    1.63000000
   16.28916550  103.14700317    4.90999985    1.85000002
   16.29249954  124.94799805    4.90999985    1.76999998
   16.29555511   -1.00000000    4.90999985    1.73000002
   16.30583191  175.31700134    4.90999985    1.48000002
   16.30888748   -1.00000000    4.90999985    1.58000004
   16.31222153   -1.00000000    4.90999985    1.36000001
   16.31527710  166.64199829    4.90999985    1.51999998
   16.31861115   -1.00000000    4.90999985    1.53999996
   16.31972313   -1.00000000   -1.00000000   -1.00000000
   16.32222366   -1.00000000    4.90999985    1.51999998
   16.32555580   -1.00000000    4.90999985    1.44000006
   16.32861137   -1.00000000    4.90999985    1.46000004
   16.33194542   -1.00000000    4.90999985    1.36000001
   16.33500099   -1.00000000    4.90999985    1.21000004
   16.33833313   -1.00000000    4.90999985    1.13000000
   16.34444427   -1.00000000    4.90999985    1.30999994
   16.34861183   -1.00000000    4.90999985    1.30999994
   16.35194397   -1.00000000    4.90999985    1.23000002
   16.35555649   -1.00000000    4.90999985    1.39999998
   16.35861206   -1.00000000    4.90999985    1.51999998
   16.36194420   -1.00000000    4.90999985    1.44000006
   16.36527824   -1.00000000    4.90999985    1.41999996
   16.36833382   -1.00000000    4.90999985    1.39999998
   16.37166595   -1.00000000    4.90999985    1.39999998
   16.37500000   -1.00000000    4.90999985    1.38000000
   16.37805557   -1.00000000    4.90999985    1.34000003
   16.38138962   -1.00000000    4.90999985    1.30999994
   16.38722229   -1.00000000    4.90999985    1.50000000
   16.39138794  155.32099915    4.90999985    1.66999996
   16.39472198  132.50999451    4.90999985    1.55999994
   16.39805603   96.05159760    4.90999985    1.69000006
   16.40111160  105.55200195    4.90999985    1.83000004
   16.40444374   97.65059662    4.90999985    1.76999998
   16.40749931   96.10209656    4.90999985    1.94000006
   16.41083336   87.45420074    4.90999985    1.94000006
   16.42888832  244.14300537    4.90999985    2.07999992
   16.43305397  244.14300537    4.90999985    2.11999989
   16.43722153  360.45401001    4.90999985    2.21000004
   16.44027710  288.90200806    4.90999985    1.88000000
   16.44361115  367.07400513    4.90999985    2.03999996
   16.44666672  216.76400757    4.90999985    2.09999990
   16.45000076  220.32000732    4.90999985    2.30999994
   16.45333481  168.99800110    4.90999985    2.19000006
   16.45639038  169.02400208    4.90999985    2.46000004
   16.45972252  149.65800476    4.90999985    2.59999990
   16.46222305  148.68099976    4.90999985    2.66000009
   16.46333504  140.27900696    4.90999985    2.69000006
   16.46666718  142.97999573    4.46999979    2.67000008
   16.46972275  141.46099854    3.26999998    2.75000000
   16.47583389  141.46099854    1.46000004    2.78999996
   16.48000145  139.73500061    0.86000001    2.78999996
   16.48305511  132.01300049    0.63000000    2.78999996
   16.48638916  129.55400085    0.58999997    2.80999994
   16.48972321  133.89100647    0.79000002    2.78999996
   16.49277878  141.61000061    0.70999998    2.78999996
   16.49555588  138.57299805    0.47999999    2.80999994
   16.49638939  134.61700439    0.46000001    2.78999996
   16.49972153  137.53900146    0.46000001    2.78999996
   16.50305557  133.81700134    0.44000000    2.82999992
   16.50611115  130.41000366    0.44000000    2.82999992
   16.50944519  140.19400024    0.36000001    2.80999994
   16.51250076  129.82899475    0.36000001    2.80999994
   16.51861000  129.82899475    0.36000001    2.78999996
   16.52277756  139.63800049    0.36000001    2.78999996
   16.52611160  135.27900696    0.36000001    2.78999996
   16.52888870  139.03300476    0.36000001    2.80999994
   16.52944374  135.13499451    0.36000001    2.80999994
   16.53277779  130.38000488    0.36000001    2.80999994
   16.53583336  140.84300232    0.36000001    2.80999994
   16.53916550  143.51499939    0.36000001    2.80999994
   16.54249954  139.16299438    0.40000001    2.80999994
   16.54555511  140.84300232    0.40000001    2.78999996
   16.54888916  139.59800720    0.40000001    2.80999994
   16.55222130  136.48199463    0.41999999    2.78999996
   16.55527687  135.79299927    0.44000000    2.80999994
   16.56138802  135.79299927    0.46000001    2.78999996
   16.56555557  144.44599915    0.44000000    2.80999994
   16.56888962  136.30299377    0.41999999    2.80999994
   16.57194519  137.22799683    0.40000001    2.80999994
   16.57527924  139.99800110    0.40000001    2.80999994
   16.57861137  137.69799805    0.38000000    2.78999996
   16.58166695  135.04499817    0.38000000    2.78999996
   16.58500099  116.87599945    0.38000000    2.78999996
   16.58833313  135.37399292    0.38000000    2.80999994
   16.59138870  139.39300537    0.36000001    2.78999996
   16.59472275  136.02000427    0.36000001    2.78999996
   16.59666824  136.36999512    0.38000000    2.80999994
   16.59833336  136.66999817    0.38000000    2.80999994
   16.60444450  136.66999817    0.36000001    2.80999994
   16.60833359  132.27900696    0.36000001    2.78999996
   16.61166763  141.82200623    0.36000001    2.78999996
   16.61499977  145.71299744    0.38000000    2.78999996
   16.61805534  138.27999878    0.36000001    2.80999994
   16.62138939  138.17599487    0.36000001    2.80999994
   16.62472153  135.57699585    0.36000001    2.82999992
   16.62777710  138.76100159    0.38000000    2.80999994
   16.63000107  141.70500183    0.36000001    2.80999994
   16.63166618  135.68499756    0.36000001    2.80999994
   16.63472176  140.86599731    0.36000001    2.80999994
   16.63805580  135.97999573    0.38000000    2.80999994
   16.64111137  144.49499512    0.38000000    2.80999994
   16.64722252  144.49499512    0.38000000    2.78999996
   16.65138817  136.31799316    0.38000000    2.78999996
   16.65444374  139.12500000    0.38000000    2.80999994
   16.65777779  140.39700317    0.38000000    2.80999994
   16.66110992  136.36300659    0.38000000    2.80999994
   16.66333389  145.79400635    0.38000000    2.82999992
   16.66472244  136.49200439    0.38000000    2.82999992
   16.66805458  140.13900757    0.40000001    2.82999992
   16.67111015  139.82000732    0.38000000    2.78999996
   16.67444420  141.63900757    0.40000001    2.80999994
   16.67749977  138.22000122    0.40000001    2.78999996
   16.68083191  147.89999390    0.40000001    2.78999996
   16.68416595  138.89199829    0.40000001    2.78999996
   16.68999863  138.89199829    0.38000000    2.78999996
   16.69416618  137.61900330    0.36000001    2.80999994
   16.69666672  139.69400024    0.38000000    2.78999996
   16.69777679  131.15600586    0.36000001    2.78999996
   16.70111275  145.42599487    0.36000001    2.78999996
   16.70416832  143.48100281    0.36000001    2.78999996
   16.70750046  141.35099792    0.36000001    2.78999996
   16.71055603  141.62300110    0.36000001    2.80999994
   16.71389008  130.11700439    0.34000000    2.80999994
   16.71722221  139.10000610    0.34000000    2.80999994
   16.72027779  133.39700317    0.34000000    2.78999996
   16.72361183  141.74200439    0.34000000    2.80999994
   16.72694588  134.01199341    0.34000000    2.78999996
   16.73277855  134.01199341    0.31999999    2.78999996
   16.73694420  131.08700562    0.31999999    2.80999994
   16.74027824  135.79299927    0.34000000    2.80999994
   16.74333382  134.44700623    0.34000000    2.78999996
   16.74666786  129.79899597    0.31999999    2.78999996
   16.75000000  125.98200226    0.31999999    2.78999996
   16.75305557  125.23000336    0.31999999    2.80999994
   16.75638962  133.16799927    0.34000000    2.80999994
   16.75972176  128.41000366    0.34000000    2.80999994
   16.76277733  132.50599670    0.34000000    2.78999996
   16.76388931  130.82899475    0.34000000    2.78999996
   16.76638794  130.80700684    0.34000000    2.80999994
   16.76972198  135.05799866    0.34000000    2.78999996
   16.77583313  135.05799866    0.34000000    2.80999994
   16.77972221  132.44299316    0.34000000    2.80999994
   16.78305435  143.08000183    0.34000000    2.78999996
   16.78638840  132.73899841    0.38000000    2.80999994
   16.78944397  131.10200500    0.38000000    2.80999994
   16.79277802  138.66999817    0.38000000    2.80999994
   16.79611015  132.37699890    0.38000000    2.80999994
   16.79722214  135.68499756    0.38000000    2.80999994
   16.79944420  136.73800659    0.38000000    2.80999994
   16.80277634  144.58399963    0.38000000    2.80999994
   16.80611038  140.70599365    0.38000000    2.80999994
   16.80916595  134.97999573    0.38000000    2.80999994
   16.81250000  131.72000122    0.38000000    2.78999996
   16.81861115  131.72000122    0.40000001    2.80999994
   16.82277870  131.90400696    0.40000001    2.80999994
   16.82583427  127.36599731    0.40000001    2.78999996
   16.82916832  137.02400208    0.40000001    2.80999994
   16.83055687  130.03799438    0.40000001    2.80999994
   16.83277893  134.59599304    0.38000000    2.78999996
   16.83611107  133.61399841    0.38000000    2.78999996
   16.83916664  133.35499573    0.40000001    2.80999994
   16.84250069  140.36000061    0.40000001    2.80999994
   16.84555626  138.88699341    0.38000000    2.80999994
   16.84889030  125.91200256    0.38000000    2.78999996
   16.85222244  130.60400391    0.38000000    2.78999996
   16.85527802  133.22200012    0.36000001    2.78999996
   16.86138916  133.22200012    0.36000001    2.80999994
   16.86555672  135.22599792    0.36000001    2.80999994
   16.86888885  129.61900330    0.38000000    2.80999994
   16.87194443  126.11499786    0.36000001    2.80999994
   16.87527847  114.62500000    0.36000001    2.80999994
   16.87833405  117.14499664    0.36000001    2.78999996
   16.88166618  130.68099976    0.40000001    2.80999994
   16.88500023  121.29499817    0.40000001    2.80999994
   16.88805580  126.76200104    0.40000001    2.80999994
   16.89138794  133.95199585    0.44000000    2.80999994
   16.89472198  128.69799805    0.41999999    2.80999994
   16.89722252  126.57299805    0.44000000    2.78999996
   16.89833260  125.19899750    0.44000000    2.78999996
   16.90416718  125.19899750    0.41999999    2.80999994
   16.90833282  133.25999451    0.44000000    2.80999994
   16.91166687  136.79800415    0.44000000    2.80999994
   16.91472244  136.00799561    0.44000000    2.80999994
   16.91805458  131.95199585    0.46000001    2.80999994
   16.92138863  131.86300659    0.47999999    2.80999994
   16.92444420  134.94500732    0.47999999    2.80999994
   16.92777634  133.31199646    0.47999999    2.80999994
   16.93055534  134.16200256    0.47999999    2.80999994
   16.93138885  132.79800415    0.47999999    2.80999994
   16.93472099  126.83899689    0.46000001    2.80999994
   16.93777657  126.68499756    0.44000000    2.80999994
   16.94111061  128.20100403    0.44000000    2.80999994
   16.94694328  128.20100403    0.44000000    2.80999994
   16.95111275  127.71199799    0.44000000    2.80999994
   16.95444489  126.25599670    0.44000000    2.80999994
   16.95777893  132.32600403    0.44000000    2.80999994
   16.96083450  132.39599609    0.41999999    2.80999994
   16.96389008  129.81700134    0.98000002    2.80999994
   16.96472359  135.94799805    0.83999997    2.78999996
   16.96805573  126.07800293    0.75000000    2.80999994
   16.97111130  127.97299957    0.46000001    2.80999994
   16.97444534  126.17199707    0.44000000    2.80999994
   16.97777748  137.00300598    0.44000000    2.80999994
   16.98083305  135.58299255    0.44000000    2.78999996
   16.98416710  131.79400635    0.44000000    2.78999996
   16.98999977  131.79400635    0.44000000    2.80999994
   16.99416733  128.44700623    0.44000000    2.80999994
   16.99722290  136.24200439    0.44000000    2.80999994
   16.99777794  138.13299561    0.44000000    2.80999994
   17.00111198  122.35700226    0.44000000    2.80999994
   17.00416756  130.90400696    0.44000000    2.80999994
   17.00749969  122.92199707    0.41999999    2.80999994
   17.01083374  128.36099243    0.41999999    2.78999996
   17.01388931  132.43200684    0.41999999    2.80999994
   17.01722145  133.00399780    0.40000001    2.78999996
   17.02027702  125.70200348    0.40000001    2.80999994
   17.02361107  117.44999695    0.40000001    2.80999994
   17.02694511  128.99499512    0.40000001    2.80999994
   17.03277779  128.99499512    0.41999999    2.80999994
   17.03694344  130.60200500    0.46000001    2.80999994
   17.04027748  128.15800476    0.46000001    2.80999994
   17.04333305  123.54499817    0.46000001    2.78999996
   17.04666710  134.61500549    0.76999998    2.78999996
   17.04972076  129.69799805    1.01999998    2.78999996
   17.05305481  123.69999695    1.05999994    2.76999998
   17.05638885  128.15499878    1.33000004    2.76999998
   17.05944443  130.10899353    1.80999994    2.78999996
   17.06277657  135.50900269    1.78999996    2.73000002
   17.06388855  135.80400085    1.78999996    2.73000002
   17.06638718  123.91300201    1.55999994    2.78999996
   17.06972313  120.66100311    1.55999994    2.76999998
   17.07555580  120.66100311    1.61000001    2.76999998
   17.07972336  128.88900757    4.03999996    2.71000004
   17.08305550  117.13200378    4.82999992    2.69000006
   17.08611107  123.77200317    4.82999992    2.71000004
   17.08944511  131.54899597    4.34999990    2.71000004
   17.09277916  124.58499908    3.91000009    2.73000002
   17.09583473  121.49900055    4.42999983    2.73000002
   17.09722328  140.11999512    4.90999985    2.69000006
   17.09944534  141.46000671    4.90999985    2.67000008
   17.10277748  141.40499878    4.90999985    2.66000009
   17.10583305  133.40299988    4.90999985    2.61999989
   17.10916710  130.67500305    4.90999985    2.64000010
   17.11250114  123.95600128    4.90999985    2.64000010
   17.11833382  123.95600128    4.90999985    2.59999990
   17.12249947  127.70999908    4.90999985    2.51999998
   17.12583351  123.54900360    4.90999985    2.55999994
   17.12916756  120.31900024    4.90999985    2.48000002
   17.13083267  117.09300232    4.90999985    2.57999992
   17.13277817  122.94599915    4.90999985    2.64000010
   17.13611031  126.09799957    4.90999985    2.61999989
   17.13916588  108.99400330    4.90999985    2.67000008
   17.14249992  119.51899719    4.90999985    2.57999992
   17.14555550  140.65800476    4.90999985    2.48000002
   17.14888954  115.92900085    4.90999985    2.48000002
   17.15222168  145.45700073    4.90999985    2.55999994
   17.15527725  167.94000244    4.90999985    2.40000010
   17.16138840  167.94000244    4.71999979    2.76999998
   17.16555595  119.71800232    0.88000000    2.78999996
   17.16860962  113.16100311    0.58999997    2.78999996
   17.17194366  111.62699890    0.44000000    2.80999994
   17.17527771  113.19400024    0.41999999    2.78999996
   17.17833328  124.35500336    0.40000001    2.78999996
   17.18166542  121.23200226    0.38000000    2.80999994
   17.18472099  118.94699860    0.40000001    2.80999994
   17.18805504  123.70899963    1.33000004    2.80999994
   17.19138718  120.01799774    0.69000000    2.78999996
   17.19444275  115.94599915    0.69000000    2.78999996
   17.19749832  120.84200287    0.63000000    2.80999994
   17.19833183  120.54699707    0.36000001    2.80999994
   17.20416832  120.54699707    0.36000001    2.80999994
   17.20833397  109.84899902    0.36000001    2.78999996
   17.21166801  118.69999695    0.36000001    2.80999994
   17.21472359  114.17199707    0.36000001    2.80999994
   17.21805573  118.73000336    0.36000001    2.80999994
   17.22138977  115.62300110    0.36000001    2.80999994
   17.22444534  120.04599762    0.36000001    2.80999994
   17.22777748  123.27200317    0.36000001    2.80999994
   17.23083305  123.68699646    0.36000001    2.82999992
   17.23139000  118.66400146    0.38000000    2.80999994
   17.23472214  121.04299927    0.38000000    2.80999994
   17.23777771  122.20200348    0.38000000    2.78999996
   17.24111176  115.95600128    0.38000000    2.78999996
   17.24694443  115.95600128    0.40000001    2.80999994
   17.25111198  109.26200104    0.38000000    2.80999994
   17.25444412  110.84500122    0.38000000    2.78999996
   17.25749969  113.70600128    0.36000001    2.78999996
   17.26083374  111.80899811    0.36000001    2.80999994
   17.26416588  128.02400208    0.34000000    2.80999994
   17.26472282  110.88500214    0.34000000    2.78999996
   17.26777840  114.21399689    0.34000000    2.78999996
   17.27111053  119.89199829    0.34000000    2.80999994
   17.27444458  117.59400177    0.36000001    2.80999994
   17.27750015  121.75399780    0.36000001    2.80999994
   17.28083229  114.74099731    0.34000000    2.80999994
   17.28388786  110.13700104    0.34000000    2.80999994
   17.28972244  110.13700104    0.36000001    2.80999994
   17.29388809  109.15599823    0.34000000    2.80999994
   17.29722214  114.28900146    0.34000000    2.80999994
   17.29805565  119.39800262    0.34000000    2.80999994
   17.30083275  113.12500000    0.34000000    2.80999994
   17.30416679  107.55899811    0.34000000    2.80999994
   17.30749893  112.02400208    0.34000000    2.80999994
   17.31055450  113.62100220    0.34000000    2.80999994
   17.31388855  111.33399963    0.34000000    2.78999996
   17.31694603  117.45300293    0.34000000    2.80999994
   17.32027817  110.18199921    0.34000000    2.80999994
   17.32361221  111.38999939    0.34000000    2.80999994
   17.32666779  111.09200287    0.34000000    2.80999994
   17.33277893  111.09200287    0.34000000    2.80999994
   17.33666801  102.78199768    0.34000000    2.78999996
   17.34000015  101.08799744    0.34000000    2.78999996
   17.34333420  105.84600067    0.34000000    2.80999994
   17.34638977   98.82740021    0.36000001    2.78999996
   17.34972191  100.46099854    0.34000000    2.80999994
   17.35305595  106.51100159    0.34000000    2.80999994
   17.35611153  104.16300201    0.34000000    2.78999996
   17.35944557  108.93299866    0.34000000    2.78999996
   17.36250114  101.66899872    0.34000000    2.80999994
   17.36472321  102.86900330    0.34000000    2.80999994
   17.36611176  102.04900360    0.34000000    2.80999994
   17.36944389  107.18199921    0.34000000    2.80999994
   17.37555504  107.18199921    0.34000000    2.80999994
   17.37972260  101.68299866    0.34000000    2.80999994
   17.38277817  101.24500275    0.34000000    2.78999996
   17.38611031  100.49800110    0.34000000    2.80999994
   17.38944435   97.96420288    0.34000000    2.80999994
   17.39249992   97.92939758    0.34000000    2.80999994
   17.39583397   95.63580322    0.34000000    2.78999996
   17.39805603   97.09310150    0.34000000    2.78999996
   17.39944458   93.05799866    0.34000000    2.78999996
   17.40277672   95.23220062    0.34000000    2.80999994
   17.40611076   96.93000031    0.34000000    2.80999994
   17.40916634   94.88569641    0.34000000    2.82999992
   17.41250038  102.34600067    0.34000000    2.78999996
   17.41833305  102.34600067    0.38000000    2.80999994
   17.42249870  101.74800110    0.41999999    2.80999994
   17.42583275  108.77400208    0.44000000    2.80999994
   17.42888832  102.02700043    0.46000001    2.78999996
   17.44610977  103.86599731    0.40000001    2.80999994
   17.44888878  104.45600128    0.40000001    2.80999994
   17.45222282   99.87920380    0.38000000    2.80999994
   17.45555687  107.73100281    0.38000000    2.80999994
   17.46138954  107.73100281    0.38000000    2.80999994
   17.46555710  101.40499878    0.41999999    2.80999994
   17.46888924  105.47200012    0.41999999    2.82999992
   17.47194481  105.09100342    0.40000001    2.80999994
   17.47527885  101.23600006    0.41999999    2.80999994
   17.47833443  107.29499817    0.44000000    2.80999994
   17.47916794   98.50720215    0.44000000    2.80999994
   17.48222351   96.36019897    0.44000000    2.80999994
   17.48527718  106.85600281    0.41999999    2.80999994
   17.48861122   97.99520111    0.41999999    2.80999994
   17.49194527   99.50589752    0.41999999    2.80999994
   17.49500084   96.90080261    0.41999999    2.80999994
   17.49833298   95.45590210    0.40000001    2.80999994
   17.50416756   95.45590210    0.40000001    2.78999996
   17.50833321   95.22730255    0.40000001    2.80999994
   17.51166725  105.23999786    0.51999998    2.78999996
   17.51250076   96.11900330    0.51999998    2.78999996
   17.51527786  108.84899902    1.86000001    2.78999996
   17.51833344  100.18000031    1.64999998    2.76999998
   17.52166557  102.72200012    1.58000004    2.78999996
   17.52499962  102.59200287    1.58000004    2.78999996
   17.52805519   99.45600128    0.46000001    2.78999996
   17.53138924  103.87500000    0.46000001    2.80999994
   17.53472137  105.48300171    0.46000001    2.80999994
   17.53777695  101.29399872    0.46000001    2.78999996
   17.54111099  108.43499756    0.44000000    2.78999996
   17.54722214  108.43499756    0.38000000    2.80999994
   17.55111122  108.51300049    0.38000000    2.80999994
   17.55444336  108.50900269    0.38000000    2.78999996
   17.55777740   98.95290375    0.36000001    2.80999994
   17.56083298  108.73600006    0.36000001    2.78999996
   17.56416512  102.50099945    0.36000001    2.78999996
   17.56750107   97.95269775    0.36000001    2.78999996
   17.57055664  107.56700134    0.36000001    2.80999994
   17.57389069  103.17600250    0.40000001    2.78999996
   17.57694626  106.11100006    0.40000001    2.78999996
   17.57916832  102.88099670    0.41999999    2.78999996
   17.58083344   96.85690308    0.41999999    2.78999996
   17.58388901   97.87930298    0.41999999    2.78999996
   17.59000015   97.87930298    0.47999999    2.80999994
   17.59416771   99.68650055    0.44000000    2.78999996
   17.59722328  103.81199646    0.40000001    2.80999994
   17.60055542  102.17600250    0.46000001    2.80999994
   17.60388947  101.07399750    0.52999997    2.78999996
   17.60694504  101.31099701    0.52999997    2.78999996
   17.61027908   99.54229736    0.55000001    2.78999996
   17.61250114  101.73400116    0.52999997    2.80999994
   17.61388969  101.82700348    0.52999997    2.80999994
   17.61722183   95.91739655    0.46000001    2.80999994
   17.62027740   93.33260345    0.40000001    2.78999996
   17.62361145  102.68699646    0.38000000    2.78999996
   17.62666702   97.01069641    0.38000000    2.78999996
   17.63277817   97.01069641    0.38000000    2.80999994
   17.63694382  105.99400330    0.38000000    2.80999994
   17.64027786  101.91300201    0.38000000    2.80999994
   17.64333344  102.32099915    0.38000000    2.80999994
   17.64583397   91.83470154    0.38000000    2.78999996
   17.64694405   98.54669952    0.40000001    2.80999994
   17.65027809  107.07599640    0.40000001    2.80999994
   17.65333366  100.48100281    0.38000000    2.80999994
   17.65666580   96.91970062    0.40000001    2.80999994
   17.65999985  101.06300354    0.38000000    2.80999994
   17.66305542  102.85500336    0.38000000    2.80999994
   17.66638756   93.67520142    0.38000000    2.78999996
   17.66944313   99.69519806    0.38000000    2.80999994
   17.67555428   99.69519806    0.38000000    2.80999994
   17.67972183   97.28359985    0.40000001    2.80999994
   17.68305397   87.54100037    0.40000001    2.80999994
   17.68638802   94.06130219    0.40000001    2.78999996
   17.68944359   99.30979919    0.41999999    2.78999996
   17.69277763  103.90899658    0.41999999    2.78999996
   17.69583321   95.02839661    1.53999996    2.75000000
   17.69916534  100.87699890    1.00000000    2.78999996
   17.70250130   98.84220123    0.41999999    2.78999996
   17.70555687   96.72319794    0.41999999    2.80999994
   17.70888901   98.18340302    0.41999999    2.78999996
   17.71222305   96.71759796    0.40000001    2.80999994
   17.71277809   99.50029755    0.40000001    2.80999994
   17.71861076   99.50029755    0.40000001    2.78999996
   17.72249985  102.49400330    0.52999997    2.80999994
   17.72583389   91.07099915    0.58999997    2.80999994
   17.72916794   93.39790344    0.52999997    2.78999996
   17.73222351   98.45919800    0.51999998    2.78999996
   17.73555565  100.30200195    0.55000001    2.76999998
   17.73888969  101.44499969    0.95999998    2.78999996
   17.74194527   91.10559845    1.00000000    2.78999996
   17.74527740   94.72760010    1.03999996    2.78999996
   17.74611092   92.35919952    1.26999998    2.80999994
   17.74888992   91.18060303    2.32999992    2.76999998
   17.75222206   93.84909821    3.28999996    2.76999998
   17.75555611   97.70999908    3.68000007    2.75000000
   17.76138878   97.70999908    4.90999985    2.73000002
   17.76555634   93.38330078    4.69999981    2.75000000
   17.76861000   92.57399750    4.38999987    2.71000004
   17.77194405  101.81300354    3.70000005    2.75000000
   17.77527809  104.39800262    3.00000000    2.76999998
   17.77833366   97.40139771    1.94000006    2.78999996
   17.77944374   90.68530273    1.78999996    2.78999996
   17.78194427  100.80699921    1.55999994    2.78999996
   17.78527641   96.84570313    1.48000002    2.78999996
   17.78861046   96.13510132    1.36000001    2.78999996
   17.79166603   94.65550232    0.98000002    2.80999994
   17.79500008  120.83000183    0.83999997    2.80999994
   17.79833221  117.41300201    0.61000001    2.78999996
   17.80416679  117.41300201    0.51999998    2.78999996
   17.80833244  106.92299652    0.47999999    2.78999996
   17.81166649   98.64720154    0.44000000    2.78999996
   17.81277657   98.71739960    0.44000000    2.78999996
   17.81499863   90.37870026    0.44000000    2.78999996
   17.81833458   93.32389832    0.41999999    2.78999996
   17.82166672   99.03939819    0.41999999    2.78999996
   17.82472229   96.58869934    0.41999999    2.78999996
   17.82805634   97.71530151    0.41999999    2.78999996
   17.83139038   94.88600159    0.41999999    2.78999996
   17.83444595  103.62200165    0.40000001    2.80999994
   17.83777809   94.84690094    0.38000000    2.78999996
   17.84083366   93.10859680    0.41999999    2.78999996
   17.84694481   93.10859680    0.40000001    2.78999996
   17.85111237  100.25499725    0.40000001    2.78999996
   17.85444450   92.11990356    0.44000000    2.78999996
   17.85750008   99.86319733    0.44000000    2.78999996
   17.86083412   94.85610199    0.41999999    2.78999996
   17.86416626  100.71900177    0.41999999    2.78999996
   17.86722183  101.68399811    0.41999999    2.78999996
   17.87055588  102.72200012    1.16999996    2.78999996
   17.87388992   89.88990021    2.28999996    2.78999996
   17.87694550   97.81559753    2.53999996    2.78999996
   17.87944412   97.81880188    1.73000002    2.76999998
   17.88055611   89.55079651    1.36000001    2.78999996
   17.88388824  110.28199768    1.33000004    2.78999996
   17.88999939  110.28199768    0.83999997    2.78999996
   17.89388847   91.91750336    0.81999999    2.78999996
   17.89722252   94.81870270    0.64999998    2.78999996
   17.90055466   96.82579803    0.64999998    2.78999996
   17.90361023   90.41760254    0.64999998    2.78999996
   17.90694427  100.64700317    0.67000002    2.78999996
   17.91027832  130.64599609    3.16000009    2.76999998
   17.91277695  107.00199890    1.61000001    2.78999996
   17.91361046  109.51499939    1.75000000    2.80999994
   17.91694450  116.69400024    2.13000011    2.78999996
   17.92027664  116.63300323    4.90999985    2.75000000
   17.92333221  106.04699707    4.90999985    2.75000000
   17.92666626  105.35199738    4.90999985    2.75000000
   17.93277740  105.35199738    2.80999994    2.78999996
   17.93694305   90.77870178    1.83000004    2.78999996
   17.93999863   96.92849731    1.73000002    2.76999998
   17.94333267   98.23539734    1.66999996    2.78999996
   17.94610977   97.56860352    1.51999998    2.78999996
   17.94722176   93.24169922    1.48000002    2.78999996
   17.95027924  104.54399872    1.91999996    2.78999996
   17.95361137   99.15869904    3.46000004    2.76999998
   17.95666695   97.49060059    4.80000019    2.75000000
   17.96000099   97.49559784    4.90999985    2.75000000
   17.96333504   92.34559631    4.90999985    2.71000004
   17.96638870   98.22979736    4.90999985    2.75000000
   17.96972275   93.99649811    4.90999985    2.71000004
   17.97555542   93.99649811    4.90999985    2.71000004
   17.97972298   94.87889862    4.90999985    2.67000008
   17.98305511   92.50900269    4.90999985    2.69000006
   17.98611069   97.97290039    4.90999985    2.73000002
   17.98944473   99.54370117    3.70000005    2.75000000
   17.99277878   95.77469635    2.26999998    2.78999996
   17.99583435  104.44400024    2.78999996    2.78999996
   17.99916649   98.51239777    2.89000010    2.76999998
   18.00222206   94.40979767    3.59999990    2.76999998
   18.00555611   93.57510376    3.03999996    2.76999998
   18.00888824   90.02890015    3.41000009    2.76999998
   18.01194382  101.08200073    4.61999989    2.75000000
   18.01277733   88.33910370    4.80000019    2.75000000
   18.01833344   88.33910370    4.90999985    2.75000000
   18.02249908   97.52919769    4.90999985    2.73000002
   18.02583313  103.60800171    4.90999985    2.73000002
   18.02888870  100.39900208    4.90999985    2.78999996
   18.03222275   95.53720093    3.26999998    2.76999998
   18.03555489   99.36399841    2.28999996    2.76999998
   18.03861046   97.17099762    1.60000002    2.76999998
   18.04194450   96.54380035    1.53999996    2.76999998
   18.04527664   87.80300140    1.48000002    2.75000000
   18.04611015   95.83049774    1.41999996    2.76999998
   18.04888916   90.79910278    1.36000001    2.76999998
   18.05194283   91.81559753    1.05999994    2.75000000
   18.05527687   96.19280243    1.13000000    2.78999996
   18.06138802   96.19280243    1.75000000    2.76999998
   18.06527710  103.55999756    2.82999992    2.78999996
   18.06861115   91.36579895    3.09999990    2.76999998
   18.07194519  100.32499695    3.70000005    2.73000002
   18.07500076   98.05999756    4.67999983    2.71000004
   18.07833481   94.38649750    4.36999989    2.71000004
   18.07944489   91.57610321    4.21999979    2.71000004
   18.08194542  100.44699860    3.75000000    2.73000002
   18.08500099   95.17459869    3.21000004    2.75000000
   18.08833313  100.64499664    2.73000002    2.75000000
   18.09138870   98.41719818    2.40000010    2.75000000
   18.09472275   94.32720184    2.00000000    2.76999998
   18.09805679   95.89929962    2.30999994    2.78999996
   18.10416794   95.89929962    2.46000004    2.75000000
   18.10833359   92.48809814    2.53999996    2.76999998
   18.11138916   96.28949738    2.17000008    2.75000000
   18.11277771   90.84269714    2.03999996    2.75000000
   18.11527824  100.34400177    1.71000004    2.76999998
   18.11833382   99.19670105    1.58000004    2.76999998
   18.12166595   95.58039856    1.86000001    2.76999998
   18.12472153   92.20429993    1.94000006    2.75000000
   18.12805557   95.00599670    2.17000008    2.78999996
   18.13138962   95.05999756    2.53999996    2.76999998
   18.13444519   94.40470123    2.80999994    2.75000000
   18.13777733   88.63079834    3.59999990    2.75000000
   18.14111137   91.05370331    4.90999985    2.75000000
   18.14694405   91.05370331    4.90999985    2.73000002
   18.15111160   93.71260071    4.90999985    2.69000006
   18.15416718   89.77420044    4.90999985    2.67000008
   18.15749931   93.30899811    4.90999985    2.64000010
   18.16083336  100.09300232    4.90999985    2.64000010
   18.16388893   94.33809662    4.90999985    2.61999989
   18.16722107   87.93019867    4.90999985    2.61999989
   18.17055511  109.89499664    4.90999985    2.67000008
   18.17361069  119.85600281    4.90999985    2.66000009
   18.17694473  121.91899872    4.90999985    2.69000006
   18.17944336  123.48000336    4.90999985    2.67000008
   18.18055534  146.24899292    4.90999985    2.69000006
   18.18361092   98.66400146    4.90999985    2.71000004
   18.18972206   98.66400146    4.90999985    2.61999989
   18.19388771  121.23100281    4.90999985    2.61999989
   18.19722176  128.66900635    4.90999985    2.57999992
   18.20027924  105.41100311    4.90999985    2.59999990
   18.20361137  117.14299774    4.90999985    2.64000010
   18.20694542  117.39499664    4.90999985    2.64000010
   18.21000099   99.24340057    4.90999985    2.61999989
   18.21277809  120.51000214    4.90999985    2.53999996
   18.21389008  111.11399841    4.90999985    2.51999998
   18.21694565  101.89399719    4.90999985    2.66000009
   18.22027779   95.51750183    4.90999985    2.67000008
   18.22361183   91.43250275    4.90999985    2.69000006
   18.22666740   95.04080200    4.90999985    2.69000006
   18.23277855   95.04080200    4.90999985    2.71000004
   18.23666763   90.94920349    4.90999985    2.66000009
   18.23999977   89.30899811    4.90999985    2.69000006
   18.24333382   91.58540344    4.90999985    2.69000006
   18.24611092   94.96009827    4.90999985    2.64000010
   18.24694443  101.19100189    4.90999985    2.57999992
   18.25000000   94.62670135    4.90999985    2.59999990
   18.25333405   96.19120026    4.90999985    2.66000009
   18.25666618  100.06400299    4.90999985    2.64000010
   18.25972176   94.88439941    4.90999985    2.66000009
   18.26305580  102.35199738    4.90999985    2.64000010
   18.26611137  102.40499878    4.90999985    2.59999990
   18.26944351   88.57689667    4.90999985    2.57999992
   18.27555466   88.57689667    4.90999985    2.67000008
   18.27972221   92.01470184    4.90999985    2.57999992
   18.28277779   85.69139862    4.90999985    2.69000006
   18.28610992   94.20149994    4.90999985    2.73000002
   18.28916550  101.77600098    4.90999985    2.71000004
   18.29249954  236.34899902    4.90999985    2.21000004
   18.29583359   -1.00000000    4.90999985    0.94000000
   18.29888916  162.64799500    4.90999985    0.80000001
   18.30222130  119.30599976    4.90999985    1.91999996
   18.30555534  150.04499817    4.90999985    2.40000010
   18.30861092  111.31300354    4.90999985    2.25000000
   18.31194305  124.86000061    4.90999985    2.32999992
   18.31277657  121.94599915    4.90999985    2.42000008
   18.31833458  121.94599915    4.90999985    2.36999989
   18.32250023  113.14900208    4.90999985    2.42000008
   18.32555580  116.63099670    4.90999985    2.46000004
   18.32888985   94.38240051    4.90999985    2.51999998
   18.33222389  100.95999908    4.90999985    2.53999996
   18.33555603  107.32199860    4.90999985    2.53999996
   18.33861160   97.34220123    4.90999985    2.55999994
   18.34194565   98.42209625    4.90999985    2.53999996
   18.34500122  100.87200165    4.90999985    2.57999992
   18.34611130   95.74680328    4.90999985    2.48000002
   18.34889030   98.50589752    4.90999985    2.57999992
   18.35194397   95.32460022    4.90999985    2.55999994
   18.35527802  108.42500305    4.90999985    2.55999994
   18.36111069  108.42500305    4.90999985    2.50000000
   18.36527824   94.17120361    4.90999985    2.51999998
   18.36861038  108.89600372    4.90999985    2.48000002
   18.37166595  105.45800018    4.90999985    2.40000010
   18.37500000  103.43299866    4.90999985    2.44000006
   18.37833405  110.86299896    4.90999985    2.30999994
   18.37944412  100.00599670    4.90999985    2.32999992
   18.38194466  101.72899628    4.90999985    2.39000010
   18.38500023  107.47699738    4.90999985    2.42000008
   18.38833237   96.06970215    4.90999985    2.46000004
   18.39166641   93.19670105    4.90999985    2.51999998
   18.39472198  100.32599640    4.90999985    2.53999996
   18.39805603   97.38590240    4.90999985    2.48000002
   18.40388870   97.38590240    4.90999985    2.50000000
   18.40805435  100.02200317    4.90999985    2.44000006
   18.41138840  103.47100067    4.90999985    2.50000000
   18.41277695  104.71600342    4.90999985    2.42000008
   18.41499901  107.76699829    4.90999985    2.50000000
   18.41833305   90.23020172    4.90999985    2.48000002
   18.42138863  113.98400116    4.90999985    2.42000008
   18.42472076   95.46649933    4.90999985    2.50000000
   18.42777634   94.62259674    4.90999985    2.51999998
   18.43111038  114.16000366    4.90999985    2.46000004
   18.43444443  103.01000214    4.90999985    2.48000002
   18.43750000  105.55699921    4.90999985    2.40000010
   18.44083214  122.13899994    4.90999985    2.34999990
   18.46333504  108.69100189    4.90999985    2.36999989
   18.46361160   92.64649963    4.90999985    2.44000006
   18.46694565  112.89600372    4.90999985    2.44000006
   18.47000122  104.30000305    4.90999985    2.50000000
   18.47333336  117.05100250    4.90999985    2.51999998
   18.47666740  110.07199860    4.90999985    2.46000004
   18.47944450   86.44419861    4.90999985    2.48000002
   18.48027802  101.14099884    4.90999985    2.50000000
   18.48333359  100.13099670    4.90999985    2.50000000
   18.48972321  100.13099670    4.90999985    2.44000006
   18.49388885  107.64299774    4.90999985    2.46000004
   18.49722290  108.87300110    4.90999985    2.46000004
   18.50027847  115.80899811    4.90999985    2.39000010
   18.50361061  106.03900146    4.90999985    2.42000008
   18.50666618  103.90799713    4.90999985    2.40000010
   18.51000023  112.99800110    4.90999985    2.44000006
   18.51277733  100.80699921    4.90999985    2.44000006
   18.51361084  117.37300110    4.90999985    2.48000002
   18.51666641  114.00800323    4.90999985    2.48000002
   18.52000046  108.69799805    4.90999985    2.42000008
   18.52333260  115.32199860    4.90999985    2.42000008
   18.52638817  105.95800018    4.90999985    2.46000004
   18.53249931  105.95800018    4.90999985    2.46000004
   18.53666687   97.72850037    4.90999985    2.50000000
   18.53999901   99.78730011    4.90999985    2.46000004
   18.54305458  102.71700287    4.90999985    2.46000004
   18.54611015   99.80919647    4.90999985    2.50000000
   18.54694366  103.75700378    4.90999985    2.50000000
   18.54999924  100.92299652    4.90999985    2.51999998
   18.55333328  103.34700012    4.90999985    2.46000004
   18.55666542   96.61060333    4.90999985    2.50000000
   18.55972099   98.49749756    4.90999985    2.51999998
   18.56305504  104.19300079    4.90999985    2.50000000
   18.56638718  105.75199890    4.90999985    2.48000002
   18.56944466  114.79399872    4.90999985    2.34999990
   18.57555580  114.79399872    4.90999985    2.13000011
   18.57944489  147.05799866    4.90999985    1.96000004
   18.58277893  164.36799622    4.90999985    2.23000002
   18.58611107  173.19700623    4.90999985    2.42000008
   18.58916664  198.82099915    4.90999985    2.46000004
   18.59250069  125.93599701    4.90999985    2.34999990
   18.59583473  229.55200195    4.90999985    2.36999989
   18.59889030  181.02299500    4.90999985    2.25000000
   18.60222244  273.00698853    4.90999985    2.46000004
   18.60527802  200.83299255    4.90999985    2.19000006
   18.60861206  339.97500610    4.90999985    2.25000000
   18.61194420  209.04899597    4.90999985    2.09999990
   18.61277771  227.92700195    4.90999985    2.13000011
   18.61833382  227.92700195    4.90999985    2.40000010
   18.62249947  157.05599976    4.90999985    2.46000004
   18.62555504  165.28700256    4.90999985    2.51999998
   18.62888908  138.98899841    4.90999985    2.53999996
   18.63222313  122.94499969    4.90999985    2.57999992
   18.63527679  117.17400360    4.90999985    2.57999992
   18.63861084  139.40100098    4.90999985    2.57999992
   18.64166641  127.19100189    4.90999985    2.61999989
   18.64500046  130.91799927    4.90999985    2.61999989
   18.64611053  116.06099701    4.90999985    2.61999989
   18.64861107  114.00199890    4.90999985    2.61999989
   18.65194321  152.68600464    4.90999985    2.64000010
   18.65499878  140.23599243    4.90999985    2.64000010
   18.66110992  140.23599243    4.90999985    2.59999990
   18.66527748  164.81900024    4.90999985    2.57999992
   18.66860962  145.80900574    4.90999985    2.55999994
   18.67166519  159.25999451    4.90999985    2.46000004
   18.67499924  164.14300537    4.90999985    2.46000004
   18.67805481  191.23399353    4.90999985    2.42000008
   18.67944336  138.91700745    4.90999985    2.36999989
   18.68194389  185.75300598    4.90999985    2.46000004
   18.68527603  185.93499756    4.90999985    2.36999989
   18.68833160  237.81799316    4.90999985    2.28999996
   18.69166565  238.64900208    4.90999985    2.23000002
   18.69499969  199.21400452    4.90999985    2.34999990
   18.69805527  145.34399414    4.90999985    2.39000010
   18.70388985  145.34399414    4.90999985    2.36999989
   18.70805550  261.99398804    4.90999985    2.39000010
   18.71138954  234.98599243    4.90999985    2.40000010
   18.71277809  235.26300049    4.90999985    2.42000008
   18.71500015  237.89199829    4.90999985    2.39000010
   18.71833420  231.66900635    4.90999985    2.39000010
   18.72138977  258.57199097    4.90999985    2.30999994
   18.72472191  383.51400757    4.90999985    2.34999990
   18.72777748  348.57598877    4.90999985    2.13000011
   18.73111153  620.33502197    4.90999985    2.28999996
   18.73305511  510.18600464    4.90999985    2.05999994
   18.73444557  434.26699829    4.90999985    2.07999992
   18.73583412  237.75500488    4.90999985    2.07999992
   18.73583412  237.89199829    4.90999985    2.39000010
   18.73611069  231.66900635    4.90999985    2.39000010
   18.73611069  258.57199097    4.90999985    2.30999994
   18.73611069  383.51400757    4.90999985    2.34999990
   18.73638916  348.57598877    4.90999985    2.13000011
   18.73638916  620.33502197    4.90999985    2.28999996
   18.73638916  145.34399414    4.90999985    2.39000010
   18.73666763  261.99398804    4.90999985    2.39000010
   18.73666763  234.98599243    4.90999985    2.40000010
   18.73722267  256.54501343    4.90999985    2.15000010
   18.74055672  256.87899780    4.90999985    2.23000002
   18.74361229  288.98300171    4.90999985    2.13000011
   18.74694443  375.98300171    4.90999985    2.07999992
   18.75027847  368.99301147    4.90999985    2.25000000
   18.75666618  368.99301147    4.90999985    2.03999996
   18.76083374   38.36619949    4.90999985    1.83000004
   18.76416588  110.58399963    4.90999985    1.91999996
   18.76722145   94.43789673    4.90999985    2.00000000
   18.76972198   87.33439636    4.90999985    1.89999998
   18.77111053  131.84199524    4.90999985    1.88000000
   18.77416611  233.54400635    4.90999985    1.98000002
   18.77750015  620.99798584    4.90999985    2.05999994
   18.77944374  426.51300049    4.90999985    2.09999990
   18.78083229  349.29199219    4.90999985    2.07999992
   18.78083229  233.54400635    4.90999985    1.98000002
   18.78111076  620.99798584    4.90999985    2.05999994
   18.78111076  288.98300171    4.90999985    2.13000011
   18.78111076  375.98300171    4.90999985    2.07999992
   18.78138924  368.99301147    4.90999985    2.25000000
   18.78138924   38.36619949    4.90999985    1.83000004
   18.78138924  110.58399963    4.90999985    1.91999996
   18.78166580   94.43789673    4.90999985    2.00000000
   18.78166580  131.84199524    4.90999985    1.88000000
   18.78249931  145.56700134    4.90999985    2.03999996
   18.78583336  563.11999512    4.90999985    2.05999994
   18.78777695  175.09800720    4.90999985    2.05999994
   18.78777695  145.56700134    4.90999985    2.03999996
   18.78805542  563.11999512    4.90999985    2.05999994
   18.78999901  357.49200439    4.90999985    2.03999996
   18.79305458  375.87899780    4.90999985    2.05999994
   18.79638863  503.92498779    4.90999985    2.07999992
   18.79833221  591.80798340    4.90999985    2.07999992
   18.79972076  659.26300049    4.90999985    2.09999990
   18.80111122  674.65802002    4.90999985    2.09999990
   18.80249977  574.80798340    4.90999985    2.07999992
   18.80388832  560.01098633    4.90999985    2.07999992
   18.80527687  461.36999512    4.90999985    2.09999990
   18.80666542  376.80398560    4.90999985    2.09999990
   18.80805397  517.05700684    4.90999985    2.07999992
   18.80944443  238.26400757    4.90999985    2.05999994
   18.80944443  357.49200439    4.90999985    2.03999996
   18.80972099  375.87899780    4.90999985    2.05999994
   18.80972099  503.92498779    4.90999985    2.07999992
   18.81027794  336.97198486    4.90999985    2.05999994
   18.81361008  453.32699585    4.90999985    2.03999996
   18.81555557  485.32800293    4.90999985    2.05999994
   18.81694603  560.73400879    4.90999985    2.03999996
   18.81833458  488.41598511    4.90999985    2.05999994
   18.81972313  544.02801514    4.90999985    2.07999992
   18.82111168  336.97198486    4.90999985    2.05999994
   18.82111168  453.32699585    4.90999985    2.03999996
   18.82166672   95.07450104    4.90999985    1.98000002
   18.82500076  377.69500732    4.90999985    1.91999996
   18.82805634  537.30499268    4.90999985    2.13000011
   18.83027840  586.63000488    4.90999985    2.11999989
   18.83139038  407.77099609    4.90999985    2.11999989
   18.83277893  388.34100342    4.90999985    2.15000010
   18.83416748  470.48300171    4.90999985    2.17000008
   18.83555603  321.43899536    4.90999985    2.19000006
   18.83583450   95.07450104    4.90999985    1.98000002
   18.83583450  377.69500732    4.90999985    1.91999996
   18.83611107  537.30499268    4.90999985    2.13000011
   18.83666801  428.14001465    4.90999985    2.21000004
   18.83861160  407.42599487    4.90999985    2.17000008
   18.84000015  391.57998657    4.90999985    2.19000006
   18.84138870  412.58599854    4.90999985    2.17000008
   18.84277916  499.65701294    4.90999985    2.15000010
   18.84416771  459.38699341    4.90999985    2.15000010
   18.84555626  447.22500610    4.90999985    2.07999992
   18.84694481  420.16198730    4.90999985    2.13000011
   18.84833336  123.45600128    4.90999985    2.15000010
   18.84833336  428.14001465    4.90999985    2.21000004
   18.84889030  199.22799683    4.90999985    2.17000008
   18.85222244  128.63000488    4.90999985    2.03999996
   18.85527802  468.48699951    4.90999985    1.91999996
   18.85750008  312.64801025    4.90999985    2.07999992
   18.85750008  199.22799683    4.90999985    2.17000008
   18.85750008  128.63000488    4.90999985    2.03999996
   18.85777855  468.48699951    4.90999985    1.91999996
   18.85972214  342.46499634    4.90999985    1.96000004
   18.86277771  387.59799194    4.90999985    2.05999994
   18.86611176  314.34399414    4.90999985    2.07999992
   18.86944389  317.34298706    4.90999985    2.03999996
   18.87249947  374.05099487    4.90999985    2.05999994
   18.87833405  374.05099487    4.90999985    2.03999996
   18.88222313   81.56179810    4.90999985    2.00000000
   18.88555527   86.86849976    4.90999985    1.94000006
   18.88888931  106.56500244    4.90999985    1.94000006
   18.89138794   61.64369965    4.90999985    1.96000004
   18.89249992   88.19709778    4.90999985    1.94000006
   18.89583397   66.72480011    4.90999985    1.94000006
   18.89916611   65.42990112    4.90999985    1.89999998
   18.90222168   73.42990112    4.90999985    1.91999996
   18.90555573   23.57019997    4.90999985    1.88000000
   18.90861130   -1.00000000   -1.00000000   -1.00000000
   18.91194344   -1.00000000    4.90999985    1.86000001
   18.91527748   -1.00000000    4.90999985    1.76999998
   18.92111015   -1.00000000    4.90999985    1.63000000
   18.92527771   -1.00000000    4.90999985    1.64999998
   18.92833328   -1.00000000    4.90999985    1.71000004
   18.93166542   -1.00000000    4.90999985    1.63000000
   18.93499947   -1.00000000    4.90999985    1.63000000
   18.93805504   -1.00000000    4.90999985    1.64999998
   18.94138718   -1.00000000    4.90999985    1.55999994
   18.94444275   -1.00000000    4.90999985    1.50000000
   18.94777679   -1.00000000    4.90999985    1.48000002
   18.95111275   -1.00000000    4.90999985    1.51999998
   18.95416832   -1.00000000    4.90999985    1.51999998
   18.95750046   -1.00000000    4.90999985    1.23000002
   18.96389008   -1.00000000    4.90999985    1.50000000
   18.96805573   -1.00000000    4.90999985    1.58000004
   18.97138977   -1.00000000    4.90999985    1.51999998
   18.97444534   -1.00000000    4.90999985    1.44000006
   18.97777748   -1.00000000    4.90999985    1.39999998
   18.98083305   -1.00000000    4.90999985    1.39999998
   18.98416710   -1.00000000    4.90999985    1.38000000
   18.98750114   -1.00000000    4.90999985    1.25000000
   18.99055672   -1.00000000    4.90999985    1.23000002
   18.99416733   -1.00000000    4.90999985    1.36000001
   18.99749947   -1.00000000    4.90999985    1.44000006
   19.00055504   -1.00000000    4.90999985    1.48000002
   19.01083374   -1.00000000    4.90999985    1.48000002
   19.01416588   -1.00000000    4.90999985    1.50000000
   19.01722145   -1.00000000    4.90999985    1.60000002
   19.02055550   -1.00000000    4.90999985    1.58000004
   19.02361107   -1.00000000    4.90999985    1.63000000
   19.02722168   -1.00000000    4.90999985    1.55999994
   19.03055573   -1.00000000    4.90999985    1.55999994
   19.03361130   -1.00000000    4.90999985    1.63000000
   19.03694344   -1.00000000    4.90999985    1.66999996
   19.04027748   -1.00000000    4.90999985    1.60000002
   19.04333305   -1.00000000    4.90999985    1.64999998
   19.04972076   -1.00000000    4.90999985    1.61000001
   19.05360985   -1.00000000    4.90999985    1.58000004
   19.05694389   -1.00000000    4.90999985    1.66999996
   19.06055450   -1.00000000    4.90999985    1.64999998
   19.06388855   -1.00000000    4.90999985    1.66999996
   19.06694603   -1.00000000    4.90999985    1.64999998
   19.07027817   -1.00000000    4.90999985    1.61000001
   19.07361221   -1.00000000    4.90999985    1.61000001
   19.07666779   -1.00000000    4.90999985    1.64999998
   19.08000183   -1.00000000    4.90999985    1.66999996
   19.08333397   -1.00000000    4.90999985    1.63000000
   19.08638954   -1.00000000    4.90999985    1.60000002
   19.09250069   -1.00000000    4.90999985    1.51999998
   19.09666824   -1.00000000    4.90999985    1.53999996
   19.09972191   -1.00000000    4.90999985    1.58000004
   19.10305595   -1.00000000    4.90999985    1.55999994
   19.10639000   -1.00000000    4.90999985    1.50000000
   19.10944557   -1.00000000    4.90999985    1.46000004
   19.11277771   -1.00000000    4.90999985    1.53999996
   19.11611176   -1.00000000    4.90999985    1.50000000
   19.11916733   -1.00000000    4.90999985    1.51999998
   19.12249947   -1.00000000    4.90999985    1.53999996
   19.12583351   -1.00000000    4.90999985    1.51999998
   19.12916756   -1.00000000    4.90999985    1.50000000
   19.13527679   -1.00000000    4.90999985    1.51999998
   19.13944435   -1.00000000    4.90999985    1.50000000
   19.14277840   -1.00000000    4.90999985    1.46000004
   19.14583397   -1.00000000    4.90999985    1.41999996
   19.14916611   -1.00000000    4.90999985    1.36000001
   19.15222168   -1.00000000    4.90999985    1.36000001
   19.15555573   -1.00000000    4.90999985    1.33000004
   19.15916634   -1.00000000    4.90999985    1.30999994
   19.16250038   -1.00000000    4.90999985    1.33000004
   19.16583252   -1.00000000    4.90999985    1.33000004
   19.16888809   -1.00000000    4.90999985    1.26999998
   19.17222214   -1.00000000    4.90999985    1.28999996
   19.18222237   -1.00000000    4.90999985    1.25000000
   19.18555450   -1.00000000    4.90999985    1.28999996
   19.18861008   -1.00000000    4.90999985    1.28999996
   19.19222069   -1.00000000    4.90999985    1.26999998
   19.19555473   -1.00000000    4.90999985    1.30999994
   19.19888878   -1.00000000    4.90999985    1.33000004
   19.20194435   -1.00000000    4.90999985    1.33000004
   19.20527840   -1.00000000    4.90999985    1.30999994
   19.20833397   -1.00000000    4.90999985    1.30999994
   19.21166801   -1.00000000    4.90999985    1.30999994
   19.21500015   -1.00000000    4.90999985    1.30999994
   19.22500038   -1.00000000    4.90999985    1.48000002
   19.22833443   -1.00000000    4.90999985    1.51999998
   19.23139000   -1.00000000    4.90999985    1.51999998
   19.23472214   -1.00000000    4.90999985    1.51999998
   19.23805618   -1.00000000    4.90999985    1.50000000
   19.24111176   -1.00000000    4.90999985    1.50000000
   19.24444389   -1.00000000    4.90999985    1.48000002
   19.24749947   -1.00000000    4.90999985    1.48000002
   19.25083351   -1.00000000    4.90999985    1.51999998
   19.25416756   -1.00000000    4.90999985    1.51999998
   19.25722313   -1.00000000    4.90999985    1.51999998
   19.26388931   -1.00000000    4.90999985    1.58000004
   19.26805496   -1.00000000    4.90999985    1.53999996
   19.27111053   -1.00000000    4.90999985    1.60000002
   19.27444458   -1.00000000    4.90999985    1.60000002
   19.27777672   -1.00000000    4.90999985    1.61000001
   19.28083229   -1.00000000    4.90999985    1.63000000
   19.28416634   -1.00000000    4.90999985    1.61000001
   19.28722191   -1.00000000    4.90999985    1.60000002
   19.29055595   -1.00000000    4.90999985    1.58000004
   19.29388809   -1.00000000    4.90999985    1.55999994
   19.29722214   -1.00000000    4.90999985    1.55999994
   19.30055428   -1.00000000    4.90999985    1.55999994
   19.30666542   -1.00000000    4.90999985    1.51999998
   19.31083298   -1.00000000    4.90999985    1.53999996
   19.31416512   -1.00000000    4.90999985    1.53999996
   19.31722260   -1.00000000    4.90999985    1.53999996
   19.32055664   -1.00000000    4.90999985    1.53999996
   19.32361221   -1.00000000    4.90999985    1.51999998
   19.32722282   -1.00000000    4.90999985    1.50000000
   19.33055687   -1.00000000    4.90999985    1.46000004
   19.33388901   -1.00000000    4.90999985    1.39999998
   19.33694458   -1.00000000    4.90999985    1.38000000
   19.34027863   -1.00000000    4.90999985    1.36000001
   19.34333420   -1.00000000    4.90999985    1.33000004
   19.35361099   -1.00000000    4.90999985    1.36000001
   19.35666656   -1.00000000    4.90999985    1.38000000
   19.36027908   -1.00000000    4.90999985    1.38000000
   19.36361122   -1.00000000    4.90999985    1.38000000
   19.36694527   -1.00000000    4.90999985    1.38000000
   19.37000084   -1.00000000    4.90999985    1.36000001
   19.37333298   -1.00000000    4.90999985    1.36000001
   19.37666702   -1.00000000    4.90999985    1.38000000
   19.37972260   -1.00000000    4.90999985    1.38000000
   19.38305473   -1.00000000    4.90999985    1.36000001
   19.38611031   -1.00000000    4.90999985    1.36000001
   19.39638901   -1.00000000    4.90999985    1.38000000
   19.39972115   -1.00000000    4.90999985    1.30999994
   19.40277672   -1.00000000    4.90999985    1.33000004
   19.40611076   -1.00000000    4.90999985    1.36000001
   19.40944481   -1.00000000    4.90999985    1.36000001
   19.41250038   -1.00000000    4.90999985    1.36000001
   19.41583252   -1.00000000    4.90999985    1.30999994
   19.41916656   -1.00000000    4.90999985    1.28999996
   19.42222214   -1.00000000    4.90999985    1.33000004
   19.42583275   -1.00000000    4.90999985    1.34000003
   19.42916679   -1.00000000    4.90999985    1.36000001
   19.43527603   -1.00000000    4.90999985    1.41999996
   19.43944359   -1.00000000    4.90999985    1.46000004
   19.44249916   -1.00000000    4.90999985    1.44000006
   19.44583321   -1.00000000    4.90999985    1.44000006
   19.44916534   -1.00000000    4.90999985    1.39999998
   19.45222282   -1.00000000    4.90999985    1.38000000
   19.45555687   -1.00000000    4.90999985    1.39999998
   19.45888901   -1.00000000    4.90999985    1.36000001
   19.46222305   -1.00000000    4.90999985    1.38000000
   19.48777771   -1.00000000    4.90999985    1.34000003
   19.49111176   -1.00000000    4.90999985    1.36000001
   19.49444389   -1.00000000    4.90999985    1.34000003
   19.49777794   -1.00000000    4.90999985    1.34000003
   19.50083351   -1.00000000    4.90999985    1.33000004
   19.50416756   -1.00000000    4.90999985    1.36000001
   19.50749969   -1.00000000    4.90999985    1.36000001
   19.51055527   -1.00000000    4.90999985    1.38000000
   19.51388931   -1.00000000    4.90999985    1.36000001
   19.51722145   -1.00000000    4.90999985    1.36000001
   19.52027702   -1.00000000    4.90999985    1.39999998
   19.53055573   -1.00000000    4.90999985    1.38000000
   19.53388786   -1.00000000    4.90999985    1.38000000
   19.53694344   -1.00000000    4.90999985    1.44000006
   19.54027748   -1.00000000    4.90999985    1.46000004
   19.54361153   -1.00000000    4.90999985    1.46000004
   19.54666710   -1.00000000    4.90999985    1.48000002
   19.54999924   -1.00000000    4.90999985    1.48000002
   19.55333328   -1.00000000    4.90999985    1.48000002
   19.55638885   -1.00000000    4.90999985    1.51999998
   19.55999947   -1.00000000    4.90999985    1.51999998
   19.56333351   -1.00000000    4.90999985    1.55999994
   19.56944466   -1.00000000    4.90999985    1.60000002
   19.57361221   -1.00000000    4.90999985    1.63000000
   19.57666779   -1.00000000    4.90999985    1.60000002
   19.58000183   -1.00000000    4.90999985    1.61000001
   19.58333397   -1.00000000    4.90999985    1.64999998
   19.58638954   -1.00000000    4.90999985    1.66999996
   19.58972359   -1.00000000    4.90999985    1.64999998
   19.59305573   -1.00000000    4.90999985    1.63000000
   19.59638977   -1.00000000    4.90999985    1.60000002
   19.59944534   -1.00000000    4.90999985    1.61000001
   19.60277748   -1.00000000    4.90999985    1.58000004
   19.60611153   -1.00000000    4.90999985    1.53999996
   19.61222267   -1.00000000    4.90999985    1.58000004
   19.61638832   -1.00000000    4.90999985    1.55999994
   19.61972237   -1.00000000    4.90999985    1.55999994
   19.62277794   -1.00000000    4.90999985    1.53999996
   19.62638855   -1.00000000    4.90999985    1.53999996
   19.62972260   -1.00000000    4.90999985    1.55999994
   19.63305473   -1.00000000    4.90999985    1.60000002
   19.63611031   -1.00000000    4.90999985    1.51999998
   19.63944435   -1.00000000    4.90999985    1.50000000
   19.64249992   -1.00000000    4.90999985    1.50000000
   19.64583397   -1.00000000    4.90999985    1.50000000
   19.64916611   -1.00000000    4.90999985    1.51999998
   19.65499878   -1.00000000    4.90999985    1.55999994
   19.65916634   -1.00000000    4.90999985    1.61000001
   19.66250038   -1.00000000    4.90999985    1.50000000
   19.66555595   -1.00000000    4.90999985    1.38000000
   19.66888809   -1.00000000    4.90999985    1.41999996
   19.67222214   -1.00000000    4.90999985    1.39999998
   19.67527771   -1.00000000    4.90999985    1.25000000
   19.67860985   -1.00000000    4.90999985    1.30999994
   19.68194389   -1.00000000    4.90999985    1.33000004
   19.68499947   -1.00000000    4.90999985    1.36000001
   19.68833160   -1.00000000    4.90999985    1.28999996
   19.69138718   -1.00000000    4.90999985    1.28999996
   19.70194435   -1.00000000    4.90999985    1.30999994
   19.70527840   -1.00000000    4.90999985    1.33000004
   19.70833397   -1.00000000    4.90999985    1.28999996
   19.71166801   -1.00000000    4.90999985    1.36000001
   19.71500015   -1.00000000    4.90999985    1.33000004
   19.71805573   -1.00000000    4.90999985    1.33000004
   19.72138977   -1.00000000    4.90999985    1.34000003
   19.72472191   -1.00000000    4.90999985    1.28999996
   19.72833443   -1.00000000    4.90999985    1.34000003
   19.73139000   -1.00000000    4.90999985    1.34000003
   19.73472214   -1.00000000    4.90999985    1.39999998
   19.74472237   -1.00000000    4.90999985    1.44000006
   19.74805641   -1.00000000    4.90999985    1.39999998
   19.75138855   -1.00000000    4.90999985    1.44000006
   19.75444412   -1.00000000    4.90999985    1.48000002
   19.75777817   -1.00000000    4.90999985    1.39999998
   19.76138878   -1.00000000    4.90999985    1.36000001
   19.76444435   -1.00000000    4.90999985    1.33000004
   19.76777840   -1.00000000    4.90999985    1.34000003
   19.77111053   -1.00000000    4.90999985    1.33000004
   19.77416611   -1.00000000    4.90999985    1.33000004
   19.77750015   -1.00000000    4.90999985    1.36000001
   19.78777695   -1.00000000    4.90999985    1.38000000
   19.79083252   -1.00000000    4.90999985    1.33000004
   19.79444313   -1.00000000    4.90999985    1.30999994
   19.79749870   -1.00000000    4.90999985    1.33000004
   19.80083275   -1.00000000    4.90999985    1.36000001
   19.80416679   -1.00000000    4.90999985    1.38000000
   19.80722237   -1.00000000    4.90999985    1.38000000
   19.81055450   -1.00000000    4.90999985    1.36000001
   19.81388855   -1.00000000    4.90999985    1.36000001
   19.81694603   -1.00000000    4.90999985    1.39999998
   19.82027817   -1.00000000    4.90999985    1.41999996
   19.83055687   -1.00000000    4.90999985    1.38000000
   19.83361244   -1.00000000    4.90999985    1.39999998
   19.83694458   -1.00000000    4.90999985    1.46000004
   19.84027863   -1.00000000    4.90999985    1.48000002
   19.84333420   -1.00000000    4.90999985    1.46000004
   19.84666824   -1.00000000    4.90999985    1.46000004
   19.85000038   -1.00000000    4.90999985    1.44000006
   19.85305595   -1.00000000    4.90999985    1.36000001
   19.85639000   -1.00000000    4.90999985    1.38000000
   19.86000061   -1.00000000    4.90999985    1.34000003
   19.86305618   -1.00000000    4.90999985    1.34000003
   19.87333298   -1.00000000    4.90999985    1.19000006
   19.87666702   -1.00000000    4.90999985    1.19000006
   19.87972260   -1.00000000    4.90999985    1.16999996
   19.88305473   -1.00000000    4.90999985    1.13000000
   19.88638878   -1.00000000    4.90999985    1.13000000
   19.88944435   -1.00000000    4.90999985    1.11000001
   19.89305496   -1.00000000    4.90999985    1.09000003
   19.89611053   -1.00000000    4.90999985    1.09000003
   19.89944458   -1.00000000    4.90999985    1.03999996
   19.90277672   -1.00000000    4.90999985    1.05999994
   19.90583229   -1.00000000    4.90999985    1.03999996
   19.91611099   -1.00000000    4.90999985    1.05999994
   19.91944313   -1.00000000    4.90999985    1.05999994
   19.92277718   -1.00000000    4.90999985    1.09000003
   19.92638779   -1.00000000    4.90999985    1.09000003
   19.92944336   -1.00000000    4.90999985    1.05999994
   19.93277740   -1.00000000    4.90999985    1.05999994
   19.93610954   -1.00000000    4.90999985    1.05999994
   19.93916512   -1.00000000    4.90999985    1.03999996
   19.94249916   -1.00000000    4.90999985    1.00000000
   19.94583321   -1.00000000    4.90999985    0.95999998
   19.94888878   -1.00000000    4.90999985    0.95999998
   19.95916748   -1.00000000    4.90999985    0.89999998
   19.96222305   -1.00000000    4.90999985    0.86000001
   19.96555710   -1.00000000    4.90999985    0.88000000
   19.96861076   -1.00000000    4.90999985    0.92000002
   19.97194481   -1.00000000    4.90999985    0.98000002
   19.97527885   -1.00000000    4.90999985    1.03999996
   19.97833443   -1.00000000    4.90999985    1.07000005
   19.98166656   -1.00000000    4.90999985    1.00000000
   19.98472214   -1.00000000    4.90999985    1.00000000
   19.98805618   -1.00000000    4.90999985    1.05999994
   19.99138832   -1.00000000    4.90999985    1.01999998
   20.00194359   -1.00000000    4.90999985    0.92000002
   20.00499916   -1.00000000    4.90999985    0.94000000
   20.00833321   -1.00000000    4.90999985    0.95999998
   20.01166725   -1.00000000    4.90999985    1.03999996
   20.01472282   -1.00000000    4.90999985    1.00000000
   20.01805496   -1.00000000    4.90999985    1.00000000
   20.02166557   -1.00000000    4.90999985    0.94000000
   20.02472115   -1.00000000    4.90999985    0.92000002
   20.02833366   -1.00000000    4.90999985    0.94000000
   20.03138924   -1.00000000    4.90999985    0.83999997
   20.03472137   -1.00000000    4.90999985    0.79000002
   20.04472160   -1.00000000    4.90999985    0.89999998
   20.04805565   -1.00000000    4.90999985    0.89999998
   20.05111122   -1.00000000    4.90999985    0.88000000
   20.05444336   -1.00000000    4.90999985    0.88000000
   20.05777740   -1.00000000    4.90999985    0.94000000
   20.06110954   -1.00000000    4.90999985    0.92000002
   20.06416512   -1.00000000    4.90999985    0.89999998
   20.06750107   -1.00000000    4.90999985    0.88000000
   20.07083511   -1.00000000    4.90999985    0.86000001
   20.07389069   -1.00000000    4.90999985    0.89999998
   20.07722282   -1.00000000    4.90999985    0.88000000
   20.08750153   -1.00000000    4.90999985    0.58999997
   20.09083366   -1.00000000    4.90999985    0.52999997
   20.09444427   -1.00000000    4.90999985    0.56999999
   20.09749985   -1.00000000    4.90999985    0.56999999
   20.10083389   -1.00000000    4.90999985    0.61000001
   20.10416794   -1.00000000    4.90999985    0.55000001
   20.10722351   -1.00000000    4.90999985    0.55000001
   20.11055565   -1.00000000    4.90999985    0.56999999
   20.11388969   -1.00000000    4.90999985    0.58999997
   20.11694527   -1.00000000    4.90999985    0.52999997
   20.12027740   -1.00000000    4.90999985    0.52999997
   20.13055611   -1.00000000    4.90999985    0.58999997
   20.13361168   -1.00000000    4.90999985    0.52999997
   20.13694382   -1.00000000    4.90999985    0.56999999
   20.14027786   -1.00000000    4.90999985    0.51999998
   20.14333344   -1.00000000    4.90999985    0.55000001
   20.14666748   -1.00000000    4.90999985    0.56999999
   20.14972115   -1.00000000    4.90999985    0.56999999
   20.15305519   -1.00000000    4.90999985    0.61000001
   20.15638924   -1.00000000    4.90999985    0.51999998
   20.15999985   -1.00000000    4.90999985    0.47999999
   20.16333389   -1.00000000    4.90999985    0.41999999
   20.17333221   -1.00000000    4.90999985    0.31999999
   20.17666626   -1.00000000    4.90999985    0.28000000
   20.17972183   -1.00000000    4.90999985    0.25999999
   20.18305397   -1.00000000    4.90999985    0.25999999
   20.18610954   -1.00000000    4.90999985    0.25999999
   20.18944359   -1.00000000    4.90999985    0.28000000
   20.19305420   -1.00000000    4.90999985    0.28000000
   20.19638824   -1.00000000    4.90999985    0.25000000
   20.19944382   -1.00000000    4.90999985    0.25000000
   20.20277786   -1.00000000    4.90999985    0.23000000
   20.20583344   -1.00000000    4.90999985    0.30000001
   20.21611214   -1.00000000    4.90999985    0.20999999
   20.21944427   -1.00000000    4.90999985    0.20999999
   20.22249985   -1.00000000    4.90999985    0.25999999
   20.22611237   -1.00000000    4.90999985    0.31999999
   20.22944450   -1.00000000    4.90999985    0.25999999
   20.23250008   -1.00000000    4.90999985    0.23000000
   20.23583412   -1.00000000    4.90999985    0.25000000
   20.23888969   -1.00000000    4.90999985    0.25000000
   20.24222183   -1.00000000    4.90999985    0.25000000
   20.24555588   -1.00000000    4.90999985    0.25000000
   20.24861145   -1.00000000    4.90999985    0.20999999
   20.25888824   -1.00000000    4.90999985    0.19000000
   20.26222229   -1.00000000    4.90999985    0.20999999
   20.26555634   -1.00000000    4.90999985    0.17000000
   20.26861000   -1.00000000    4.90999985    0.15000001
   20.27194405   -1.00000000    4.90999985    0.15000001
   20.27527809   -1.00000000    4.90999985    0.13000000
   20.27833366   -1.00000000    4.90999985    0.13000000
   20.28166580   -1.00000000    4.90999985    0.13000000
   20.28472137   -1.00000000    4.90999985    0.11000000
   20.28805542   -1.00000000    4.90999985    0.13000000
   20.29138756   -1.00000000    4.90999985    0.11000000
   20.30194283   -1.00000000    4.90999985    0.07000000
   20.30499840   -1.00000000    4.90999985    0.05000000
   20.30833244   -1.00000000    4.90999985    0.03000000
   20.31138802   -1.00000000    4.90999985    0.05000000
   20.31472206   -1.00000000    4.90999985    0.03000000
   20.31805611   -1.00000000    4.90999985    0.03000000
   20.32111168   -1.00000000    4.90999985    0.03000000
   20.32444572   -1.00000000    4.90999985    0.03000000
   20.32805634   -1.00000000    4.90999985    0.01000000
   20.33111191   -1.00000000    4.90999985    0.01000000
   20.33444595   -1.00000000    4.90999985    0.01000000
   20.34472275   -1.00000000    4.90999985    0.01000000
   20.34777832   -1.00000000    4.90999985    0.01000000
   20.35111237   -1.00000000    4.90999985    0.01000000
   20.35444450   -1.00000000    4.90999985    0.01000000
   20.35750008   -1.00000000    4.90999985    0.01000000
   20.36111069   -1.00000000    4.90999985    0.01000000
   20.36444473   -1.00000000    4.90999985    0.01000000
   20.36750031   -1.00000000    4.90999985    0.01000000
   20.37083435   -1.00000000    4.90999985    0.01000000
   20.37416649   -1.00000000    4.90999985    0.01000000
   20.37722206   -1.00000000    4.90999985    0.01000000
   20.38750076   -1.00000000    4.90999985    0.01000000
   20.39083290   -1.00000000    4.90999985    0.01000000
   20.39444351   -1.00000000    4.90999985    0.01000000
   20.39777756   -1.00000000    4.90999985    0.01000000
   20.40083313   -1.00000000    4.90999985    0.01000000
   20.40416718   -1.00000000    4.90999985    0.01000000
   20.40722275   -1.00000000    4.90999985    0.01000000
   20.41055489   -1.00000000    4.90999985    0.01000000
   20.41388893   -1.00000000    4.90999985    0.01000000
   20.41694450   -1.00000000    4.90999985    0.01000000
   20.42027664   -1.00000000    4.90999985    0.01000000
   20.43027687   -1.00000000    4.90999985    0.01000000
   20.43361092   -1.00000000    4.90999985    0.01000000
   20.43694305   -1.00000000    4.90999985    0.01000000
   20.43999863   -1.00000000    4.90999985    0.01000000
   20.44333267   -1.00000000    4.90999985    0.01000000
   20.44666672   -1.00000000    4.90999985    0.01000000
   20.44972038   -1.00000000    4.90999985    0.01000000
   20.45305634   -1.00000000    4.90999985    0.01000000
   20.45611191   -1.00000000    4.90999985    0.01000000
   20.45972252   -1.00000000    4.90999985    0.01000000
   20.46305656   -1.00000000    4.90999985    0.01000000
   20.47333336   -1.00000000    4.90999985    0.01000000
   20.47638893   -1.00000000    4.90999985    0.01000000
   20.47972298   -1.00000000    4.90999985    0.01000000
   20.49944496   -1.00000000    4.90999985    0.01000000
   20.50277710   -1.00000000    4.90999985    0.01000000
   20.50611115   -1.00000000    4.90999985    0.01000000
   20.51611137   -1.00000000    4.90999985    0.01000000
   20.51944351   -1.00000000    4.90999985    0.01000000
   20.52249908   -1.00000000    4.90999985    0.01000000
   20.52583313   -1.00000000    4.90999985    0.01000000
   20.52916718   -1.00000000    4.90999985    0.01000000
   20.53277779   -1.00000000    4.90999985    0.01000000
   20.53610992   -1.00000000    4.90999985    0.01000000
   20.53916550   -1.00000000    4.90999985    0.01000000
   20.54249954   -1.00000000    4.90999985    0.01000000
   20.54583359   -1.00000000    4.90999985    0.01000000
   20.54888916   -1.00000000    4.90999985    0.01000000
   20.55888748   -1.00000000    4.90999985    0.01000000
   20.56222153   -1.00000000    4.90999985    0.01000000
   20.56583214   -1.00000000    4.90999985    0.01000000
   20.56916809   -1.00000000    4.90999985    0.01000000
   20.57222366   -1.00000000    4.90999985    0.01000000
   20.57555580   -1.00000000    4.90999985    0.01000000
   20.57861137   -1.00000000    4.90999985    0.01000000
   20.58194542   -1.00000000    4.90999985    0.01000000
   20.58527756   -1.00000000    4.90999985    0.01000000
   20.58833313   -1.00000000    4.90999985    0.01000000
   20.59166718   -1.00000000    4.90999985    0.01000000
   20.60194397   -1.00000000    4.90999985    0.01000000
   20.60499954   -1.00000000    4.90999985    0.01000000
   20.60833359   -1.00000000    4.90999985    0.01000000
   20.61166763   -1.00000000    4.90999985    0.01000000
   20.61472321   -1.00000000    4.90999985    0.01000000
   20.61805534   -1.00000000    4.90999985    0.01000000
   20.62111092   -1.00000000    4.90999985    0.01000000
   20.62444496   -1.00000000    4.90999985    0.01000000
   20.62777710   -1.00000000    4.90999985    0.01000000
   20.63138962   -1.00000000    4.90999985    0.01000000
   20.63472176   -1.00000000    4.90999985    0.01000000
   20.64472198   -1.00000000    4.90999985    0.01000000
   20.64805603   -1.00000000    4.90999985    0.01000000
   20.65111160   -1.00000000    4.90999985    0.01000000
   20.65444374   -1.00000000    4.90999985    0.01000000
   20.65749931   -1.00000000    4.90999985    0.01000000
   20.66083336   -1.00000000    4.90999985    0.01000000
   20.66444397   -1.00000000    4.90999985    0.01000000
   20.66777802   -1.00000000    4.90999985    0.01000000
   20.67083359   -1.00000000    4.90999985    0.01000000
   20.67416573   -1.00000000    4.90999985    0.01000000
   20.67722130   -1.00000000    4.90999985    0.01000000
   20.68750000   -1.00000000    4.90999985    0.01000000
   20.69083214   -1.00000000    4.90999985    0.01000000
   20.69388771   -1.00000000    4.90999985    0.01000000
   20.69749832   -1.00000000    4.90999985    0.01000000
   20.70083427   -1.00000000    4.90999985    0.01000000
   20.70388985   -1.00000000    4.90999985    0.01000000
   20.70722389   -1.00000000    4.90999985    0.01000000
   20.71027946   -1.00000000    4.90999985    0.01000000
   20.71361160   -1.00000000    4.90999985    0.01000000
   20.71694565   -1.00000000    4.90999985    0.01000000
   20.72000122   -1.00000000    4.90999985    0.01000000
   20.73083305   -1.00000000    4.90999985    0.01000000
   20.73416710   -1.00000000    4.90999985    0.01000000
   20.73722267   -1.00000000    4.90999985    0.01000000
   20.74055672   -1.00000000    4.90999985    0.01000000
   20.74361229   -1.00000000    4.90999985    0.01000000
   20.74694443   -1.00000000    4.90999985    0.01000000
   20.75027847   -1.00000000    4.90999985    0.01000000
   20.75333405   -1.00000000    4.90999985    0.01000000
   20.75666618   -1.00000000    4.90999985    0.01000000
   20.76000023   -1.00000000    4.90999985    0.01000000
   20.76305580   -1.00000000    4.90999985    0.01000000
