    HOUR (UT)   FLARE FACTOR    SKY TESTER    SUN TESTER
   11.24361134   -1.00000000   -1.00000000   -1.00000000
   11.26638889  204.29200745    2.44000006    2.42000008
   11.26972198  257.79199219    2.44000006    2.42000008
   11.27277756  220.91900635    2.42000008    2.42000008
   11.27611065  222.98300171    2.42000008    2.42000008
   11.27944374  223.41700745    2.42000008    2.42000008
   11.28249931  238.64599609    2.40000010    2.44000006
   11.28666687  238.64599609    2.40000010    2.42000008
   11.29083347  237.90400696    2.40000010    2.44000006
   11.29416752  227.12399292    2.40000010    2.44000006
   11.29750061  216.82600403    2.40000010    2.42000008
   11.29944515  230.55299377    2.39000010    2.42000008
   11.30111122  235.30200195    2.40000010    2.42000008
   11.30416679  226.74800110    2.39000010    2.44000006
   11.30749989  207.15600586    2.39000010    2.44000006
   11.31055546  216.00999451    2.39000010    2.44000006
   11.31388950  205.74000549    2.39000010    2.42000008
   11.31722260  229.38499451    2.39000010    2.42000008
   11.32027817  214.84399414    2.39000010    2.44000006
   11.32361126  223.84599304    2.39000010    2.44000006
   11.32944393  223.84599304    2.36999989    2.44000006
   11.33361053  211.78500366    2.36999989    2.46000004
   11.33694458  222.83900452    2.34999990    2.44000006
   11.34000015  205.50199890    2.34999990    2.46000004
   11.34333324  196.51600647    2.34999990    2.46000004
   11.34666634  208.80299377    2.34999990    2.46000004
   11.34972191  180.68699646    2.34999990    2.46000004
   11.35305595  216.29699707    2.32999992    2.46000004
   11.35638905  208.50300598    2.32999992    2.46000004
   11.35944462  208.86300659    2.32999992    2.46000004
   11.36277771  211.98199463    2.32999992    2.46000004
   11.36611176  209.88000488    2.32999992    2.44000006
   11.36666679  208.89199829    2.32999992    2.46000004
   11.37250042  208.89199829    2.32999992    2.46000004
   11.37638855  204.07800293    2.36999989    2.46000004
   11.37972260  179.89500427    2.34999990    2.46000004
   11.38305569  187.72900391    2.34999990    2.46000004
   11.38611126  195.18699646    2.34999990    2.46000004
   11.38944435  187.25700378    2.36999989    2.46000004
   11.39277744  194.35099792    2.36999989    2.46000004
   11.39583302  181.66600037    2.36999989    2.48000002
   11.39916611  198.08200073    2.36999989    2.48000002
   11.39972210  204.69000244    2.39000010    2.48000002
   11.40277767  207.96699524    2.36999989    2.48000002
   11.40611076  210.95100403    2.36999989    2.48000002
   11.40916634  189.54400635    2.39000010    2.46000004
   11.41527748  189.54400635    2.39000010    2.48000002
   11.41944504  205.19999695    2.36999989    2.48000002
   11.42250061  194.14199829    2.40000010    2.48000002
   11.42583370  201.53500366    2.40000010    2.46000004
   11.42916679  208.45700073    2.40000010    2.48000002
   11.43222237  202.72500610    2.40000010    2.48000002
   11.43333340  199.49200439    2.42000008    2.48000002
   11.43583298  196.04899597    2.42000008    2.48000002
   11.43916702  206.85000610    2.42000008    2.48000002
   11.44222260  210.88299561    2.44000006    2.50000000
   11.44555569  189.51899719    2.48000002    2.48000002
   11.44888878  205.92700195    2.50000000    2.50000000
   11.45194435  205.25100708    2.50000000    2.50000000
   11.45805550  205.25100708    2.53999996    2.48000002
   11.46222210  210.35800171    2.57999992    2.50000000
   11.46555519  191.76199341    2.57999992    2.50000000
   11.46666622  181.82899475    2.57999992    2.50000000
   11.46888828  197.02999878    2.59999990    2.48000002
   11.47222137  195.55999756    2.57999992    2.50000000
   11.47527695  204.62100220    2.64000010    2.50000000
   11.47861099  180.29800415    2.64000010    2.50000000
   11.48194408  190.44000244    2.66000009    2.50000000
   11.48500061  171.18600464    2.69000006    2.50000000
   11.48833370  208.06500244    2.67000008    2.48000002
   11.49166679  194.67799377    2.73000002    2.50000000
   11.49472237  157.93600464    2.71000004    2.50000000
   11.50083351  157.93600464    2.75000000    2.51999998
   11.50500011  182.89999390    2.78999996    2.51999998
   11.50833321  201.01699829    2.78999996    2.51999998
   11.51138878  197.47599792    2.82999992    2.51999998
   11.51472187  197.82299805    2.82999992    2.51999998
   11.51805496  179.03799438    2.86999989    2.51999998
   11.52111053  175.33000183    2.86999989    2.53999996
   11.52444458  175.84199524    2.93000007    2.51999998
   11.52777767  164.74499512    2.93000007    2.51999998
   11.53083324  192.31700134    2.96000004    2.50000000
   11.53333378  193.70700073    2.94000006    2.51999998
   11.53444481  190.98599243    2.98000002    2.51999998
   11.53777790  175.14999390    3.01999998    2.51999998
   11.54388905  175.14999390    3.11999989    2.51999998
   11.54777813  180.78799438    3.11999989    2.53999996
   11.55111122  166.15299988    3.16000009    2.53999996
   11.55444431  184.18200684    3.18000007    2.53999996
   11.55749989  185.79100037    3.25000000    2.53999996
   11.56083393  181.44000244    3.25000000    2.55999994
   11.56416702  166.07800293    3.30999994    2.53999996
   11.56666660  192.56799316    3.32999992    2.53999996
   11.56750011  169.09700012    3.30999994    2.53999996
   11.57083321  193.46800232    3.43000007    2.53999996
   11.57388878  176.01499939    3.43000007    2.55999994
   11.57722187  188.74600220    3.50000000    2.53999996
   11.58055592  180.93899536    3.50000000    2.55999994
   11.58666611  180.93899536    3.57999992    2.53999996
   11.59083271  174.90899658    3.68000007    2.53999996
   11.59388828  193.77999878    3.66000009    2.55999994
   11.59722233  195.28399658    3.73000002    2.55999994
   11.60000038  196.47900391    3.75000000    2.53999996
   11.60083389  206.32200623    3.75000000    2.55999994
   11.60416698  174.82499695    3.86999989    2.55999994
   11.60722256  197.80599976    3.82999992    2.55999994
   11.61055565  202.45799255    3.91000009    2.55999994
   11.61388969  195.04100037    3.97000003    2.55999994
   11.61694431  164.03100586    4.03999996    2.55999994
   11.62027836  187.40400696    4.03999996    2.55999994
   11.62361145  183.39399719    4.15999985    2.55999994
   11.62944412  183.39399719    4.30999994    2.53999996
   11.63361073  173.41499329    4.30999994    2.57999992
   11.63694477  195.89100647    4.61999989    2.55999994
   11.64000034  168.09300232    4.59999990    2.55999994
   11.64333344  171.87500000    4.82999992    2.55999994
   11.64666653  184.49800110    4.84999990    2.55999994
   11.64972210  161.02499390    4.90999985    2.57999992
   11.65305519  173.37199402    4.90999985    2.55999994
   11.65611076  167.53100586    4.90999985    2.57999992
   11.65944386  174.41799927    4.90999985    2.55999994
   11.66277695  168.29400635    4.90999985    2.55999994
   11.66583252  160.99600220    4.90999985    2.57999992
   11.66666698  180.57800293    4.90999985    2.57999992
   11.67222214  180.57800293    4.90999985    2.59999990
   11.67638874  182.78199768    4.90999985    2.59999990
   11.67972279  184.86999512    4.90999985    2.57999992
   11.68305588  177.76199341    4.90999985    2.57999992
   11.68611145  177.49499512    4.90999985    2.57999992
   11.68944454  177.03100586    4.90999985    2.57999992
   11.69250011  172.96299744    4.90999985    2.59999990
   11.69583321  182.90800476    4.90999985    2.57999992
   11.69916630  173.19000244    4.90999985    2.57999992
   11.69999981  169.50500488    4.90999985    2.59999990
   11.70249939  174.98500061    4.90999985    2.57999992
   11.70583344  171.32400513    4.90999985    2.57999992
   11.70916653  181.65600586    4.90999985    2.59999990
   11.71527767  181.65600586    4.90999985    2.59999990
   11.71944427  186.15800476    4.90999985    2.59999990
   11.72249985  156.40499878    4.90999985    2.59999990
   11.72583294  162.77900696    4.90999985    2.59999990
   11.72888851  158.68899536    4.90999985    2.57999992
   11.73222160  172.14700317    4.90999985    2.59999990
   11.73333359  170.22799683    4.90999985    2.61999989
   11.73583317  180.20899963    4.90999985    2.59999990
   11.73916721  178.93800354    4.90999985    2.59999990
   11.74250031  174.56700134    4.90999985    2.59999990
   11.74555588  143.25599670    4.90999985    2.59999990
   11.74888897  169.37300110    4.90999985    2.59999990
   11.75194454  172.60699463    4.90999985    2.59999990
   11.75805569  172.60699463    4.90999985    2.59999990
   11.76222229  170.19700623    4.90999985    2.61999989
   11.76527786  158.80000305    4.90999985    2.59999990
   11.76666641  170.69500732    4.90999985    2.59999990
   11.76888847  179.36000061    4.90999985    2.61999989
   11.77222157  162.11399841    4.90999985    2.61999989
   11.77555561  156.54800415    4.90999985    2.61999989
   11.77861118  153.69400024    4.90999985    2.59999990
   11.78194427  171.56500244    4.90999985    2.61999989
   11.78527832  154.61900330    4.90999985    2.61999989
   11.78833389  164.65400696    4.90999985    2.61999989
   11.79166698  142.59100342    4.90999985    2.61999989
   11.79472256  157.94099426    4.90999985    2.61999989
   11.80083370  157.94099426    4.90999985    2.61999989
   11.80500031  153.26499939    4.90999985    2.61999989
   11.80833340  170.14199829    4.90999985    2.61999989
   11.81138897  163.18299866    4.90999985    2.61999989
   11.81472206  153.01199341    4.90999985    2.61999989
   11.81805515  149.19700623    4.90999985    2.61999989
   11.82111073  160.73100281    4.90999985    2.61999989
   11.82444477  144.26400757    4.90999985    2.64000010
   11.82750034  155.79899597    4.90999985    2.61999989
   11.83083344  154.53999329    4.90999985    2.61999989
   11.83333302  167.02600098    4.90999985    2.61999989
   11.83444405  149.97099304    4.90999985    2.61999989
   11.83777714  168.67399597    4.90999985    2.61999989
   11.84361076  168.67399597    4.90999985    2.61999989
   11.84777737  169.63299561    4.90999985    2.61999989
   11.85111141  164.18600464    4.90999985    2.64000010
   11.85444450  154.82699585    4.90999985    2.61999989
   11.85750008  141.11099243    4.90999985    2.64000010
   11.86083412  154.74400330    4.90999985    2.64000010
   11.86388969  161.22500610    4.90999985    2.64000010
   11.86666679  152.03500366    4.90999985    2.64000010
   11.86750031  147.96200562    4.90999985    2.64000010
   11.87083340  141.34700012    4.90999985    2.64000010
   11.87416649  152.66400146    4.90999985    2.64000010
   11.87722206  139.19099426    4.90999985    2.64000010
   11.88055611  149.57099915    4.90999985    2.64000010
   11.88666630  149.57099915    4.90999985    2.64000010
   11.89083290  160.30000305    4.90999985    2.66000009
   11.89388847  164.33200073    4.90999985    2.64000010
   11.89722252  155.98599243    4.90999985    2.64000010
   11.89999962  162.17399597    4.90999985    2.64000010
   11.90083313  159.72500610    4.90999985    2.66000009
   11.90416622  144.60600281    4.90999985    2.66000009
   11.90749931  147.57400513    4.90999985    2.66000009
   11.91055489  161.87899780    4.90999985    2.64000010
   11.91388893  155.77200317    4.90999985    2.66000009
   11.91722298  164.37100220    4.90999985    2.66000009
   11.92027855  140.96099854    4.90999985    2.66000009
   11.92361164  158.49699402    4.90999985    2.66000009
   11.92944431  158.49699402    4.90999985    2.66000009
   11.93361092  145.22399902    4.90999985    2.66000009
   11.93666649  151.11799622    4.90999985    2.66000009
   11.94000053  152.91999817    4.90999985    2.67000008
   11.94333363  148.60499573    4.90999985    2.64000010
   11.94638920  153.29899597    4.90999985    2.66000009
   11.94972229  138.80200195    4.90999985    2.66000009
   11.95305538  152.83799744    4.90999985    2.67000008
   11.95611095  139.81599426    4.90999985    2.67000008
   11.95944405  148.51199341    4.90999985    2.66000009
   11.96249962  149.16099548    4.90999985    2.67000008
   11.96583271  145.84399414    4.90999985    2.67000008
   11.96666622  140.15299988    4.90999985    2.67000008
   11.97222137  140.15299988    4.90999985    2.67000008
   11.97638798  149.54400635    4.90999985    2.67000008
   11.97972202  131.86099243    4.90999985    2.67000008
   11.98277760  139.73800659    4.90999985    2.67000008
   11.98611164  145.20399475    4.90999985    2.67000008
   11.98944473  135.26100159    4.90999985    2.67000008
   11.99250031  132.39399719    4.90999985    2.67000008
   11.99583340  138.72599792    4.90999985    2.69000006
   11.99888897  154.38699341    4.90999985    2.69000006
   12.00000000  145.91299438    4.90999985    2.69000006
   12.00249958  152.18499756    4.90999985    2.67000008
   12.00583363  144.49899292    4.90999985    2.67000008
   12.00916672  147.61199951    4.90999985    2.67000008
   12.01500034  147.61199951    4.90999985    2.69000006
   12.01916599  143.56300354    4.90999985    2.69000006
   12.02250004  142.01499939    4.90999985    2.69000006
   12.02583313  145.72500610    4.90999985    2.69000006
   12.02888870  138.05000305    4.90999985    2.67000008
   12.03222179  134.44500732    4.90999985    2.67000008
   12.03333378  141.22900391    4.90999985    2.69000006
   12.03583336  119.62699890    4.90999985    2.69000006
   12.03916740  132.73399353    4.90999985    2.69000006
   12.04250050  137.18600464    4.90999985    2.69000006
   12.04555607  138.75199890    4.90999985    2.69000006
   12.04888916  143.07800293    4.90999985    2.69000006
   12.05222225  153.67199707    4.90999985    2.69000006
   12.05805588  153.67199707    4.90999985    2.69000006
   12.06222248  148.96899414    4.90999985    2.69000006
   12.06527805  150.17199707    4.90999985    2.71000004
   12.06666660  134.52299500    4.90999985    2.69000006
   12.06888866  150.70899963    4.90999985    2.71000004
   12.07222176  143.64300537    4.90999985    2.71000004
   12.07555580  147.17500305    4.90999985    2.69000006
   12.07861137  136.96499634    4.90999985    2.71000004
   12.08194447  135.91000366    4.90999985    2.71000004
   12.08527756  134.85200500    4.90999985    2.71000004
   12.08833313  137.06300354    4.90999985    2.71000004
   12.09166622  151.77200317    4.90999985    2.71000004
   12.09472179  141.36399841    4.90999985    2.69000006
   12.10083389  141.36399841    4.90999985    2.71000004
   12.10500050  143.47399902    4.90999985    2.71000004
   12.10805607  144.58099365    4.90999985    2.73000002
   12.11138916  148.17900085    4.90999985    2.73000002
   12.11472225  141.50799561    4.90999985    2.71000004
   12.11805534  125.07199860    4.90999985    2.73000002
   12.12111092  129.36300659    4.90999985    2.73000002
   12.12444496  150.97300720    4.90999985    2.73000002
   12.12750053  144.69099426    4.90999985    2.73000002
   12.13083363  154.16299438    4.90999985    2.73000002
   12.13333321  146.75799561    4.90999985    2.73000002
   12.13472176  149.12800598    4.90999985    2.73000002
   12.13777733  161.11700439    4.90999985    2.73000002
   12.14361095  161.11700439    4.90999985    2.73000002
   12.14777756  141.44500732    4.90999985    2.73000002
   12.15111065  150.55400085    4.90999985    2.73000002
   12.15416622  144.83599854    4.90999985    2.73000002
   12.15749931  140.40400696    4.90999985    2.73000002
   12.16083336  148.45199585    4.90999985    2.73000002
   12.16388893  137.96000671    4.90999985    2.73000002
   12.16666698  144.68299866    4.90999985    2.73000002
   12.16750050  139.21699524    4.90999985    2.73000002
   12.17083359  148.05299377    4.90999985    2.73000002
   12.17416668  142.87100220    4.90999985    2.71000004
   12.17722225  119.76000214    4.90999985    2.75000000
   12.18055630  142.14500427    4.90999985    2.75000000
   12.18638897  142.14500427    4.90999985    2.75000000
   12.19055557  146.32499695    4.90999985    2.73000002
   12.19388866  137.23100281    4.90999985    2.75000000
   12.19722271  141.45500183    4.90999985    2.73000002
   12.19999981  124.69300079    4.90999985    2.73000002
   12.20055580  136.26699829    4.90999985    2.75000000
   12.20388889  123.40200043    4.90999985    2.75000000
   12.20722198  128.74600220    4.90999985    2.75000000
   12.21027756  135.83299255    4.90999985    2.75000000
   12.21361065  139.56700134    4.90999985    2.76999998
   12.21694374  128.55700684    4.90999985    2.75000000
   12.21999931  143.61199951    4.90999985    2.75000000
   12.22333336  128.77299500    4.90999985    2.75000000
   12.22944355  128.77299500    4.90999985    2.75000000
   12.23361111  131.77900696    4.90999985    2.75000000
   12.23666668  127.18099976    4.90999985    2.75000000
   12.24000072  138.45199585    4.90999985    2.76999998
   12.24305534  143.66400146    4.90999985    2.76999998
   12.24638939  143.18099976    4.90999985    2.76999998
   12.24972248  146.27499390    4.90999985    2.76999998
   12.25277805  142.43400574    4.90999985    2.76999998
   12.25611115  132.62500000    4.90999985    2.76999998
   12.25944424  144.77600098    4.90999985    2.76999998
   12.26249981  139.63099670    4.90999985    2.76999998
   12.26583290  123.88300323    4.90999985    2.76999998
   12.26666641  132.89999390    4.90999985    2.76999998
   12.28722286  132.89999390    4.90999985    2.78999996
   12.29138947  134.55799866    4.90999985    2.78999996
   12.29472256  132.85400391    4.90999985    2.78999996
   12.29805565  130.41200256    4.90999985    2.76999998
   12.30000019  141.08999634    4.90999985    2.76999998
   12.30166721  140.42999268    4.90999985    2.78999996
   12.30472279  138.78399658    4.90999985    2.78999996
   12.30805588  148.76800537    4.90999985    2.78999996
   12.31111145  137.67999268    4.90999985    2.78999996
   12.31444454  142.60400391    4.90999985    2.78999996
   12.31777763  133.38800049    4.90999985    2.78999996
   12.32083321  141.69799805    4.90999985    2.78999996
   12.32416630  142.17500305    4.90999985    2.78999996
   12.32999992  142.17500305    4.90999985    2.78999996
   12.33416653  147.91999817    4.90999985    2.80999994
   12.33749962  137.26600647    4.90999985    2.78999996
   12.34055519  130.98599243    4.90999985    2.78999996
   12.34388828  137.65400696    4.90999985    2.80999994
   12.34722233  136.74899292    4.90999985    2.80999994
   12.35027790  145.55200195    4.90999985    2.80999994
   12.35361195  146.98699951    4.90999985    2.80999994
   12.35694504  140.65100098    4.90999985    2.80999994
   12.36000061  147.65800476    4.90999985    2.80999994
   12.36333370  158.50000000    4.90999985    2.80999994
   12.36638927  152.16499329    4.90999985    2.80999994
   12.36694431  141.50799561    4.90999985    2.80999994
   12.37305546  141.50799561    4.90999985    2.80999994
   12.37694454  138.84100342    4.90999985    2.80999994
   12.38027763  143.58200073    4.90999985    2.80999994
   12.38361073  142.22900391    4.90999985    2.78999996
   12.38666630  154.66000366    4.90999985    2.80999994
   12.39000034  154.56300354    4.90999985    2.80999994
   12.39333344  144.16900635    4.90999985    2.80999994
   12.39638901  145.59599304    4.90999985    2.80999994
   12.39972210  177.65400696    4.90999985    2.80999994
   12.40027714  143.90100098    4.90999985    2.80999994
   12.40333271  147.85699463    4.90999985    2.80999994
   12.40666676  179.18400574    4.90999985    2.80999994
   12.40972137  156.69900513    4.90999985    2.80999994
   12.41583252  156.69900513    4.90999985    2.82999992
   12.42000008  163.74800110    4.90999985    2.82999992
   12.42305565  162.09800720    4.90999985    2.82999992
   12.42638874  154.61999512    4.90999985    2.82999992
   12.42972279  165.45700073    4.90999985    2.80999994
   12.43277836  171.72799683    4.90999985    2.80999994
   12.43361092  159.91299438    4.90999985    2.80999994
   12.43638897  181.61999512    4.90999985    2.82999992
   12.43972206  163.81799316    4.90999985    2.82999992
   12.44277763  172.86000061    4.90999985    2.80999994
   12.44611073  154.21899414    4.90999985    2.80999994
   12.44944477  189.24400330    4.90999985    2.80999994
   12.45249939  161.13800049    4.90999985    2.80999994
   12.45861053  161.13800049    4.90999985    2.82999992
   12.46277714  154.68200684    4.90999985    2.82999992
   12.46611118  178.08099365    4.90999985    2.82999992
   12.46694374  163.05499268    4.90999985    2.82999992
   12.46972179  157.10899353    4.90999985    2.82999992
   12.47305489  171.40199280    4.90999985    2.84999990
   12.47611046  179.28700256    4.90999985    2.82999992
   12.47944355  172.06700134    4.90999985    2.84999990
   12.48277760  173.37899780    4.90999985    2.84999990
   12.48583317  167.16099548    4.90999985    2.82999992
   12.48916721  174.09300232    4.90999985    2.82999992
   12.49222279  180.35099792    4.90999985    2.84999990
   12.49555588  185.21299744    4.90999985    2.82999992
   12.50138855  185.21299744    4.90999985    2.82999992
   12.50555515  161.32899475    4.90999985    2.82999992
   12.50888920  172.69799805    4.90999985    2.84999990
   12.51194477  179.94000244    4.90999985    2.84999990
   12.51527786  208.46699524    4.90999985    2.82999992
   12.51861095  241.10099792    4.90999985    2.82999992
   12.52166653  213.39700317    4.90999985    2.84999990
   12.52499962  242.04600525    4.90999985    2.82999992
   12.52833271  302.14199829    4.90999985    2.84999990
   12.53138828  282.55999756    4.90999985    2.84999990
   12.53361130  256.47299194    4.90999985    2.84999990
   12.53500080  290.83099365    4.90999985    2.82999992
   12.53833389  325.48498535    4.90999985    2.80999994
   12.54444504  325.48498535    4.90999985    2.84999990
   12.54833412  319.74899292    4.90999985    2.84999990
   12.55166721  331.47698975    4.90999985    2.84999990
   12.55500031  338.26599121    4.90999985    2.84999990
   12.55805588  327.67599487    4.90999985    2.82999992
   12.56138897  421.05398560    4.90999985    2.84999990
   12.56333351  372.02398682    4.90999985    2.82999992
   12.56472206  371.85998535    4.90999985    2.84999990
   12.56611156  385.62500000    4.90999985    2.84999990
   12.56750011  393.44900513    4.90999985    2.84999990
   12.56888866  415.11599731    4.90999985    2.84999990
   12.57027817  340.35900879    4.90999985    2.82999992
   12.57027817  319.74899292    4.90999985    2.84999990
   12.57055569  331.47698975    4.90999985    2.84999990
   12.57055569  338.26599121    4.90999985    2.84999990
   12.57055569  327.67599487    4.90999985    2.82999992
   12.57083321  421.05398560    4.90999985    2.84999990
   12.57083321  302.14199829    4.90999985    2.84999990
   12.57083321  282.55999756    4.90999985    2.84999990
   12.57111073  290.83099365    4.90999985    2.82999992
   12.57111073  325.48498535    4.90999985    2.80999994
   12.57166672  385.60800171    4.90999985    2.84999990
   12.57499981  478.39700317    4.90999985    2.84999990
   12.57694435  318.67098999    4.90999985    2.82999992
   12.57694435  385.60800171    4.90999985    2.84999990
   12.57722187  478.39700317    4.90999985    2.84999990
   12.57916641  414.82101440    4.90999985    2.84999990
   12.58111095  341.81100464    4.90999985    2.84999990
   12.58305550  329.55499268    4.90999985    2.82999992
   12.58638859  407.46499634    4.90999985    2.84999990
   12.58833313  394.26098633    4.90999985    2.82999992
   12.58972168  396.78698730    4.90999985    2.82999992
   12.59111118  308.76199341    4.90999985    2.84999990
   12.59111118  329.55499268    4.90999985    2.82999992
   12.59111118  407.46499634    4.90999985    2.84999990
   12.59194374  406.79998779    4.90999985    2.84999990
   12.59388828  408.68798828    4.90999985    2.84999990
   12.59499931  348.78799438    4.90999985    2.82999992
   12.59527779  406.79998779    4.90999985    2.84999990
   12.59638882  371.96200562    4.90999985    2.84999990
   12.59972191  336.87100220    4.90999985    2.82999992
   12.60277843  402.94699097    4.90999985    2.86999989
   12.60472298  334.41400146    4.90999985    2.84999990
   12.60500050  371.96200562    4.90999985    2.84999990
   12.60500050  336.87100220    4.90999985    2.82999992
   12.60500050  402.94699097    4.90999985    2.86999989
   12.60722256  471.52398682    4.90999985    2.84999990
   12.60916710  501.23999023    4.90999985    2.84999990
   12.61027813  470.07901001    4.90999985    2.82999992
   12.61166668  524.57000732    4.90999985    2.84999990
   12.61305618  472.91000366    4.90999985    2.84999990
   12.61444473  451.06399536    4.90999985    2.84999990
   12.61583328  562.99597168    4.90999985    2.84999990
   12.61722279  507.46701050    4.90999985    2.84999990
   12.61861134  519.29101563    4.90999985    2.84999990
   12.61999989  461.77398682    4.90999985    2.82999992
   12.62138939  491.54299927    4.90999985    2.82999992
   12.62277794  507.75698853    4.90999985    2.84999990
   12.62416649  462.44500732    4.90999985    2.84999990
   12.62555599  476.38900757    4.90999985    2.84999990
   12.62694454  550.90301514    4.90999985    2.84999990
   12.62833309  499.52200317    4.90999985    2.84999990
   12.62972260  475.88900757    4.90999985    2.84999990
   12.63111115  489.54598999    4.90999985    2.82999992
   12.63249969  547.61102295    4.90999985    2.84999990
   12.63388920  469.93899536    4.90999985    2.84999990
   12.63527775  515.17498779    4.90999985    2.84999990
   12.63666630  553.89599609    4.90999985    2.84999990
   12.63805580  483.47399902    4.90999985    2.82999992
   12.63944435  463.60198975    4.90999985    2.84999990
   12.64083290  509.51400757    4.90999985    2.82999992
   12.64222240  482.48800659    4.90999985    2.84999990
   12.64361095  475.06799316    4.90999985    2.84999990
   12.64499950  441.68200684    4.90999985    2.82999992
   12.64638901  481.26998901    4.90999985    2.84999990
   12.64777756  419.04000854    4.90999985    2.82999992
   12.64916611  516.61798096    4.90999985    2.82999992
   12.65055561  506.63299561    4.90999985    2.84999990
   12.65194416  453.63598633    4.90999985    2.82999992
   12.65333271  488.17401123    4.90999985    2.84999990
   12.65472221  530.63500977    4.90999985    2.82999992
   12.65611076  511.51901245    4.90999985    2.84999990
   12.65749931  474.61599731    4.90999985    2.84999990
   12.65888882  468.03399658    4.90999985    2.84999990
   12.66027737  439.54199219    4.90999985    2.84999990
   12.66166592  404.97601318    4.90999985    2.80999994
   12.66305542  483.59799194    4.90999985    2.82999992
   12.66444397  470.02099609    4.90999985    2.82999992
   12.66583252  517.09399414    4.90999985    2.82999992
   12.66722298  471.67199707    4.90999985    2.84999990
   12.66861153  484.93099976    4.90999985    2.82999992
   12.67000008  470.60900879    4.90999985    2.82999992
   12.67138958  437.82101440    4.90999985    2.82999992
   12.67277813  436.86300659    4.90999985    2.82999992
   12.67416668  354.54901123    4.90999985    2.82999992
   12.67555618  440.74200439    4.90999985    2.82999992
   12.67694473  358.53201294    4.90999985    2.82999992
   12.67833328  532.04699707    4.90999985    2.82999992
   12.67972279  393.26098633    4.90999985    2.82999992
   12.68111134  547.82202148    4.90999985    2.80999994
   12.68249989  465.53500366    4.90999985    2.82999992
   12.68388939  463.30899048    4.90999985    2.82999992
   12.68527794  545.41601563    4.90999985    2.82999992
   12.68666649  510.09399414    4.90999985    2.82999992
   12.68805599  468.17599487    4.90999985    2.82999992
   12.68944454  573.59100342    4.90999985    2.82999992
   12.69083309  498.89300537    4.90999985    2.82999992
   12.69222260  483.05200195    4.90999985    2.82999992
   12.69361115  530.14398193    4.90999985    2.82999992
   12.69499969  470.25799561    4.90999985    2.82999992
   12.69638920  435.97100830    4.90999985    2.82999992
   12.69777775  470.51699829    4.90999985    2.82999992
   12.69916630  435.91400146    4.90999985    2.82999992
   12.70055580  596.49798584    4.90999985    2.84999990
   12.70194435  506.35900879    4.90999985    2.84999990
   12.70333290  505.18099976    4.90999985    2.82999992
   12.70472240  464.34799194    4.90999985    2.82999992
   12.70611095  443.73498535    4.90999985    2.84999990
   12.70749950  509.84298706    4.90999985    2.82999992
   12.70888901  519.06500244    4.90999985    2.82999992
   12.71027756  481.30801392    4.90999985    2.82999992
   12.71166611  556.16802979    4.90999985    2.82999992
   12.71305561  508.48300171    4.90999985    2.82999992
   12.71444416  583.59399414    4.90999985    2.82999992
   12.71583271  540.61297607    4.90999985    2.82999992
   12.71722221  485.81900024    4.90999985    2.82999992
   12.71861076  504.67700195    4.90999985    2.82999992
   12.71999931  532.03802490    4.90999985    2.82999992
   12.72138882  542.28497314    4.90999985    2.82999992
   12.72277737  586.40197754    4.90999985    2.82999992
   12.72416592  555.61102295    4.90999985    2.82999992
   12.72555542  500.69299316    4.90999985    2.82999992
   12.72694397  433.34899902    4.90999985    2.82999992
   12.72833252  501.82598877    4.90999985    2.82999992
   12.72972202  399.57998657    4.90999985    2.82999992
   12.73111057  387.41699219    4.90999985    2.82999992
   12.73249912  424.62799072    4.90999985    2.82999992
   12.73388958  444.47000122    4.90999985    2.82999992
   12.73527813  557.10699463    4.90999985    2.82999992
   12.73666668  485.39300537    4.90999985    2.82999992
   12.73805618  521.28900146    4.90999985    2.82999992
   12.73944473  433.75900269    4.90999985    2.82999992
   12.74083328  470.81399536    4.90999985    2.82999992
   12.74222279  516.91900635    4.90999985    2.80999994
   12.74361134  392.11700439    4.90999985    2.80999994
   12.74499989  464.70300293    4.90999985    2.82999992
   12.74638939  413.73001099    4.90999985    2.80999994
   12.74777794  417.52200317    4.90999985    2.80999994
   12.74916649  342.61300659    4.90999985    2.80999994
   12.74944496  471.52398682    4.90999985    2.84999990
   12.75000000  385.15200806    4.90999985    2.80999994
   12.75333309  364.23699951    4.90999985    2.80999994
   12.75638866  381.02499390    4.90999985    2.80999994
   12.75972176  327.18399048    4.90999985    2.80999994
   12.76277733  329.68099976    4.90999985    2.82999992
   12.76611137  323.19198608    4.90999985    2.80999994
   12.77027798  323.19198608    4.90999985    2.80999994
   12.77444458  301.36499023    4.90999985    2.80999994
   12.77750015  330.39700317    4.90999985    2.80999994
   12.78083324  317.39099121    4.90999985    2.80999994
   12.78305531  329.89599609    4.90999985    2.80999994
   12.78444481  327.19299316    4.90999985    2.82999992
   12.78777790  347.78399658    4.90999985    2.82999992
   12.79083347  360.00299072    4.90999985    2.80999994
   12.79416752  351.41900635    4.90999985    2.80999994
   12.79750061  353.22100830    4.90999985    2.80999994
   12.80055618  348.39700317    4.90999985    2.80999994
   12.80388927  341.55499268    4.90999985    2.82999992
   12.80694485  348.26300049    4.90999985    2.82999992
   12.81305599  348.26300049    4.90999985    2.80999994
   12.81722260  327.49099731    4.90999985    2.80999994
   12.82055569  322.06201172    4.90999985    2.80999994
   12.82361126  280.93701172    4.90999985    2.78999996
   12.82694435  285.02301025    4.90999985    2.80999994
   12.83027744  274.59500122    4.90999985    2.78999996
   12.83333302  271.99798584    4.90999985    2.78999996
   12.83666611  293.21099854    4.90999985    2.78999996
   12.83972168  290.61999512    4.90999985    2.80999994
   12.84305477  260.70498657    4.90999985    2.80999994
   12.84638882  261.53500366    4.90999985    2.78999996
   12.84944439  274.17300415    4.90999985    2.78999996
   12.85000038  282.35400391    4.90999985    2.78999996
   12.85583401  282.35400391    4.90999985    2.80999994
   12.86000061  283.85900879    4.90999985    2.80999994
   12.86333370  260.13198853    4.90999985    2.80999994
   12.86666679  267.29098511    4.90999985    2.80999994
   12.86972237  292.21398926    4.90999985    2.80999994
   12.87305546  275.72799683    4.90999985    2.80999994
   12.87611103  263.00900269    4.90999985    2.80999994
   12.87944412  276.63900757    4.90999985    2.80999994
   12.88277817  281.73999023    4.90999985    2.78999996
   12.88333321  298.91000366    4.90999985    2.82999992
   12.88638878  291.77999878    4.90999985    2.80999994
   12.88972187  269.06799316    4.90999985    2.80999994
   12.89277744  278.94100952    4.90999985    2.82999992
   12.89888859  278.94100952    4.90999985    2.80999994
   12.90305519  249.05700684    4.90999985    2.80999994
   12.90611076  300.98498535    4.90999985    2.80999994
   12.90944386  275.19400024    4.90999985    2.80999994
   12.91249943  265.26699829    4.90999985    2.80999994
   12.91583252  281.23599243    4.90999985    2.82999992
   12.91666698  280.38800049    4.90999985    2.80999994
   12.91944504  274.16598511    4.90999985    2.80999994
   12.92277813  278.45199585    4.90999985    2.78999996
   12.92583370  277.73999023    4.90999985    2.80999994
   12.92916679  274.83801270    4.90999985    2.80999994
   12.93222237  282.55398560    4.90999985    2.82999992
   12.93555546  274.24600220    4.90999985    2.80999994
   12.94166660  274.24600220    4.90999985    2.82999992
   12.94583321  280.57598877    4.90999985    2.80999994
   12.94888878  289.35299683    4.90999985    2.80999994
   12.94999981  265.53900146    4.90999985    2.82999992
   12.95277786  276.11199951    4.90999985    2.80999994
   12.95611095  254.56799316    4.90999985    2.80999994
   12.95916653  260.51901245    4.90999985    2.80999994
   12.96249962  287.33700562    4.90999985    2.82999992
   12.96555519  267.29901123    4.90999985    2.80999994
   12.96888828  278.65100098    4.90999985    2.82999992
   12.97222137  267.38500977    4.90999985    2.82999992
   12.97527695  270.50799561    4.90999985    2.82999992
   12.97861099  263.17599487    4.90999985    2.80999994
   12.98444462  263.17599487    4.90999985    2.82999992
   12.98861122  258.89099121    4.90999985    2.80999994
   12.99194431  277.17898560    4.90999985    2.82999992
   12.99499989  290.79901123    4.90999985    2.82999992
   12.99833393  257.71301270    4.90999985    2.82999992
   13.00166702  285.80200195    4.90999985    2.82999992
   13.00472260  284.32101440    4.90999985    2.82999992
   13.00805569  246.36999512    4.90999985    2.84999990
   13.01111126  270.06698608    4.90999985    2.84999990
   13.01444435  282.67401123    4.90999985    2.82999992
   13.01666641  283.12500000    4.90999985    2.86999989
   13.01805496  282.18499756    4.90999985    2.84999990
   13.02138901  287.29901123    4.90999985    2.82999992
   13.02722168  287.29901123    4.90999985    2.84999990
   13.03138828  253.73500061    4.90999985    2.84999990
   13.03472233  245.88999939    4.90999985    2.84999990
   13.03805637  265.94000244    4.90999985    2.84999990
   13.04111195  258.99398804    4.90999985    2.84999990
   13.04444504  279.11898804    4.90999985    2.84999990
   13.04750061  270.20098877    4.90999985    2.84999990
   13.05000019  251.94599915    4.90999985    2.86999989
   13.05138874  244.74200439    4.90999985    2.86999989
   13.05472279  260.91000366    4.90999985    2.86999989
   13.05777836  253.89399719    4.90999985    2.86999989
   13.06111145  264.94000244    4.90999985    2.86999989
   13.06416702  261.36499023    4.90999985    2.86999989
   13.07027817  261.36499023    4.90999985    2.86999989
   13.07444477  276.33801270    4.90999985    2.86999989
   13.07750034  269.52499390    4.90999985    2.86999989
   13.08083344  282.36599731    4.90999985    2.86999989
   13.08333302  254.45599365    4.90999985    2.86999989
   13.08444405  271.57598877    4.90999985    2.86999989
   13.08777714  247.00500488    4.90999985    2.86999989
   13.09083271  257.07400513    4.90999985    2.86999989
   13.09416676  265.88800049    4.90999985    2.89000010
   13.09749985  274.00500488    4.90999985    2.89000010
   13.10055637  267.51998901    4.90999985    2.89000010
   13.10388947  260.55499268    4.90999985    2.86999989
   13.10694504  264.55599976    4.90999985    2.91000009
   13.11305618  264.55599976    4.90999985    2.89000010
   13.11722279  281.05999756    4.90999985    2.91000009
   13.12027836  259.34100342    4.90999985    2.89000010
   13.12361145  260.59100342    4.90999985    2.91000009
   13.12694454  266.73199463    4.90999985    2.91000009
   13.13000011  260.23098755    4.90999985    2.89000010
   13.13333321  271.69699097    4.90999985    2.89000010
   13.13666630  268.14401245    4.90999985    2.89000010
   13.13972187  253.59899902    4.90999985    2.89000010
   13.14305496  270.76998901    4.90999985    2.91000009
   13.14611053  281.16400146    4.90999985    2.91000009
   13.14944458  287.25100708    4.90999985    2.91000009
   13.14999962  245.91700745    4.90999985    2.91000009
   13.15583324  245.91700745    4.90999985    2.91000009
   13.15999985  243.97799683    4.90999985    2.91000009
   13.16333294  259.18701172    4.90999985    2.91000009
   13.16638851  254.58099365    4.90999985    2.91000009
   13.16972256  255.24499512    4.90999985    2.91000009
   13.17305565  258.67401123    4.90999985    2.93000007
   13.17611122  224.00500488    4.90999985    2.91000009
   13.17944431  257.43798828    4.90999985    2.91000009
   13.18277836  272.13800049    4.90999985    2.93000007
   13.18333340  264.00900269    4.90999985    2.91000009
   13.18638897  272.72299194    4.90999985    2.93000007
   13.18972206  255.05599976    4.90999985    2.91000009
   13.19277763  254.79800415    4.90999985    2.93000007
   13.19861126  254.79800415    4.90999985    2.93000007
   13.20277786  252.12699890    4.90999985    2.93000007
   13.20611095  257.57199097    4.90999985    2.93000007
   13.20944405  264.58099365    4.90999985    2.93000007
   13.21249962  310.40499878    4.90999985    2.94000006
   13.21583271  270.33200073    4.90999985    2.94000006
   13.21666622  325.96798706    4.90999985    2.94000006
   13.21944427  262.25799561    4.90999985    2.93000007
   13.22277737  296.37899780    4.90999985    2.94000006
   13.22583294  311.06399536    4.90999985    2.94000006
   13.22916603  289.07800293    4.90999985    2.94000006
   13.23249912  281.40301514    4.90999985    2.94000006
   13.23555565  285.74700928    4.90999985    2.94000006
   13.24166679  285.74700928    4.90999985    2.94000006
   13.24583340  272.29800415    4.90999985    2.94000006
   13.24888897  315.89498901    4.90999985    2.96000004
   13.25000000  277.57800293    4.90999985    2.96000004
   13.25249958  254.63499451    4.90999985    2.96000004
   13.25583363  255.65699768    4.90999985    2.94000006
   13.25888920  246.47799683    4.90999985    2.96000004
   13.26222229  252.13400269    4.90999985    2.98000002
   13.26555538  257.37500000    4.90999985    2.96000004
   13.26861095  244.98100281    4.90999985    2.96000004
   13.27194405  256.58401489    4.90999985    2.96000004
   13.27499962  265.32400513    4.90999985    2.96000004
   13.27833271  334.27499390    4.90999985    2.96000004
   13.30083370  276.04699707    4.90999985    2.98000002
   13.30111122  264.34799194    4.90999985    2.96000004
   13.30444431  275.09298706    4.90999985    2.98000002
   13.30777836  300.66500854    4.90999985    2.96000004
   13.31083393  260.54998779    4.90999985    2.98000002
   13.31416702  261.98699951    4.90999985    2.96000004
   13.31666660  266.82598877    4.90999985    2.98000002
   13.31777763  253.28199768    4.90999985    2.96000004
   13.32111073  262.42700195    4.90999985    2.98000002
   13.32722187  262.42700195    4.90999985    2.96000004
   13.33138847  266.75601196    4.90999985    2.98000002
   13.33472157  269.72198486    4.90999985    2.98000002
   13.33777714  255.67199707    4.90999985    2.98000002
   13.34111118  255.41200256    4.90999985    2.98000002
   13.34444427  252.73500061    4.90999985    2.98000002
   13.34749985  264.69100952    4.90999985    2.98000002
   13.35000038  246.75799561    4.90999985    3.00000000
   13.35111141  270.95001221    4.90999985    3.00000000
   13.35444450  257.92098999    4.90999985    3.00000000
   13.35750008  243.54299927    4.90999985    2.98000002
   13.36083412  240.74499512    4.90999985    2.98000002
   13.36416721  240.44000244    4.90999985    2.98000002
   13.37027836  240.44000244    4.90999985    3.00000000
   13.37416649  238.16999817    4.90999985    3.00000000
   13.37750053  236.64500427    4.90999985    3.00000000
   13.38083363  267.20599365    4.90999985    3.00000000
   13.38333321  228.53700256    4.90999985    3.00000000
   13.38444424  219.88699341    4.90999985    2.98000002
   13.38777733  235.82499695    4.90999985    3.00000000
   13.39083290  255.37300110    4.90999985    2.98000002
   13.39416695  260.71301270    4.90999985    3.00000000
   13.39750004  225.77600098    4.90999985    3.00000000
   13.40055561  255.04400635    4.90999985    3.00000000
   13.40388870  248.37500000    4.90999985    3.01999998
   13.40722179  250.35400391    4.90999985    2.98000002
   13.41305542  250.35400391    4.90999985    3.00000000
   13.41722298  248.72599792    4.90999985    3.00000000
   13.42027855  244.36700439    4.90999985    3.00000000
   13.42361164  241.83299255    4.90999985    3.00000000
   13.42694473  243.70599365    4.90999985    3.00000000
   13.43000031  237.86300659    4.90999985    3.01999998
   13.43333340  255.14399719    4.90999985    3.00000000
   13.43638897  216.66400146    4.90999985    3.01999998
   13.43972206  255.32499695    4.90999985    3.00000000
   13.44305515  233.00900269    4.90999985    3.00000000
   13.44611073  228.74499512    4.90999985    3.01999998
   13.44944477  225.99099731    4.90999985    3.01999998
   13.44999981  236.92199707    4.90999985    3.00000000
   13.45583344  236.92199707    4.90999985    3.00000000
   13.46000004  238.51699829    4.90999985    3.00000000
   13.46305561  222.52200317    4.90999985    3.00000000
   13.46638870  230.55000305    4.90999985    3.01999998
   13.46972179  230.45399475    4.90999985    3.01999998
   13.47277737  225.21499634    4.90999985    3.01999998
   13.47611046  234.52499390    4.90999985    3.00000000
   13.47944355  218.17599487    4.90999985    3.00000000
   13.48249912  196.07699585    4.90999985    3.01999998
   13.48333359  240.59399414    4.90999985    3.00000000
   13.48611164  224.86799622    4.90999985    3.01999998
   13.48944473  232.74400330    4.90999985    3.03999996
   13.49250031  233.99499512    4.90999985    3.01999998
   13.49861145  233.99499512    4.90999985    3.01999998
   13.50277805  228.35800171    4.90999985    3.01999998
   13.50611115  234.35800171    4.90999985    3.01999998
   13.50916672  228.03199768    4.90999985    3.01999998
   13.51249981  246.75100708    4.90999985    3.01999998
   13.51583290  230.30700684    4.90999985    3.01999998
   13.51666641  237.38000488    4.90999985    3.01999998
   13.51944447  225.18499756    4.90999985    3.01999998
   13.52277756  225.95700073    4.90999985    3.01999998
   13.52611065  246.86799622    4.90999985    3.01999998
   13.52916622  236.10699463    4.90999985    3.01999998
   13.53249931  223.00399780    4.90999985    3.01999998
   13.53583336  231.01800537    4.90999985    3.01999998
   13.54138947  231.01800537    4.90999985    3.01999998
   13.54555607  219.41299438    4.90999985    3.01999998
   13.54888916  220.04899597    4.90999985    3.01999998
   13.55027771  231.30299377    4.90999985    3.01999998
   13.55249977  201.50999451    4.90999985    3.01999998
   13.55583382  227.83999634    4.90999985    3.03999996
   13.55888939  214.11999512    4.90999985    3.01999998
   13.56222248  224.16700745    4.90999985    3.01999998
   13.56555557  220.19000244    4.90999985    3.03999996
   13.56861115  215.95799255    4.90999985    3.01999998
   13.57194424  226.37500000    4.90999985    3.01999998
   13.57499981  225.99899292    4.90999985    3.01999998
   13.57833290  214.69700623    4.90999985    3.01999998
   13.58444405  214.69700623    4.90999985    3.01999998
   13.58861065  208.00199890    4.90999985    3.03999996
   13.59166622  215.96899414    4.90999985    3.01999998
   13.59499931  221.03999329    4.90999985    3.01999998
   13.59805489  217.96099854    4.90999985    3.01999998
   13.60138893  224.94299316    4.90999985    3.01999998
   13.60472298  213.35200500    4.90999985    3.01999998
   13.60777855  212.95300293    4.90999985    3.01999998
   13.61111164  205.61999512    4.90999985    3.01999998
   13.61444473  218.40699768    4.90999985    3.03999996
   13.61694431  199.41099548    4.90999985    3.01999998
   13.61805534  181.94000244    4.90999985    3.01999998
   13.62138939  174.06399536    4.90999985    3.01999998
   13.62722206  174.06399536    4.90999985    3.01999998
   13.63138866  210.74499512    4.90999985    3.01999998
   13.63472176  222.21299744    4.90999985    3.00000000
   13.63777733  209.58700562    4.90999985    3.01999998
   13.64111137  197.34899902    4.90999985    3.01999998
   13.64416695  200.52499390    4.90999985    3.01999998
   13.64750004  195.71499634    4.90999985    3.01999998
   13.65027714  198.62899780    4.90999985    3.01999998
   13.65111065  197.78199768    4.90999985    3.03999996
   13.65444374  204.69000244    4.90999985    3.01999998
   13.65749931  196.41499329    4.90999985    3.01999998
   13.66083336  199.34899902    4.90999985    3.01999998
   13.66416645  197.57299805    4.90999985    3.03999996
   13.67000008  197.57299805    4.90999985    3.03999996
   13.67416668  194.87600708    4.90999985    3.03999996
   13.67750072  206.39599609    4.90999985    3.01999998
   13.68055630  202.20300293    4.90999985    3.03999996
   13.68361092  193.39399719    4.90999985    3.03999996
   13.68416691  206.27400208    4.90999985    3.03999996
   13.68750000  197.39599609    4.90999985    3.01999998
   13.69083309  194.42500305    4.90999985    3.01999998
   13.69388866  198.69999695    4.90999985    3.03999996
   13.69722271  196.29600525    4.90999985    3.03999996
   13.70055580  198.03700256    4.90999985    3.03999996
   13.70361137  189.04899597    4.90999985    3.03999996
   13.70694447  190.56700134    4.90999985    3.03999996
   13.71277714  190.56700134    4.90999985    3.03999996
   13.71694374  196.99000549    4.90999985    3.03999996
   13.72027779  191.58200073    4.90999985    3.05999994
   13.72333336  194.56199646    4.90999985    3.03999996
   13.72666645  192.59599304    4.90999985    3.03999996
   13.72999954  183.83099365    4.90999985    3.03999996
   13.73305511  190.26400757    4.90999985    3.03999996
   13.73638916  189.16600037    4.90999985    3.01999998
   13.73972225  194.44200134    4.90999985    3.03999996
   13.74277782  196.97700500    4.90999985    3.03999996
   13.74611092  198.61399841    4.90999985    3.03999996
   13.74916649  197.88200378    4.90999985    3.03999996
   13.75027752  192.86900330    4.90999985    3.01999998
   13.75583363  192.86900330    4.90999985    3.03999996
   13.76000023  190.28500366    4.90999985    3.01999998
   13.76305580  196.09300232    4.90999985    3.05999994
   13.76638889  196.87600708    4.90999985    3.03999996
   13.76944447  198.35099792    4.90999985    3.03999996
   13.77277756  189.64300537    4.90999985    3.03999996
   13.77611065  192.80599976    4.90999985    3.05999994
   13.77916622  190.97500610    4.90999985    3.03999996
   13.78249931  194.47700500    4.90999985    3.03999996
   13.78361130  197.83799744    4.90999985    3.03999996
   13.78611183  193.00999451    4.90999985    3.03999996
   13.78944492  198.25599670    4.90999985    3.03999996
   13.79250050  189.67300415    4.90999985    3.03999996
   13.79861164  189.67300415    4.90999985    3.03999996
   13.80277824  188.79699707    4.90999985    3.01999998
   13.80583382  181.80900574    4.90999985    3.03999996
   13.80916691  180.32299805    4.90999985    3.03999996
   13.81250000  186.47700500    4.90999985    3.03999996
   13.81555557  186.71899414    4.90999985    3.05999994
   13.81694412  193.35299683    4.90999985    3.05999994
   13.81916618  188.87399292    4.90999985    3.03999996
   13.82250023  175.87600708    4.90999985    3.05999994
   13.82555580  187.65899658    4.90999985    3.03999996
   13.82888889  189.25000000    4.90999985    3.03999996
   13.83222198  178.97099304    4.90999985    3.03999996
   13.83527756  189.47700500    4.90999985    3.03999996
   13.84138870  189.47700500    4.90999985    3.03999996
   13.84555531  185.99899292    4.90999985    3.03999996
   13.84888840  181.96299744    4.90999985    3.07999992
   13.85027790  176.39999390    4.90999985    3.05999994
   13.85222244  184.75700378    4.90999985    3.03999996
   13.85555553  169.74499512    4.90999985    3.03999996
   13.85861111  177.05900574    4.90999985    3.05999994
   13.86194515  181.31199646    4.90999985    3.05999994
   13.86527824  176.61700439    4.90999985    3.07999992
   13.86833382  175.58999634    4.90999985    3.03999996
   13.87166691  171.10699463    4.90999985    3.03999996
   13.87500000  174.11799622    4.90999985    3.05999994
   13.87805557  183.55400085    4.90999985    3.05999994
   13.88416672  183.55400085    4.90999985    3.03999996
   13.88833332  163.17199707    4.90999985    3.03999996
   13.89166641  162.51699829    4.90999985    3.05999994
   13.89472198  182.83399963    4.90999985    3.05999994
   13.89805508  164.17700195    4.90999985    3.05999994
   13.90138817  186.69099426    4.90999985    3.05999994
   13.90444374  181.12600708    4.90999985    3.03999996
   13.90777779  176.30400085    4.90999985    3.03999996
   13.91111088  185.24699402    4.90999985    3.03999996
   13.91416645  178.91600037    4.90999985    3.05999994
   13.91694450  181.73800659    4.90999985    3.03999996
   13.91777802  181.75999451    4.90999985    3.05999994
   13.92111111  180.92799377    4.90999985    3.05999994
   13.92722225  180.92799377    4.90999985    3.03999996
   13.93111134  180.21800232    4.90999985    3.05999994
   13.93444443  181.86399841    4.90999985    3.05999994
   13.93777752  174.00599670    4.90999985    3.05999994
   13.94083309  180.75700378    4.90999985    3.05999994
   13.94416714  182.20899963    4.90999985    3.03999996
   13.94750023  161.47300720    4.90999985    3.03999996
   13.95027733  171.73100281    4.90999985    3.05999994
   13.95083332  165.99499512    4.90999985    3.07999992
   13.95416641  180.64999390    4.90999985    3.07999992
   13.95722198  181.30599976    4.90999985    3.05999994
   13.96055508  182.76199341    4.90999985    3.03999996
   13.96388912  178.58700562    4.90999985    3.05999994
   13.96999931  178.58700562    4.90999985    3.05999994
   13.97416592  180.53500366    4.90999985    3.05999994
   13.97722149  178.08500671    4.90999985    3.05999994
   13.98055553  183.61099243    4.90999985    3.05999994
   13.98361111  187.95399475    4.90999985    3.07999992
   13.98416710  176.36999512    4.90999985    3.07999992
   13.98750019  182.66799927    4.90999985    3.05999994
   13.99083328  185.60200500    4.90999985    3.05999994
   13.99388885  181.19299316    4.90999985    3.05999994
   13.99722290  180.48300171    4.90999985    3.05999994
   14.00027752  180.71200562    4.90999985    3.07999992
   14.00361156  178.34800720    4.90999985    3.07999992
   14.00694466  174.74499512    4.90999985    3.05999994
   14.01277733  174.74499512    4.90999985    3.05999994
   14.01694393  172.64599609    4.90999985    3.05999994
   14.02027798  176.22900391    4.90999985    3.07999992
   14.02333355  172.21699524    4.90999985    3.07999992
   14.02666664  173.84800720    4.90999985    3.05999994
   14.02972221  175.61099243    4.90999985    3.05999994
   14.03305531  170.48100281    4.90999985    3.05999994
   14.03638935  160.80400085    4.90999985    3.07999992
   14.03944492  181.21400452    4.90999985    3.09999990
   14.04277802  162.28999329    4.90999985    3.07999992
   14.04611111  160.89199829    4.90999985    3.07999992
   14.04916668  164.94900513    4.90999985    3.07999992
   14.05027771  172.06199646    4.90999985    3.07999992
   14.05555534  172.06199646    4.90999985    3.05999994
   14.05972195  168.45899963    4.90999985    3.07999992
   14.06305599  168.95199585    4.90999985    3.05999994
   14.06611156  166.78900146    4.90999985    3.07999992
   14.06944466  172.19200134    4.90999985    3.05999994
   14.07277775  162.63499451    4.90999985    3.07999992
   14.07583332  173.38200378    4.90999985    3.05999994
   14.07916641  174.92100525    4.90999985    3.07999992
   14.08249950  172.74000549    4.90999985    3.05999994
   14.08361053  162.45399475    4.90999985    3.05999994
   14.08583260  170.87300110    4.90999985    3.07999992
   14.08916664  156.67500305    4.90999985    3.05999994
   14.09249973  173.25900269    4.90999985    3.07999992
   14.09861088  173.25900269    4.90999985    3.07999992
   14.10249996  161.59700012    4.90999985    3.07999992
   14.10583401  168.30299377    4.90999985    3.05999994
   14.10916710  170.24899292    4.90999985    3.07999992
   14.11222267  175.21099854    4.90999985    3.07999992
   14.11555576  169.54600525    4.90999985    3.07999992
   14.11694431  168.02000427    4.90999985    3.03999996
   14.11916637  161.50799561    4.90999985    3.07999992
   14.12250042  173.86999512    4.90999985    3.07999992
   14.12583351  171.57699585    4.90999985    3.05999994
   14.12888908  166.92700195    4.90999985    3.07999992
   14.13222218  154.32899475    4.90999985    3.05999994
   14.13527775  171.89799500    4.90999985    3.05999994
   14.14138889  171.89799500    4.90999985    3.07999992
   14.14555550  165.12600708    4.90999985    3.07999992
   14.14861107  162.61900330    4.90999985    3.07999992
   14.15027714  163.11900330    4.90999985    3.05999994
   14.15222168  163.58999634    4.90999985    3.07999992
   14.15555477  153.08599854    4.90999985    3.07999992
   14.15888882  166.40100098    4.90999985    3.07999992
   14.16194439  160.61399841    4.90999985    3.05999994
   14.16527748  167.94700623    4.90999985    3.05999994
   14.16861153  155.77999878    4.90999985    3.05999994
   14.17166710  170.00700378    4.90999985    3.05999994
   14.17500019  153.40600586    4.90999985    3.05999994
   14.17805576  158.78399658    4.90999985    3.05999994
   14.18416691  158.78399658    4.90999985    3.05999994
   14.18833351  162.34399414    4.90999985    3.05999994
   14.19166660  146.82200623    4.90999985    3.05999994
   14.19472218  158.91299438    4.90999985    3.05999994
   14.19805527  153.21499634    4.90999985    3.05999994
   14.20111084  159.07800293    4.90999985    3.05999994
   14.20444393  156.76899719    4.90999985    3.05999994
   14.20777798  157.15899658    4.90999985    3.05999994
   14.21083355  159.14500427    4.90999985    3.07999992
   14.21416664  153.58000183    4.90999985    3.09999990
   14.21694374  164.46899414    4.90999985    3.05999994
   14.21777725  140.46699524    4.90999985    3.07999992
   14.22111034  156.34899902    4.90999985    3.07999992
   14.22694397  156.34899902    4.90999985    3.05999994
   14.23111057 1026.54003906    4.90999985    3.07999992
   14.23333359  144.32299805    4.90999985    3.07999992
   14.23333359  159.07800293    4.90999985    3.05999994
   14.23333359  156.76899719    4.90999985    3.05999994
   14.23361111  157.15899658    4.90999985    3.05999994
   14.23361111  159.14500427    4.90999985    3.07999992
   14.23361111  153.58000183    4.90999985    3.09999990
   14.23388958  140.46699524    4.90999985    3.07999992
   14.23388958  156.34899902    4.90999985    3.07999992
   14.23388958 1026.54003906    4.90999985    3.07999992
   14.23416710  153.21499634    4.90999985    3.05999994
   14.23611164  155.40699768    4.90999985    3.07999992
   14.23916721  160.80400085    4.90999985    3.07999992
   14.24250031  153.78599548    4.90999985    3.05999994
   14.24583340  153.34399414    4.90999985    3.07999992
   14.24888897  132.90499878    4.90999985    3.05999994
   14.25416660  132.90499878    4.90999985    3.07999992
   14.25805569  150.68200684    4.90999985    3.07999992
   14.26138878  145.41000366    4.90999985    3.07999992
   14.26472187  144.23899841    4.90999985    3.05999994
   14.26722240  132.35699463    4.90999985    3.05999994
   14.26833344  145.80400085    4.90999985    3.07999992
   14.27166653  147.19299316    4.90999985    3.07999992
   14.27472210  157.77299500    4.90999985    3.07999992
   14.27805519  145.17799377    4.90999985    3.05999994
   14.28138828  147.38499451    4.90999985    3.07999992
   14.28444481  150.95399475    4.90999985    3.07999992
   14.28777790  140.81300354    4.90999985    3.07999992
   14.29083347  145.88800049    4.90999985    3.07999992
   14.29694462  145.88800049    4.90999985    3.07999992
   14.30111122  149.50799561    4.90999985    3.07999992
   14.32083321  144.02999878    4.90999985    3.07999992
   14.32388878  154.26899719    4.90999985    3.07999992
   14.32722187  144.25000000    4.90999985    3.07999992
   14.33055592  144.78799438    4.90999985    3.07999992
   14.33388901  144.54899597    4.90999985    3.05999994
   14.33416653  150.44099426    4.90999985    3.05999994
   14.34000015  150.44099426    4.90999985    3.07999992
   14.34388828  151.53999329    4.90999985    3.09999990
   14.34722233  153.37399292    4.90999985    3.09999990
   14.35055637  157.96200562    4.90999985    3.07999992
   14.35361195  150.51300049    4.90999985    3.07999992
   14.35694504  148.53500366    4.90999985    3.09999990
   14.36000061  139.28199768    4.90999985    3.07999992
   14.36333370  148.42300415    4.90999985    3.07999992
   14.36666679  148.76800537    4.90999985    3.07999992
   14.36722279  150.75399780    4.90999985    3.07999992
   14.36999989  140.63900757    4.90999985    3.07999992
   14.37333393  139.86199951    4.90999985    3.07999992
   14.37638855  146.75199890    4.90999985    3.09999990
   14.38277817  146.75199890    4.90999985    3.09999990
   14.38694477  145.99899292    4.90999985    3.07999992
   14.39000034  147.94900513    4.90999985    3.07999992
   14.39333344  138.71400452    4.90999985    3.09999990
   14.39638901  159.44400024    4.90999985    3.07999992
   14.39972210  137.99499512    4.90999985    3.07999992
   14.40055561  125.92299652    4.90999985    3.07999992
   14.40333271  141.20899963    4.90999985    3.07999992
   14.40666676  150.12899780    4.90999985    3.09999990
   14.40999985  144.78199768    4.90999985    3.07999992
   14.41305542  136.85899353    4.90999985    3.07999992
   14.41638851  146.67199707    4.90999985    3.07999992
   14.41944504  148.41900635    4.90999985    3.09999990
   14.42555618  148.41900635    4.90999985    3.09999990
   14.42972279  121.68099976    4.90999985    3.11999989
   14.43277836  145.76600647    4.90999985    3.09999990
   14.43388939  148.51199341    4.90999985    3.09999990
   14.43638897  150.06700134    4.90999985    3.07999992
   14.43972206  141.11999512    4.90999985    3.09999990
   14.44305515  139.37699890    4.90999985    3.09999990
   14.44611073  150.61300659    4.90999985    3.09999990
   14.44944477  146.70899963    4.90999985    3.09999990
   14.45249939  140.36399841    4.90999985    3.07999992
   14.45583344  141.69099426    4.90999985    3.11999989
   14.45916653  130.27400208    4.90999985    3.09999990
   14.46222210  130.09300232    4.90999985    3.09999990
   14.46833324  130.09300232    4.90999985    3.09999990
   14.47249985  133.89700317    4.90999985    3.09999990
   14.47583294  126.96800232    4.90999985    3.09999990
   14.47888851  136.51100159    4.90999985    3.09999990
   14.48222160  130.94599915    4.90999985    3.09999990
   14.48555565  126.32599640    4.90999985    3.11999989
   14.48861122  142.30299377    4.90999985    3.09999990
   14.49194431  132.42900085    4.90999985    3.07999992
   14.49499989  129.79499817    4.90999985    3.09999990
   14.49833393  136.19500732    4.90999985    3.09999990
   14.50055599  125.07800293    4.90999985    3.11999989
   14.50194454  120.57700348    4.90999985    3.07999992
   14.50527763  142.02600098    4.90999985    3.07999992
   14.51111126  142.02600098    4.90999985    3.09999990
   14.51527786  129.49400330    4.90999985    3.09999990
   14.51861095  128.39399719    4.90999985    3.09999990
   14.52194405  131.97200012    4.90999985    3.11999989
   14.52499962  134.37399292    4.90999985    3.09999990
   14.52833271  131.61099243    4.90999985    3.09999990
   14.53138828  127.17400360    4.90999985    3.09999990
   14.53388977  125.16300201    4.90999985    3.09999990
   14.53500080  121.84200287    4.90999985    3.07999992
   14.53833389  134.25000000    4.90999985    3.09999990
   14.54166698  123.83000183    4.90999985    3.07999992
   14.54472256  126.55200195    4.90999985    3.07999992
   14.54805565  124.03800201    4.90999985    3.09999990
   14.55416679  124.03800201    4.90999985    3.09999990
   14.55833340  122.95999908    4.90999985    3.09999990
   14.56138897  131.27299500    4.90999985    3.09999990
   14.56472206  131.45199585    4.90999985    3.09999990
   14.56722260  125.31600189    4.90999985    3.11999989
   14.56833363  132.22399902    4.90999985    3.09999990
   14.57166672  124.45500183    4.90999985    3.07999992
   14.57499981  129.10499573    4.90999985    3.07999992
   14.57805538  124.64399719    4.90999985    3.07999992
   14.58138847  122.72899628    4.90999985    3.09999990
   14.58444405  127.29599762    4.90999985    3.09999990
   14.58777714  121.47299957    4.90999985    3.09999990
   14.59111118  132.34399414    4.90999985    3.07999992
   14.59694386  132.34399414    4.90999985    3.09999990
   14.60111141  130.45100403    4.90999985    3.09999990
   14.60416698  129.91000366    4.90999985    3.07999992
   14.60750008  132.88600159    4.90999985    3.09999990
   14.61083412  124.37300110    4.90999985    3.07999992
   14.61388969  127.53099823    4.90999985    3.07999992
   14.61722279  127.58899689    4.90999985    3.09999990
   14.62055588  121.59999847    4.90999985    3.09999990
   14.62361145  117.90699768    4.90999985    3.07999992
   14.62694454  122.29699707    4.90999985    3.09999990
   14.63000011  133.48699951    4.90999985    3.07999992
   14.63333321  134.80200195    4.90999985    3.09999990
   14.63388920  128.36799622    4.90999985    3.09999990
   14.63972187  128.36799622    4.90999985    3.09999990
   14.64388847  128.88800049    4.90999985    3.07999992
   14.64722252  126.48400116    4.90999985    3.07999992
   14.65027714  127.48899841    4.90999985    3.07999992
   14.65361118  122.89499664    4.90999985    3.09999990
   14.65694427  125.74099731    4.90999985    3.07999992
   14.65999985  131.71400452    4.90999985    3.09999990
   14.66333294  124.71900177    4.90999985    3.09999990
   14.66638851  126.01100159    4.90999985    3.07999992
   14.66722298  125.74500275    4.90999985    3.07999992
   14.67027855  130.66299438    4.90999985    3.09999990
   14.67333412  128.66299438    4.90999985    3.07999992
   14.67666721  129.58099365    4.90999985    3.09999990
   14.68249989  129.58099365    4.90999985    3.09999990
   14.68666649  127.21700287    4.90999985    3.07999992
   14.69000053  131.33999634    4.90999985    3.09999990
   14.69333363  123.05400085    4.90999985    3.09999990
   14.69638920  125.95999908    4.90999985    3.09999990
   14.69972229  128.28799438    4.90999985    3.11999989
   14.70055580  122.14499664    4.90999985    3.09999990
   14.70333290  121.12599945    4.90999985    3.09999990
   14.70638847  128.61199951    4.90999985    3.07999992
   14.70972157  130.60899353    4.90999985    3.09999990
   14.71305561  123.01799774    4.90999985    3.09999990
   14.71611118  121.03399658    4.90999985    3.09999990
   14.71944427  126.54199982    4.90999985    3.09999990
   14.72555542  126.54199982    4.90999985    3.09999990
   14.72972202  120.45300293    4.90999985    3.07999992
   14.73277760  132.96299744    4.90999985    3.09999990
   14.73388958  127.57700348    4.90999985    3.09999990
   14.73666668  120.01899719    4.90999985    3.11999989
   14.73972225  125.48699951    4.90999985    3.11999989
   14.74305534  133.16000366    4.90999985    3.09999990
   14.74638939  127.45400238    4.90999985    3.11999989
   14.74944496  125.91100311    4.90999985    3.09999990
   14.75277805  122.74299622    4.90999985    3.11999989
   14.75583363  131.41299438    4.90999985    3.11999989
   14.75916672  127.99600220    4.90999985    3.11999989
   14.76249981  120.41899872    4.90999985    3.14000010
   14.76833344  120.41899872    4.90999985    3.11999989
   14.77250004  119.03299713    4.90999985    3.11999989
   14.77555561  124.66799927    4.90999985    3.11999989
   14.77888870  125.61399841    4.90999985    3.11999989
   14.78222179  118.48100281    4.90999985    3.09999990
   14.78527832  129.45199585    4.90999985    3.11999989
   14.78861141  125.13099670    4.90999985    3.11999989
   14.79194450  124.63899994    4.90999985    3.11999989
   14.79500008  128.47500610    4.90999985    3.11999989
   14.79833412  128.00700378    4.90999985    3.11999989
   14.80055618  123.73600006    4.90999985    3.09999990
   14.80194473  125.61699677    4.90999985    3.11999989
   14.80500031  130.52099609    4.90999985    3.11999989
   14.81111145  130.52099609    4.90999985    3.11999989
   14.81527805  126.27500153    4.90999985    3.09999990
   14.81861115  127.92299652    4.90999985    3.09999990
   14.82166672  128.77799988    4.90999985    3.11999989
   14.82499981  127.21700287    4.90999985    3.11999989
   14.82833290  117.61499786    4.90999985    3.09999990
   14.83138847  113.71700287    4.90999985    3.09999990
   14.83388901  118.03800201    4.90999985    3.11999989
   14.83527756  132.55700684    4.90999985    3.11999989
   14.83833313  117.30100250    4.90999985    3.09999990
   14.84166622  125.05999756    4.90999985    3.09999990
   14.84499931  127.34500122    4.90999985    3.11999989
   14.84805489  116.41899872    4.90999985    3.11999989
   14.85388947  116.41899872    4.90999985    3.09999990
   14.85805607  123.64099884    4.90999985    3.09999990
   14.86138916  119.59400177    4.90999985    3.11999989
   14.86472225  118.50700378    4.90999985    3.09999990
   14.86722279  115.01799774    4.90999985    3.09999990
   14.86833382  115.91500092    4.90999985    3.09999990
   14.87138939  117.70400238    4.86999989    3.11999989
   14.87472248  118.69000244    4.09999990    3.11999989
   14.87805557  117.17299652    3.51999998    3.09999990
   14.88111115  123.27500153    2.96000004    3.09999990
   14.88444424  119.48999786    0.83999997    2.93000007
   14.88749981  123.21199799    0.81999999    2.91000009
   14.89083290  127.02200317    0.83999997    2.93000007
   14.89694405  127.02200317    0.83999997    2.93000007
   14.90111065  124.43599701    0.83999997    2.93000007
   14.90416622  119.18199921    0.86000001    2.93000007
   14.90749931  114.73600006    0.86000001    2.91000009
   14.91083336  121.40200043    0.88000000    2.91000009
   14.91388893  128.29499817    0.89999998    2.91000009
   14.91722298  122.93499756    0.88000000    2.93000007
   14.92027855  134.04299927    0.89999998    2.91000009
   14.92361164  142.44900513    0.92000002    2.93000007
   14.92694473  129.06100464    0.94000000    2.91000009
   14.93000031  124.53600311    0.95999998    2.91000009
   14.93333340  126.62699890    0.98000002    2.91000009
   14.93388939  130.76499939    0.98000002    2.91000009
   14.93972206  130.76499939    0.95999998    2.91000009
   14.94388866  117.48799896    0.95999998    2.93000007
   14.94694424  127.12100220    0.95999998    2.91000009
   14.95027733  124.38899994    0.94000000    2.93000007
   14.95361137  119.34200287    0.95999998    2.93000007
   14.95666695  122.79699707    0.94000000    2.93000007
   14.96000004  125.76000214    0.92000002    2.93000007
   14.96333313  127.92199707    0.92000002    2.93000007
   14.96638870  128.38299561    0.92000002    2.93000007
   14.96722221  127.99600220    0.89999998    2.93000007
   14.96999931  115.71299744    0.89999998    2.93000007
   14.97305489  130.97000122    0.89999998    2.91000009
   14.97638798  126.91400146    0.89999998    2.91000009
   14.98249912  126.91400146    0.88000000    2.91000009
   14.98666668  122.05899811    0.86000001    2.93000007
   14.99000072  121.20099640    0.86000001    2.93000007
   14.99305534  122.11799622    0.86000001    2.93000007
   14.99638939  119.97699738    0.83999997    2.93000007
   14.99972248  132.38999939    0.83999997    2.93000007
   15.00055599  126.16000366    0.83999997    2.93000007
   15.00333309  127.12300110    0.83999997    2.93000007
   15.00638866  123.77899933    0.81999999    2.93000007
   15.00972176  129.64900208    0.86000001    2.93000007
   15.01305580  135.22599792    0.83999997    2.93000007
   15.01611137  124.14199829    0.86000001    2.94000006
   15.01944447  120.54799652    0.86000001    2.93000007
   15.02555561  120.54799652    0.83999997    2.94000006
   15.02944374  129.64900208    0.83999997    2.93000007
   15.03277779  119.52100372    0.86000001    2.94000006
   15.03388977  120.69999695    0.86000001    2.94000006
   15.03638935  121.99199677    0.83999997    2.93000007
   15.03944492  126.86799622    0.83999997    2.93000007
   15.04277802  123.73600006    0.83999997    2.94000006
   15.04611111  118.56900024    0.81999999    2.93000007
   15.04916668  119.07499695    0.83999997    2.93000007
   15.05249977  126.37500000    0.86000001    2.93000007
   15.05583382  124.30400085    0.83999997    2.93000007
   15.05888939  132.87800598    0.83999997    2.93000007
   15.06222248  123.85800171    0.86000001    2.93000007
   15.06833363  123.85800171    0.86000001    2.93000007
   15.07250023  122.34600067    0.86000001    2.93000007
   15.07555580  117.91000366    0.88000000    2.93000007
   15.07888889  114.71299744    0.88000000    2.93000007
   15.08194447  119.86699677    0.88000000    2.93000007
   15.08527756  120.63400269    0.88000000    2.93000007
   15.08861065  126.87599945    0.86000001    2.93000007
   15.09166622  122.71600342    0.86000001    2.94000006
   15.09499931  138.01600647    0.86000001    2.93000007
   15.09833336  126.69300079    0.86000001    2.93000007
   15.10055637  120.98899841    0.86000001    2.94000006
   15.10194492  119.47399902    0.86000001    2.94000006
   15.10500050  137.04600525    0.88000000    2.93000007
   15.11111164  137.04600525    0.88000000    2.93000007
   15.11527824  122.46900177    0.88000000    2.93000007
   15.11861134  133.70100403    0.89999998    2.93000007
   15.12166691  127.28099823    0.89999998    2.93000007
   15.12500000  125.85399628    0.89999998    2.93000007
   15.12805557  122.61900330    0.89999998    2.91000009
   15.13138866  119.46099854    0.89999998    2.93000007
   15.13388920  127.76399994    0.89999998    2.93000007
   15.13500023  120.75399780    0.89999998    2.93000007
   15.13805580  126.64199829    0.89999998    2.91000009
   15.14138889  115.71900177    0.88000000    2.93000007
   15.14472198  118.56600189    0.89999998    2.93000007
   15.14777756  129.56199646    0.88000000    2.93000007
   15.15388870  129.56199646    0.88000000    2.91000009
   15.15805531  138.55499268    0.88000000    2.93000007
   15.16138840  129.58500671    0.88000000    2.94000006
   15.16444397  133.02299500    0.86000001    2.93000007
   15.16722298  120.38800049    0.86000001    2.93000007
   15.16833401  121.66000366    0.86000001    2.93000007
   15.17138958  134.38400269    0.86000001    2.93000007
   15.17472267  134.18400574    0.86000001    2.93000007
   15.17805576  119.48200226    0.86000001    2.93000007
   15.18111134  127.86699677    0.88000000    2.91000009
   15.18444443  131.39500427    0.88000000    2.94000006
   15.18777752  132.00399780    0.88000000    2.93000007
   15.19083309  131.74299622    0.88000000    2.93000007
   15.19666672  131.74299622    0.88000000    2.94000006
   15.20083332  121.16100311    0.86000001    2.93000007
   15.20416641  124.88400269    0.86000001    2.93000007
   15.20749950  125.41999817    0.88000000    2.93000007
   15.21055508  125.49199677    0.92000002    2.93000007
   15.21388912  127.13700104    0.92000002    2.91000009
   15.21694374  126.69200134    0.92000002    2.91000009
   15.22027779  123.49400330    0.92000002    2.94000006
   15.22361088  122.67900085    0.92000002    2.93000007
   15.22666645  128.08900452    0.94000000    2.94000006
   15.22999954  120.33899689    0.94000000    2.93000007
   15.23333359  123.48100281    0.95999998    2.93000007
   15.23388958  123.13999939    0.95999998    2.93000007
   15.23972225  123.13999939    0.95999998    2.93000007
   15.24388885  116.82599640    0.94000000    2.93000007
   15.24694443  120.12300110    0.94000000    2.93000007
   15.25027752  121.14299774    0.89999998    2.93000007
   15.25333309  115.42900085    0.89999998    2.93000007
   15.25666714  115.04199982    0.88000000    2.94000006
   15.26000023  117.63500214    0.88000000    2.93000007
   15.26305580  124.86199951    0.88000000    2.93000007
   15.26638889  113.77400208    0.88000000    2.93000007
   15.26722240  122.62500000    0.88000000    2.93000007
   15.26999950  122.61199951    0.88000000    2.93000007
   15.27333355  129.24200439    0.88000000    2.93000007
   15.27638817  129.78399658    0.88000000    2.94000006
   15.28249931  129.78399658    0.88000000    2.93000007
   15.28666687  130.01100159    0.88000000    2.93000007
   15.28972244  123.70600128    0.86000001    2.93000007
   15.29305553  118.34300232    0.86000001    2.93000007
   15.29638958  113.28900146    0.86000001    2.93000007
   15.29944515  118.47100067    0.86000001    2.93000007
   15.30055618  120.74299622    0.86000001    2.93000007
   15.30305576  119.34500122    0.86000001    2.93000007
   15.30638885  122.38800049    0.86000001    2.93000007
   15.30944443  116.17500305    0.86000001    2.94000006
   15.31277752  126.18399811    0.86000001    2.94000006
   15.31611156  119.20999908    0.88000000    2.93000007
   15.33888817  119.20999908    0.88000000    2.93000007
   15.34305477  126.39700317    0.88000000    2.93000007
   15.34611034  115.31300354    0.88000000    2.94000006
   15.34944439  115.94000244    0.92000002    2.93000007
   15.35277843  118.10500336    0.89999998    2.93000007
   15.35583401  122.42099762    0.94000000    2.93000007
   15.35916710  120.97100067    0.88000000    2.93000007
   15.36250019  116.80300140    0.88000000    2.93000007
   15.36555576  136.80999756    0.88000000    2.94000006
   15.36888885  125.52400208    0.88000000    2.94000006
   15.36972237  119.43000031    0.89999998    2.93000007
   15.37250042  117.50199890    0.89999998    2.93000007
   15.37555599  125.49400330    0.88000000    2.93000007
   15.38166714  125.49400330    0.86000001    2.93000007
   15.38583279  142.26300049    0.86000001    2.93000007
   15.38888836  129.40100098    0.83999997    2.93000007
   15.39222240  120.67099762    0.86000001    2.93000007
   15.39555550  120.98400116    0.86000001    2.93000007
   15.39861107  130.29400635    0.83999997    2.93000007
   15.40194416  130.95199585    0.83999997    2.93000007
   15.40305519  128.67500305    0.83999997    2.93000007
   15.40555477  126.48699951    0.83999997    2.93000007
   15.40888882  117.83300018    0.83999997    2.93000007
   15.41222191  122.87799835    0.83999997    2.93000007
   15.41527748  120.27200317    0.86000001    2.94000006
   15.41861153  125.54699707    0.83999997    2.94000006
   15.42444515  125.54699707    0.86000001    2.93000007
   15.42861176  120.03900146    0.86000001    2.93000007
   15.43194485  124.75800323    0.86000001    2.93000007
   15.43500042  116.12300110    0.86000001    2.93000007
   15.43666649  118.49099731    0.86000001    2.94000006
   15.43861103  122.07599640    0.86000001    2.94000006
   15.44194412  116.63899994    0.86000001    2.93000007
   15.44499969  117.57199860    0.86000001    2.94000006
   15.44833374  124.16400146    0.86000001    2.94000006
   15.45166683  125.06700134    0.83999997    2.93000007
   15.45472240  128.33799744    0.81999999    2.94000006
   15.45805550  122.33200073    0.81999999    2.94000006
   15.46138859  111.64600372    0.81999999    2.93000007
   15.46749973  111.64600372    0.80000001    2.93000007
   15.47166634  123.95500183    0.80000001    2.94000006
   15.47472191  113.98500061    0.79000002    2.94000006
   15.47805500  116.39700317    0.79000002    2.94000006
   15.48138809  122.40899658    0.80000001    2.94000006
   15.48444462  127.00299835    0.80000001    2.94000006
   15.48777771  121.86799622    0.80000001    2.94000006
   15.49083328  123.51999664    0.80000001    2.94000006
   15.49416733  115.80500031    0.81999999    2.93000007
   15.49750042  128.58099365    0.80000001    2.94000006
   15.50055599  120.17600250    0.80000001    2.94000006
   15.50333309  114.12400055    0.80000001    2.94000006
   15.50416660  121.65899658    0.80000001    2.94000006
   15.51027775  121.65899658    0.81999999    2.93000007
   15.51416683  122.11799622    0.81999999    2.93000007
   15.51749992  122.66200256    0.81999999    2.93000007
   15.52083302  115.19200134    0.81999999    2.93000007
   15.52416611  117.73300171    0.81999999    2.94000006
   15.52722168  128.27400208    0.81999999    2.94000006
   15.53055573  124.00000000    0.81999999    2.93000007
   15.53361130  121.22100067    0.83999997    2.93000007
   15.53666687  136.15600586    0.83999997    2.93000007
   15.53722286  123.70899963    0.83999997    2.93000007
   15.54055595  131.22200012    0.83999997    2.94000006
   15.54361153  133.63000488    0.83999997    2.94000006
   15.54694462  120.86900330    0.83999997    2.94000006
   15.55305576  120.86900330    0.86000001    2.94000006
   15.55722237  118.72899628    0.86000001    2.93000007
   15.56027794  122.65000153    0.86000001    2.93000007
   15.56361103  126.54399872    0.86000001    2.93000007
   15.56694412  120.05000305    0.88000000    2.93000007
   15.56999969  117.32700348    0.88000000    2.93000007
   15.57027817  124.03299713    0.88000000    2.93000007
   15.57361126  114.91799927    0.89999998    2.93000007
   15.57666683  123.79900360    0.89999998    2.93000007
   15.57999992  122.18900299    0.88000000    2.93000007
   15.58333302  120.69799805    0.88000000    2.93000007
   15.58638859  116.62899780    0.88000000    2.94000006
   15.58972168  123.43499756    0.88000000    2.93000007
   15.59583282  123.43499756    0.89999998    2.93000007
   15.60000038  112.26300049    0.89999998    2.94000006
   15.60333347  121.27300262    0.89999998    2.94000006
   15.60361195  116.23600006    0.89999998    2.93000007
   15.60694504  122.95700073    0.89999998    2.93000007
   15.61000061  117.07700348    0.89999998    2.93000007
   15.61333370  116.80300140    0.92000002    2.94000006
   15.61666679  124.85700226    0.92000002    2.94000006
   15.61972237  119.02300262    0.89999998    2.93000007
   15.62305546  117.75599670    0.92000002    2.94000006
   15.62638855  122.37500000    0.89999998    2.94000006
   15.62944412  117.29900360    0.88000000    2.93000007
   15.63277817  121.05300140    0.88000000    2.94000006
   15.63861084  121.05300140    0.86000001    2.94000006
   15.64277744  119.02600098    0.86000001    2.94000006
   15.64611053  122.74500275    0.86000001    2.94000006
   15.64916611  117.57499695    0.86000001    2.93000007
   15.65249920  121.21099854    0.83999997    2.94000006
   15.65583324  118.37799835    0.86000001    2.93000007
   15.65888882  123.36299896    0.86000001    2.93000007
   15.66222191  121.75199890    0.88000000    2.94000006
   15.66555500  124.18900299    0.88000000    2.94000006
   15.66861153  124.88899994    0.88000000    2.94000006
   15.67000008  118.91200256    0.88000000    2.94000006
   15.67222214  117.12599945    0.88000000    2.93000007
   15.67555618  112.08799744    0.88000000    2.94000006
   15.68166733  112.08799744    0.88000000    2.93000007
   15.68555546  119.33899689    0.92000002    2.94000006
   15.68888855  124.23899841    0.92000002    2.94000006
   15.69222260  121.50700378    0.94000000    2.94000006
   15.69527817  130.04600525    0.94000000    2.93000007
   15.69861126  123.73300171    0.89999998    2.94000006
   15.70194435  121.70999908    0.88000000    2.94000006
   15.70333290  116.81700134    0.88000000    2.94000006
   15.70527744  123.39499664    0.88000000    2.94000006
   15.70861053  118.20700073    0.86000001    2.94000006
   15.71194458  121.71800232    0.86000001    2.93000007
   15.71500015  117.37100220    0.88000000    2.94000006
   15.71833324  114.47899628    0.88000000    2.94000006
   15.72444439  114.47899628    0.88000000    2.94000006
   15.72861099  129.89999390    0.88000000    2.94000006
   15.73166656  126.33599854    0.88000000    2.94000006
   15.73500061  120.28099823    0.88000000    2.93000007
   15.73694515  120.70500183    0.88000000    2.93000007
   15.73861122  126.50099945    0.88000000    2.94000006
   15.74194431  124.52100372    0.88000000    2.93000007
   15.74499989  121.79100037    0.88000000    2.93000007
   15.74833393  114.60800171    0.88000000    2.93000007
   15.75166702  124.01200104    0.88000000    2.93000007
   15.75472260  135.37199402    0.88000000    2.94000006
   15.75805569  125.61199951    0.89999998    2.94000006
   15.76138878  121.10199738    0.88000000    2.94000006
   15.76722240  121.10199738    0.88000000    2.94000006
   15.77138901  121.19499969    0.88000000    2.94000006
   15.77472210  118.63600159    0.88000000    2.94000006
   15.77777767  113.59700012    0.88000000    2.93000007
   15.78111076  114.89199829    0.88000000    2.93000007
   15.78416729  120.90100098    0.86000001    2.94000006
   15.78750038  116.10399628    0.83999997    2.94000006
   15.79083347  116.50299835    0.86000001    2.94000006
   15.79388905  125.52400208    0.83999997    2.93000007
   15.79722309  114.42800140    0.83999997    2.94000006
   15.80055618  118.33000183    0.81999999    2.94000006
   15.80361176  116.32900238    0.81999999    2.94000006
   15.80388927  115.65100098    0.81999999    2.94000006
   15.81000042  115.65100098    0.81999999    2.96000004
   15.81416702  118.07199860    0.81999999    2.93000007
   15.81750011  114.80899811    0.80000001    2.94000006
   15.82055569  120.47599792    0.80000001    2.94000006
   15.82388878  111.00000000    0.80000001    2.93000007
   15.82722187  123.19100189    0.79000002    2.94000006
   15.83027744  124.97399902    0.79000002    2.94000006
   15.83361053  127.25900269    0.79000002    2.94000006
   15.83694458  118.62200165    0.79000002    2.94000006
   15.83722210  406.32598877    0.79000002    2.94000006
   15.83944416  119.48600006    0.80000001    2.94000006
   15.83972168  114.80899811    0.80000001    2.94000006
   15.83972168  120.47599792    0.80000001    2.94000006
   15.83972168  111.00000000    0.80000001    2.93000007
   15.84000015  123.19100189    0.79000002    2.94000006
   15.84000015  124.97399902    0.79000002    2.94000006
   15.84000015  127.25900269    0.79000002    2.94000006
   15.84027767  406.32598877    0.79000002    2.94000006
   15.84027767  115.65100098    0.81999999    2.94000006
   15.84027767  118.07199860    0.81999999    2.93000007
   15.84222221  124.69200134    0.80000001    2.94000006
   15.84527779  120.33000183    0.76999998    2.94000006
   15.84861088  125.82599640    0.79000002    2.94000006
   15.85166740  122.62799835    0.79000002    2.94000006
   15.85500050  123.55599976    0.79000002    2.94000006
   15.86027813  123.55599976    0.79000002    2.96000004
   15.86444473  142.10200500    0.79000002    2.94000006
   15.86777782  122.57099915    0.79000002    2.94000006
   15.87083340  137.42900085    0.79000002    2.94000006
   15.87333393  122.73400116    0.80000001    2.94000006
   15.87472248  139.76499939    0.79000002    2.93000007
   15.87777805  124.24800110    0.80000001    2.94000006
   15.88111115  135.47399902    0.80000001    2.94000006
   15.88444424  126.33100128    0.80000001    2.94000006
   15.88749981  132.13200378    0.80000001    2.94000006
   15.89083290  133.38999939    0.80000001    2.94000006
   15.89416695  131.61000061    0.80000001    2.93000007
   15.89722252  141.71800232    0.80000001    2.94000006
   15.90305519  141.71800232    0.79000002    2.94000006
   15.90749931  132.39999390    0.80000001    2.94000006
   15.91083336  137.36199951    0.80000001    2.94000006
   15.91388893  136.73800659    0.79000002    2.94000006
   15.91722298  130.43800354    0.79000002    2.94000006
   15.92027855  130.78700256    0.79000002    2.94000006
   15.92361164  131.57400513    0.79000002    2.94000006
   15.92694473  128.07800293    0.79000002    2.96000004
   15.93000031  128.14799500    0.80000001    2.94000006
   15.93333340  130.86500549    0.80000001    2.94000006
   15.93666649  129.17799377    0.80000001    2.94000006
   15.93972206  129.57499695    0.80000001    2.98000002
   15.94027805  128.10200500    0.80000001    2.98000002
   15.94611073  128.10200500    0.80000001    2.94000006
   15.94999981  128.23300171    0.80000001    2.94000006
   15.95333290  133.88099670    0.81999999    2.93000007
   15.95666695  135.74800110    0.83999997    2.94000006
   15.95972157  132.14300537    0.81999999    2.94000006
   15.96305561  137.45599365    0.81999999    2.94000006
   15.96638870  122.71399689    0.83999997    2.94000006
   15.96944427  129.18200684    0.81999999    2.94000006
   15.97277737  126.39099884    0.81999999    2.94000006
   15.97361088  137.11000061    0.81999999    2.94000006
   15.97638798  122.42600250    0.83999997    2.93000007
   15.97944355  131.62699890    0.83999997    2.93000007
   15.98277760  129.35200500    0.83999997    2.96000004
   15.98888874  129.35200500    0.81999999    2.94000006
   15.99305534  136.87300110    0.81999999    2.94000006
   15.99611092  124.25599670    0.83999997    2.94000006
   15.99944496  124.30000305    0.81999999    2.94000006
   16.00277710  126.38300323    0.81999999    2.94000006
   16.00583267  124.03399658    0.83999997    2.93000007
   16.00694466  123.26799774    0.83999997    2.93000007
   16.00972176  125.83300018    0.81999999    2.96000004
   16.01277733  132.00300598    0.81999999    2.94000006
   16.01611137  113.64499664    0.81999999    2.94000006
   16.01944351  128.24899292    0.81999999    2.94000006
   16.02249908  124.89800262    0.81999999    2.94000006
   16.02583313  126.81999969    0.80000001    2.94000006
   16.03166580  126.81999969    0.80000001    2.94000006
   16.03583336  122.54100037    0.80000001    2.94000006
   16.03916550  125.12799835    0.79000002    2.94000006
   16.04027748  124.22000122    0.79000002    2.94000006
   16.04277802  125.80300140    0.79000002    2.94000006
   16.04583359  124.45600128    0.79000002    2.94000006
   16.04916573  121.52500153    0.79000002    2.94000006
   16.05249977  126.85600281    0.79000002    2.94000006
   16.05555534  130.85400391    0.76999998    2.94000006
   16.05888748  127.81600189    0.79000002    2.94000006
   16.06222153  119.45200348    0.79000002    2.94000006
   16.06527710  129.08000183    0.76999998    2.94000006
   16.06861115  130.73599243    0.76999998    2.94000006
   16.07444572  130.73599243    0.76999998    2.94000006
   16.07861137  123.27500153    0.76999998    2.96000004
   16.08194542  118.99099731    0.75000000    2.98000002
   16.08527756  122.19100189    0.75000000    2.94000006
   16.08833313  121.15399933    0.75000000    2.94000006
   16.09166718  125.28900146    0.75000000    2.94000006
   16.09500122  127.70899963    0.75000000    2.94000006
   16.09805679  116.06400299    0.75000000    2.94000006
   16.10138893  123.34400177    0.75000000    2.96000004
   16.10472298  133.32699585    0.75000000    2.94000006
   16.10694504  132.59100342    0.76999998    2.94000006
   16.10833359  127.70899963    0.75000000    2.94000006
   16.11138916  137.04800415    0.75000000    2.94000006
   16.11750031  137.04800415    0.76999998    2.96000004
   16.12138939  140.96099854    0.75000000    2.96000004
   16.12472153  142.40400696    0.75000000    2.96000004
   16.12805557  132.51100159    0.76999998    2.94000006
   16.13111115  137.58099365    0.79000002    2.96000004
   16.13444519  135.61500549    0.79000002    2.96000004
   16.13777733  147.35499573    0.76999998    2.94000006
   16.14027786  142.73699951    0.76999998    2.94000006
   16.14138794  148.91299438    0.76999998    2.94000006
   16.14444351  142.06599426    0.76999998    2.96000004
   16.14777756  154.08000183    0.75000000    2.94000006
   16.15111160  150.79100037    0.75000000    2.96000004
   16.15416718  131.98300171    0.76999998    2.94000006
   16.16027832  131.98300171    0.75000000    2.94000006
   16.16444397  143.20599365    0.75000000    2.96000004
   16.16749954  146.50900269    0.75000000    2.94000006
   16.17083359  146.66000366    0.75000000    2.94000006
   16.17361069  158.80299377    0.75000000    2.94000006
   16.17444420  154.66700745    0.75000000    2.94000006
   16.17749977  157.19299316    0.75000000    2.94000006
   16.18083191  158.05000305    0.75000000    2.94000006
   16.18416595  162.42199707    0.75000000    2.96000004
   16.18722153  148.04600525    0.75000000    2.96000004
   16.19055557  132.02499390    0.75000000    2.94000006
   16.19388771  160.23199463    0.75000000    2.96000004
   16.19694328  142.82499695    0.75000000    2.94000006
   16.20305634  142.82499695    0.75000000    2.96000004
   16.20722389  142.16000366    0.75000000    2.94000006
   16.21055603  141.07699585    0.75000000    2.94000006
   16.21361160  164.49800110    0.75000000    2.94000006
   16.21694565  136.72999573    0.76999998    2.98000002
   16.22000122  133.81700134    0.79000002    2.94000006
   16.22333336  158.06599426    0.76999998    2.94000006
   16.22666740  151.24299622    0.76999998    2.96000004
   16.22972298  135.57200623    0.76999998    2.94000006
   16.23305511  139.00199890    0.76999998    2.94000006
   16.23638916  149.35699463    0.75000000    2.96000004
   16.23944473  155.87899780    0.76999998    2.98000002
   16.24027824  139.56700134    0.76999998    2.98000002
   16.24583435  139.56700134    0.75000000    2.96000004
   16.25000000  148.20700073    0.76999998    2.96000004
   16.25333405  137.08599854    0.76999998    2.96000004
   16.25638962  151.59300232    0.75000000    2.94000006
   16.25972176  132.80900574    0.75000000    2.94000006
   16.26305580  135.73699951    0.75000000    2.96000004
   16.26611137  143.05099487    0.75000000    2.96000004
   16.26944351  134.81300354    0.75000000    2.96000004
   16.27277756  138.34500122    0.75000000    2.96000004
   16.27361107  138.53199768    0.75000000    2.96000004
   16.27638817  120.13400269    0.75000000    2.94000006
   16.27972221  134.35899353    0.75000000    2.96000004
   16.28277779  138.11399841    0.75000000    2.96000004
   16.28888893  138.11399841    0.75000000    2.96000004
   16.29277802  129.66000366    0.76999998    2.94000006
   16.29611015  124.46700287    0.76999998    2.94000006
   16.29944420  140.61900330    0.76999998    2.94000006
   16.30249977  130.60200500    0.76999998    2.94000006
   16.30583191  132.12100220    0.76999998    2.96000004
   16.30694389  133.42599487    0.79000002    2.94000006
   16.30944443  134.92900085    0.79000002    2.96000004
   16.31277657  128.58200073    0.79000002    2.94000006
   16.31583214  127.48200226    0.79000002    2.94000006
   16.31916809  126.55999756    0.79000002    2.94000006
   16.32222366  136.77299500    0.80000001    2.94000006
   16.32555580  131.89700317    0.80000001    2.94000006
   16.33166695  131.89700317    0.79000002    2.94000006
   16.35222244  123.48600006    0.80000001    2.94000006
   16.35277748  116.83399963    0.80000001    2.94000006
   16.35583305  126.96399689    0.81999999    2.94000006
   16.35916710  126.81199646    0.81999999    2.96000004
   16.36250114  126.34799957    0.80000001    2.94000006
   16.36555672  131.60299683    0.80000001    2.94000006
   16.36888885  124.96099854    0.81999999    2.94000006
   16.37472153  124.96099854    0.80000001    2.94000006
   16.37888908  132.16600037    0.80000001    2.94000006
   16.38194466  129.90499878    0.80000001    2.93000007
   16.38527679  129.31399536    0.81999999    2.94000006
   16.38611031  129.50999451    0.81999999    2.94000006
   16.38888931  123.95999908    0.81999999    2.94000006
   16.39222145  126.45200348    0.81999999    2.94000006
   16.39555550  131.28399658    0.81999999    2.94000006
   16.39861107  133.24800110    0.83999997    2.96000004
   16.40194321  138.70599365    0.81999999    2.96000004
   16.40499878  124.91799927    0.81999999    2.94000006
   16.40833282  125.88600159    0.81999999    2.94000006
   16.41166687  129.55900574    0.81999999    2.94000006
   16.41749954  129.55900574    0.81999999    2.94000006
   16.42166519  127.39299774    0.83999997    2.94000006
   16.42472076  126.59799957    0.81999999    2.94000006
   16.42805481  126.80799866    0.80000001    2.94000006
   16.43138885  135.58299255    0.80000001    2.94000006
   16.43444443  137.98100281    0.80000001    2.94000006
   16.43777657  126.65699768    0.80000001    2.94000006
   16.44111061  129.05400085    0.80000001    2.94000006
   16.44416618  128.00100708    0.80000001    2.94000006
   16.44749832  129.71600342    0.80000001    2.94000006
   16.45083427  122.48699951    0.80000001    2.94000006
   16.45277786  147.50700378    0.80000001    2.94000006
   16.45416832  126.20899963    0.80000001    2.94000006
   16.46027946  126.20899963    0.80000001    2.94000006
   16.46444511  122.67400360    0.80000001    2.94000006
   16.46777916  123.10299683    0.80000001    2.94000006
   16.47083473  122.06500244    0.80000001    2.94000006
   16.47416687  128.30700684    0.80000001    2.94000006
   16.47722244  139.63600159    0.80000001    2.94000006
   16.48055649  125.65000153    0.80000001    2.94000006
   16.48388863  130.62300110    0.80000001    2.94000006
   16.48611069  128.39599609    0.80000001    2.94000006
   16.48722267  122.19100189    0.80000001    2.94000006
   16.49055672  136.37199402    0.80000001    2.96000004
   16.49388885  134.67900085    0.80000001    2.96000004
   16.49694443  127.73799896    0.80000001    2.94000006
   16.50305557  127.73799896    0.80000001    2.96000004
   16.50722313  127.10600281    0.80000001    2.94000006
   16.51055527  126.51300049    0.80000001    2.94000006
   16.51388931  122.85900116    0.80000001    2.94000006
   16.51694489  139.04499817    0.80000001    2.94000006
   16.51944351  128.49000549    0.80000001    2.94000006
   16.52055550  138.49800110    0.80000001    2.94000006
   16.52388954  125.96700287    0.81999999    2.94000006
   16.52722168  122.01300049    0.83999997    2.94000006
   16.53027725  123.66500092    0.83999997    2.96000004
   16.53361130  124.32700348    0.81999999    2.94000006
   16.53694344  125.36299896    0.81999999    2.96000004
   16.54027748  127.53800201    0.81999999    2.96000004
   16.54611015  127.53800201    0.81999999    2.96000004
   16.55027771  130.60099792    0.81999999    2.94000006
   16.55277634  118.55300140    0.83999997    2.94000006
   16.55388832  132.22500610    0.83999997    2.94000006
   16.55722237  121.58599854    0.83999997    2.94000006
   16.56055450  123.02700043    0.83999997    2.94000006
   16.56361008  138.17100525    0.83999997    2.94000006
   16.56694603  127.33999634    0.83999997    2.94000006
   16.57027817  126.17500305    0.81999999    2.94000006
   16.57333374  133.11300659    0.81999999    2.96000004
   16.57666779  129.01800537    0.81999999    2.93000007
   16.57972336  134.86300659    0.81999999    2.94000006
   16.58305550  134.98800659    0.81999999    2.94000006
   16.58889008  134.98800659    0.81999999    2.96000004
   16.59305573  129.25799561    0.81999999    2.96000004
   16.59611130  133.95899963    0.81999999    2.94000006
   16.59944534  136.76400757    0.81999999    2.96000004
   16.60277748  123.07499695    0.81999999    2.94000006
   16.60583305  129.86700439    0.81999999    2.94000006
   16.60916710  131.68699646    0.83999997    2.94000006
   16.61250114  120.74099731    0.83999997    2.94000006
   16.61555672  129.83599854    0.83999997    2.94000006
   16.61888885  118.19499969    0.81999999    2.96000004
   16.61972237  135.54499817    0.81999999    2.96000004
   16.62249947  124.71800232    0.81999999    2.94000006
   16.62555504  129.44400024    0.83999997    2.94000006
   16.63166618  129.44400024    0.81999999    2.94000006
   16.63583374  127.14199829    0.81999999    2.94000006
   16.63916588  143.32000732    0.81999999    2.94000006
   16.64222145  124.91799927    0.83999997    2.94000006
   16.64555550  118.34200287    0.81999999    2.96000004
   16.64861107  140.93400574    0.83999997    2.94000006
   16.65194321  141.18899536    0.81999999    2.94000006
   16.65305519  121.75900269    0.81999999    2.94000006
   16.65555573  131.33000183    0.80000001    2.94000006
   16.65861130  136.80499268    0.79000002    2.96000004
   16.66194344  122.13899994    0.80000001    2.96000004
   16.66527748  120.79299927    0.80000001    2.96000004
   16.66833305  136.74400330    0.79000002    2.96000004
   16.67444420  136.74400330    0.79000002    2.96000004
   16.67860985  116.48699951    0.79000002    2.94000006
   16.68194389  128.08500671    0.79000002    2.94000006
   16.68499947  116.50499725    0.76999998    2.96000004
   16.68666649  129.24699402    0.76999998    2.94000006
   16.68888855  126.33100128    0.76999998    2.94000006
   16.69194412  124.67800140    0.79000002    2.96000004
   16.69527626  120.49600220    0.76999998    2.94000006
   16.69861031  120.90399933    0.76999998    2.96000004
   16.70166779  115.99500275    0.79000002    2.96000004
   16.70499992  114.02200317    0.79000002    2.96000004
   16.70805550  122.41999817    0.79000002    2.94000006
   16.71138954  120.50000000    0.79000002    2.94000006
   16.71750069  120.50000000    0.80000001    2.94000006
   16.72138977  120.94200134    0.81999999    2.94000006
   16.72472191  124.53500366    0.80000001    2.94000006
   16.72805595  116.09200287    0.80000001    2.94000006
   16.73111153  117.13300323    0.80000001    2.96000004
   16.73444557  119.58300018    0.81999999    2.94000006
   16.73777771  111.87699890    0.81999999    2.94000006
   16.74083328  116.10800171    0.81999999    2.94000006
   16.74416733  121.08899689    0.81999999    2.94000006
   16.74722290  134.11700439    0.81999999    2.94000006
   16.75055504  122.65200043    0.81999999    2.94000006
   16.75333405  119.91300201    0.83999997    2.94000006
   16.75444412  119.27300262    0.83999997    2.94000006
   16.76027870  119.27300262    0.81999999    2.94000006
   16.76444435  111.00099945    0.81999999    2.94000006
   16.76749992  126.21499634    0.83999997    2.94000006
   16.77083397  118.19899750    0.83999997    2.94000006
   16.77416611  124.43499756    0.83999997    2.94000006
   16.77722168  132.58999634    0.86000001    2.94000006
   16.78055573  121.22899628    0.86000001    2.94000006
   16.78361130  117.93099976    0.86000001    2.94000006
   16.78666687  126.67299652    0.86000001    2.94000006
   16.78722191  117.32599640    0.88000000    2.94000006
   16.79055595  121.27700043    0.86000001    2.94000006
   16.79388809  129.03599548    0.86000001    2.94000006
   16.79694366  128.49200439    0.86000001    2.94000006
   16.80305481  128.49200439    0.86000001    2.94000006
   16.80722237  122.58999634    0.86000001    2.94000006
   16.81027794  127.21700287    0.88000000    2.94000006
   16.81361008  126.52300262    0.88000000    2.94000006
   16.81694603  127.68499756    0.88000000    2.94000006
   16.82000160  135.17999268    0.88000000    2.94000006
   16.82027817  122.35800171    0.88000000    2.94000006
   16.82361221  123.09500122    0.88000000    2.94000006
   16.82694626  117.41400146    0.88000000    2.96000004
   16.83000183  124.67400360    0.88000000    2.96000004
   16.83333397  118.98799896    0.88000000    2.94000006
   16.83666801  127.56800079    0.88000000    2.94000006
   16.83972359  130.80200195    0.88000000    2.94000006
   16.84583473  130.80200195    0.89999998    2.93000007
   16.85000038  129.29699707    0.88000000    2.94000006
   16.85333443  130.40600586    0.88000000    2.94000006
   16.85388947  119.85800171    0.89999998    2.94000006
   16.85694504  126.88999939    0.88000000    2.94000006
   16.86027908  130.94099426    0.88000000    2.94000006
   16.86333466  119.16699982    0.88000000    2.94000006
   16.86666679  132.52000427    0.92000002    2.94000006
   16.87000084  141.39399719    0.89999998    2.94000006
   16.87305641  129.50100708    0.89999998    2.94000006
   16.87638855  126.69400024    0.89999998    2.93000007
   16.87972260  125.05799866    0.89999998    2.94000006
   16.88277817  130.40600586    0.89999998    2.94000006
   16.88888931  130.40600586    0.89999998    2.94000006
   16.89277840  129.08299255    0.88000000    2.94000006
   16.89611053  120.31999969    0.88000000    2.94000006
   16.89944458  116.25399780    0.89999998    2.94000006
   16.90250015  122.30100250    0.88000000    2.94000006
   16.90583229  121.69799805    0.88000000    2.94000006
   16.90916634  121.01499939    0.88000000    2.94000006
   16.91222191  122.65899658    0.88000000    2.94000006
   16.91555595  114.53900146    0.86000001    2.94000006
   16.91860962  124.56400299    0.86000001    2.94000006
   16.92000008  122.04599762    0.86000001    2.94000006
   16.92249870  121.68800354    0.86000001    2.94000006
   16.92555428  126.06600189    0.83999997    2.94000006
   16.93166542  126.06600189    0.83999997    2.94000006
   16.93583298  125.05599976    0.81999999    2.94000006
   16.93888855  119.18800354    0.83999997    2.94000006
   16.94222069  126.54399872    0.81999999    2.94000006
   16.94555473  127.71900177    0.81999999    2.96000004
   16.94861031  113.57099915    0.81999999    2.96000004
   16.95194435  118.12000275    0.81999999    2.94000006
   16.95333481  125.72399902    0.81999999    2.94000006
   16.95555687  121.57299805    0.83999997    2.94000006
   16.95861244  128.73300171    0.83999997    2.94000006
   16.96194458  117.25800323    0.83999997    2.94000006
   16.96527863  131.07099915    0.88000000    2.94000006
   16.96833420  125.01300049    0.88000000    2.94000006
   16.97444534  125.01300049    0.86000001    2.94000006
   16.97861099  120.42299652    0.88000000    2.94000006
   16.98194504  129.94799805    0.88000000    2.94000006
   16.98500061  123.16500092    0.89999998    2.94000006
   16.98694420  117.70600128    0.89999998    2.94000006
   16.98861122  121.72799683    0.89999998    2.94000006
   16.99194527  120.22499847    0.89999998    2.94000006
   16.99527740  121.03800201    0.94000000    2.93000007
   16.99833298  114.28600311    0.98000002    2.93000007
   17.00166702  114.89700317    0.94000000    2.94000006
   17.00499916  118.78900146    0.94000000    2.94000006
   17.00805473  121.62599945    0.98000002    2.94000006
   17.01138878  120.40399933    1.00000000    2.93000007
   17.01722145  120.40399933    0.98000002    2.93000007
   17.02138901  112.78299713    0.98000002    2.94000006
   17.02472115  120.25099945    0.98000002    2.94000006
   17.02805519  123.19400024    0.98000002    2.94000006
   17.03111076  124.22799683    1.00000000    2.94000006
   17.03444481  115.14600372    1.00000000    2.94000006
   17.03750038  119.19200134    1.00000000    2.94000006
   17.04083252  119.41400146    1.00000000    2.93000007
   17.04416656  130.54699707    1.01999998    2.93000007
   17.04722214  123.60099792    1.01999998    2.93000007
   17.05055428  115.51799774    1.01999998    2.93000007
   17.05360985  126.61799622    1.01999998    2.93000007
   17.05416679  119.22200012    1.01999998    2.93000007
   17.05999947  119.22200012    1.01999998    2.93000007
   17.06416512  132.02200317    1.01999998    2.94000006
   17.06750107  126.62699890    1.03999996    2.93000007
   17.07083511  135.23899841    1.01999998    2.93000007
   17.07389069  135.95199585    1.01999998    2.93000007
   17.07722282  127.41500092    1.01999998    2.94000006
   17.08055687  130.63299561    1.01999998    2.93000007
   17.08361244  127.75000000    1.03999996    2.93000007
   17.08694458  127.67500305    1.01999998    2.93000007
   17.08722305  128.09199524    1.01999998    2.93000007
   17.09055710  126.07299805    1.01999998    2.93000007
   17.09388924  125.13200378    1.01999998    2.94000006
   17.09694481  121.53600311    1.01999998    2.94000006
   17.10305595  121.53600311    1.00000000    2.94000006
   17.10722351  124.69799805    1.00000000    2.93000007
   17.11027908  126.78199768    0.98000002    2.93000007
   17.11361122  121.51000214    0.98000002    2.93000007
   17.11666679  127.92700195    0.98000002    2.93000007
   17.12000084  120.76899719    1.01999998    2.93000007
   17.12055588  127.93599701    1.01999998    2.93000007
   17.12388992  121.13500214    1.01999998    2.96000004
   17.12694550  120.63200378    1.01999998    2.93000007
   17.13027763  119.61699677    1.01999998    2.93000007
   17.13361168  120.74800110    0.98000002    2.94000006
   17.13666725  120.08499908    0.98000002    2.94000006
   17.13999939  121.98300171    0.95999998    2.94000006
   17.14583397  121.98300171    0.95999998    2.94000006
   17.14999962  124.51100159    0.98000002    2.94000006
   17.15305519  127.99500275    0.98000002    2.94000006
   17.15388870  123.33899689    0.95999998    2.94000006
   17.15694427  113.38300323    0.95999998    2.94000006
   17.15999985  115.99400330    0.98000002    2.94000006
   17.16333389  125.30100250    1.00000000    2.93000007
   17.16666603  117.68800354    1.01999998    2.91000009
   17.16972160  129.53199768    1.01999998    2.94000006
   17.17305565  116.30599976    1.01999998    2.94000006
   17.17638779  121.13700104    1.03999996    2.93000007
   17.17944336  122.22100067    1.03999996    2.94000006
   17.18277740  125.23799896    1.03999996    2.94000006
   17.18861008  125.23799896    1.03999996    2.94000006
   17.19277763  123.69400024    1.01999998    2.94000006
   17.19610977  117.93499756    1.01999998    2.93000007
   17.19916534  122.98200226    1.03999996    2.94000006
   17.20250130  122.94200134    1.03999996    2.94000006
   17.20583344  127.73899841    1.03999996    2.94000006
   17.20888901  131.34199524    1.03999996    2.94000006
   17.21222305  127.43900299    1.03999996    2.94000006
   17.21527863  117.78199768    1.03999996    2.93000007
   17.21861076  118.45999908    1.01999998    2.93000007
   17.22055626  128.52000427    1.01999998    2.93000007
   17.22249985  121.99400330    1.03999996    2.94000006
   17.22555542  121.23400116    1.03999996    2.93000007
   17.23139000  121.23400116    1.03999996    2.94000006
   17.23555565  131.86099243    1.03999996    2.93000007
   17.23888969  122.71199799    1.03999996    2.94000006
   17.24222183  122.01000214    1.01999998    2.94000006
   17.24527740  124.09999847    1.03999996    2.93000007
   17.24861145  122.02899933    1.03999996    2.93000007
   17.25166702  129.76699829    1.03999996    2.93000007
   17.25388908  120.67500305    1.03999996    2.94000006
   17.25555611  133.80400085    1.03999996    2.94000006
   17.25861168  131.11000061    1.05999994    2.93000007
   17.26194382  136.75199890    1.07000005    2.93000007
   17.26527786  137.64599609    1.09000003    2.93000007
   17.26833344  115.31700134    1.09000003    2.93000007
   17.27444458  115.31700134    1.09000003    2.93000007
   17.27861023  121.44599915    1.09000003    2.93000007
   17.28166580  125.80100250    1.09000003    2.94000006
   17.28499985  116.40599823    1.09000003    2.94000006
   17.28722191  116.33899689    1.07000005    2.93000007
   17.28861046  110.27100372    1.07000005    2.93000007
   17.29166603  117.68000031    1.09000003    2.93000007
   17.29500008  114.24099731    1.09000003    2.93000007
   17.29833221  122.03900146    1.11000001    2.93000007
   17.30138779  113.91899872    1.11000001    2.93000007
   17.30472183  117.93299866    1.11000001    2.93000007
   17.30805397  117.65200043    1.09000003    2.93000007
   17.31110954  118.76399994    1.13000000    2.94000006
   17.31722260  118.76399994    1.13000000    2.93000007
   17.32139015  130.04899597    1.11000001    2.93000007
   17.32444572  124.55100250    1.13000000    2.93000007
   17.32777786  125.35199738    1.09000003    2.93000007
   17.33111191  140.53900146    1.09000003    2.93000007
   17.33416748  123.33100128    1.09000003    2.93000007
   17.33750153  124.55400085    1.09000003    2.94000006
   17.34055710  134.34399414    1.09000003    2.93000007
   17.34388924  128.39100647    1.11000001    2.93000007
   17.34722328  123.86299896    1.11000001    2.93000007
   17.35027885  128.72099304    1.11000001    2.93000007
   17.36916733  119.13600159    1.07000005    2.93000007
   17.37333298  119.13600159    1.07000005    2.93000007
   17.37750053  124.03800201    1.05999994    2.93000007
   17.38083267  125.94200134    1.05999994    2.93000007
   17.38388824  124.33699799    1.05999994    2.93000007
   17.38722229  124.55300140    1.05999994    2.93000007
   17.39055634  117.82900238    1.05999994    2.93000007
   17.39361191  126.37400055    1.05999994    2.93000007
   17.39694405  121.84400177    1.05999994    2.93000007
   17.40027809  132.00700378    1.05999994    2.93000007
   17.40250015  128.10099792    1.07000005    2.93000007
   17.40388870  120.60399628    1.07000005    2.93000007
   17.40694427  120.08599854    1.05999994    2.93000007
   17.41027832  123.61599731    1.05999994    2.93000007
   17.41611099  123.61599731    1.05999994    2.93000007
   17.42027664  119.72299957    1.05999994    2.93000007
   17.42361069  129.28300476    1.05999994    2.93000007
   17.42694473  127.23999786    1.05999994    2.93000007
   17.43000031  130.71000671    1.05999994    2.93000007
   17.43333244  124.81900024    1.05999994    2.93000007
   17.43583298  128.60400391    1.05999994    2.93000007
   17.43694305  125.30200195    1.05999994    2.93000007
   17.43999863  135.22200012    1.05999994    2.93000007
   17.44333267  119.12000275    1.05999994    2.93000007
   17.44638824  124.66899872    1.05999994    2.93000007
   17.44972038  125.09799957    1.05999994    2.94000006
   17.45305634  124.08599854    1.03999996    2.93000007
   17.45916748  124.08599854    1.03999996    2.93000007
   17.46333504  132.16000366    1.03999996    2.93000007
   17.46638870  122.54699707    1.01999998    2.93000007
   17.46916771  119.79199982    1.00000000    2.93000007
   17.47027779  123.82199860    1.00000000    2.93000007
   17.47333336  127.53299713    1.01999998    2.93000007
   17.47666740  124.28199768    1.01999998    2.93000007
   17.48000145  126.67700195    1.00000000    2.93000007
   17.48305511  128.44400024    1.00000000    2.93000007
   17.48638916  119.79199982    1.00000000    2.93000007
   17.48944473  128.36599731    1.01999998    2.93000007
   17.49277878  121.46399689    1.01999998    2.93000007
   17.49611092  129.26400757    1.00000000    2.93000007
   17.50194359  129.26400757    1.01999998    2.93000007
   17.50611115  123.28900146    1.01999998    2.93000007
   17.50916672  131.33799744    0.98000002    2.93000007
   17.51277733  125.16200256    0.98000002    2.94000006
   17.51583290  124.91300201    0.98000002    2.94000006
   17.51916695  127.79100037    0.98000002    2.93000007
   17.52222252  125.78500366    0.94000000    2.94000006
   17.52555466  126.10199738    0.94000000    2.93000007
   17.52888870  133.74000549    0.94000000    2.93000007
   17.53194427  125.57800293    0.94000000    2.93000007
   17.53527641  129.47599792    0.94000000    2.94000006
   17.53694344  121.93299866    0.94000000    2.93000007
   17.53888893  120.30999756    0.94000000    2.93000007
   17.54472160  120.30999756    0.98000002    2.94000006
   17.54888916  144.21099854    0.95999998    2.93000007
   17.55222130  129.39199829    0.95999998    2.93000007
   17.55527687  126.90299988    0.95999998    2.93000007
   17.55861092  130.89500427    0.95999998    2.93000007
   17.56194305  139.34399414    0.95999998    2.93000007
   17.56499863  122.91400146    0.98000002    2.93000007
   17.56833458  112.01399994    0.98000002    2.93000007
   17.57027817  118.41799927    0.98000002    2.93000007
   17.57194519  123.49400330    0.98000002    2.93000007
   17.57500076  126.00900269    0.98000002    2.93000007
   17.57833481  126.71800232    0.98000002    2.93000007
   17.58166695  122.11399841    1.00000000    2.94000006
   17.58750153  122.11399841    1.01999998    2.93000007
   17.59166718  127.02999878    1.00000000    2.93000007
   17.59500122  137.26499939    1.00000000    2.93000007
   17.59833336  123.33200073    1.00000000    2.93000007
   17.60138893  122.36799622    0.98000002    2.93000007
   17.60388947  123.58999634    0.98000002    2.93000007
   17.60499954  124.00299835    1.00000000    2.93000007
   17.60833359  126.02999878    1.00000000    2.93000007
   17.61166763  127.97399902    1.00000000    2.94000006
   17.61472321  124.82800293    1.00000000    2.93000007
   17.61805534  123.04699707    0.98000002    2.93000007
   17.62138939  121.99400330    1.00000000    2.91000009
   17.62444496  129.26699829    1.00000000    2.91000009
   17.63055611  129.26699829    1.01999998    2.93000007
   17.63444519  123.47899628    1.01999998    2.93000007
   17.63722229  128.75900269    1.01999998    2.93000007
   17.63833237  120.78700256    1.01999998    2.93000007
   17.64138794  126.36000061    1.03999996    2.91000009
   17.64472198  124.57199860    1.05999994    2.93000007
   17.64805603  124.10399628    1.05999994    2.93000007
   17.65111160  118.16500092    1.05999994    2.93000007
   17.65444374  118.44300079    1.03999996    2.93000007
   17.65749931  128.14799500    1.05999994    2.93000007
   17.66083336  118.16600037    1.05999994    2.93000007
   17.66416550  123.12599945    1.05999994    2.93000007
   17.66722107  130.30900574    1.05999994    2.93000007
   17.67333221  130.30900574    1.03999996    2.93000007
   17.67749977  137.41000366    1.03999996    2.93000007
   17.68055534  130.82000732    1.03999996    2.93000007
   17.68388748  130.66499329    1.01999998    2.93000007
   17.68722153  118.89299774    1.01999998    2.93000007
   17.69027710  125.95800018    1.00000000    2.94000006
   17.69361115  136.91200256    1.00000000    2.94000006
   17.69666672  141.80499268    1.00000000    2.93000007
   17.70000076  136.24099731    0.98000002    2.93000007
   17.70333481  128.38999939    0.98000002    2.94000006
   17.70416832  135.60099792    0.98000002    2.94000006
   17.70694542  140.49899292    0.98000002    2.93000007
   17.71000099  139.24800110    0.98000002    2.93000007
   17.71611214  139.24800110    0.95999998    2.93000007
   17.72027779  149.26300049    0.95999998    2.93000007
   17.72361183  139.35200500    0.98000002    2.94000006
   17.72666740  137.99000549    0.98000002    2.93000007
   17.73000145  141.27999878    0.98000002    2.93000007
   17.73333359  141.62899780    0.98000002    2.94000006
   17.73638916  140.10400391    0.95999998    2.94000006
   17.73750114  136.43099976    0.95999998    2.94000006
   17.73999977  136.74000549    0.95999998    2.94000006
   17.74305534  130.87300110    0.95999998    2.93000007
   17.74638939  142.45100403    0.95999998    2.93000007
   17.74972153  135.33500671    0.95999998    2.93000007
   17.75277710  133.30900574    0.95999998    2.93000007
   17.75888824  133.30900574    0.94000000    2.93000007
   17.76305580  145.86599731    0.92000002    2.94000006
   17.76638794  144.15800476    0.92000002    2.94000006
   17.76972198  130.21400452    0.92000002    2.94000006
   17.77111053  133.24699402    0.92000002    2.93000007
   17.77333260  139.28399658    0.92000002    2.93000007
   17.77638817  136.47700500    0.88000000    2.94000006
   17.77972221  136.76699829    0.88000000    2.94000006
   17.78277779  122.49400330    0.86000001    2.93000007
   17.78610992  134.94799805    0.86000001    2.94000006
   17.78944397  137.05200195    0.86000001    2.94000006
   17.79249954  135.71099854    0.86000001    2.94000006
   17.79583359  128.99800110    0.86000001    2.94000006
   17.80194283  128.99800110    0.83999997    2.94000006
   17.80611038  130.24400330    0.81999999    2.94000006
   17.80916595  135.90100098    0.81999999    2.94000006
   17.81250000  132.90199280    0.81999999    2.94000006
   17.81555557  135.31100464    0.81999999    2.94000006
   17.81888962  131.62500000    0.83999997    2.94000006
   17.82222366  133.57000732    0.83999997    2.94000006
   17.82527924  138.84199524    0.83999997    2.94000006
   17.82861137  121.65299988    0.83999997    2.93000007
   17.83194542  137.73699951    0.83999997    2.93000007
   17.83500099  133.30400085    0.83999997    2.93000007
   17.83777809  133.75399780    0.83999997    2.94000006
   17.83889008  130.29400635    0.83999997    2.94000006
   17.84472275  130.29400635    0.83999997    2.94000006
   17.84889030  130.06300354    0.86000001    2.93000007
   17.85194397  132.33700562    0.86000001    2.94000006
   17.85527802  130.06100464    0.86000001    2.94000006
   17.85861206  130.36999512    0.86000001    2.94000006
   17.86166763  130.47599792    0.88000000    2.93000007
   17.86499977  126.36100006    0.92000002    2.93000007
   17.86805534  129.39799500    0.92000002    2.93000007
   17.87111092  129.85299683    0.92000002    2.94000006
   17.87194443  127.78800201    0.92000002    2.94000006
   17.87500000  133.07099915    0.94000000    2.93000007
   17.87833405  134.47399902    0.92000002    2.94000006
   17.88166618  131.62300110    0.94000000    2.93000007
   17.88750076  131.62300110    0.94000000    2.93000007
   17.89166641  136.96499634    0.94000000    2.93000007
   17.89500046  136.42399597    0.94000000    2.93000007
   17.89805603  139.60400391    0.94000000    2.93000007
   17.90138817  144.94599915    0.94000000    2.93000007
   17.90444374  138.30700684    0.94000000    2.93000007
   17.90499878  129.37500000    0.94000000    2.93000007
   17.90805435  161.80499268    0.94000000    2.93000007
   17.91138840  139.96099854    0.92000002    2.93000007
   17.91444397  137.38999939    0.92000002    2.93000007
   17.91777802  126.50000000    0.94000000    2.93000007
   17.92111015  133.15499878    0.94000000    2.93000007
   17.92416573  123.86399841    0.92000002    2.93000007
   17.93027687  123.86399841    0.94000000    2.93000007
   17.93444443  139.68800354    0.94000000    2.94000006
   17.93777657  138.43499756    0.94000000    2.93000007
   17.93833160  137.99699402    0.94000000    2.93000007
   17.94138718  134.21099854    0.94000000    2.93000007
   17.94472122  142.81300354    0.94000000    2.93000007
   17.94805527  137.75999451    0.94000000    2.93000007
   17.95111275  136.13400269    0.94000000    2.93000007
   17.95444489  133.92700195    0.95999998    2.94000006
   17.95777893  125.36699677    0.95999998    2.93000007
   17.96083450  117.50700378    0.95999998    2.93000007
   17.96416664  135.57800293    0.94000000    2.94000006
   17.96722221  122.79000092    0.95999998    2.93000007
   17.97333336  122.79000092    0.94000000    2.94000006
   17.97722244  130.29600525    0.94000000    2.93000007
   17.98055649  136.28799438    0.94000000    2.93000007
   17.98388863  131.95500183    0.94000000    2.93000007
   17.98694420  131.76699829    0.94000000    2.93000007
   17.99027824  122.91500092    0.95999998    2.93000007
   17.99361229  135.25100708    0.95999998    2.93000007
   17.99694443  131.96899414    0.98000002    2.93000007
   18.00000000  124.00800323    0.98000002    2.93000007
   18.00333405  128.91099548    0.98000002    2.93000007
   18.00444412  137.96200562    0.98000002    2.93000007
   18.00694466  129.79100037    0.98000002    2.93000007
   18.01000023  125.90699768    1.00000000    2.93000007
   18.01611137  125.90699768    1.00000000    2.93000007
   18.02027702  124.64600372    1.00000000    2.93000007
   18.02333260  140.12500000    0.98000002    2.93000007
   18.02666664  134.35499573    0.98000002    2.93000007
   18.03000069  130.11000061    0.98000002    2.93000007
   18.03305435  132.14999390    0.98000002    2.93000007
   18.03638840  136.99299622    0.98000002    2.93000007
   18.03777695  133.82499695    0.98000002    2.93000007
   18.03999901  135.21299744    1.00000000    2.93000007
   18.04305458  135.72399902    1.00000000    2.93000007
   18.04638863  127.49900055    0.98000002    2.93000007
   18.04972076  125.36799622    0.98000002    2.93000007
   18.05277634  128.43299866    1.00000000    2.93000007
   18.05888748  128.43299866    1.01999998    2.93000007
   18.06305504  128.31900024    1.03999996    2.93000007
   18.06638718  124.22599792    1.03999996    2.93000007
   18.06944466  128.15299988    1.03999996    2.93000007
   18.07139015  133.23899841    1.01999998    2.91000009
   18.07305717  130.18400574    1.01999998    2.91000009
   18.07638931  127.26499939    1.01999998    2.91000009
   18.07972336  131.01300049    1.01999998    2.93000007
   18.08277893  125.01599884    1.01999998    2.93000007
   18.08611107  130.43299866    1.01999998    2.93000007
   18.08944511  132.91099548    1.00000000    2.93000007
   18.09250069  130.31799316    1.00000000    2.93000007
   18.09583473  130.84700012    1.00000000    2.93000007
   18.10166740  130.84700012    1.01999998    2.93000007
   18.10583305  130.57400513    0.98000002    2.93000007
   18.10916710  121.71900177    1.00000000    2.93000007
   18.11250114  121.26499939    0.98000002    2.93000007
   18.11555672  125.44499969    1.00000000    2.93000007
   18.11888885  116.98300171    1.00000000    2.93000007
   18.12194443  130.50500488    1.00000000    2.93000007
   18.12527847  123.22599792    1.01999998    2.93000007
   18.12861061  122.80200195    1.01999998    2.93000007
   18.13166618  122.91600037    1.01999998    2.93000007
   18.13500023  131.85299683    1.03999996    2.91000009
   18.13805580  131.98699951    1.01999998    2.93000007
   18.13861084  124.54100037    1.01999998    2.93000007
   18.14472198  124.54100037    1.01999998    2.93000007
   18.14888954  134.01499939    1.03999996    2.93000007
   18.15194321  133.27099609    1.01999998    2.93000007
   18.15527725  131.68899536    1.01999998    2.93000007
   18.15833282  129.82299805    1.01999998    2.93000007
   18.16166687  126.98899841    1.01999998    2.93000007
   18.16499901  135.74499512    1.03999996    2.93000007
   18.16805458  130.48599243    1.03999996    2.93000007
   18.17138863  136.81399536    1.00000000    2.93000007
   18.17166519  129.99899292    1.00000000    2.93000007
   18.17499924  124.30999756    0.98000002    2.93000007
   18.17833328  128.50700378    0.98000002    2.93000007
   18.18138885  118.72899628    0.98000002    2.93000007
   18.18750000  118.72899628    0.98000002    2.94000006
   18.19166565  129.33200073    1.00000000    2.93000007
   18.19472122  140.78100586    0.98000002    2.91000009
   18.19805527  140.33500671    0.98000002    2.93000007
   18.20138931  126.26999664    0.98000002    2.93000007
   18.20444489  127.41899872    0.98000002    2.91000009
   18.20499992  133.25100708    0.98000002    2.91000009
   18.20833397  126.00599670    0.95999998    2.93000007
   18.21166801  123.05200195    0.94000000    2.93000007
   18.21472359  125.22100067    0.95999998    2.94000006
   18.21805573  132.57800293    0.94000000    2.93000007
   18.22138977  126.96199799    0.94000000    2.93000007
   18.22444534  119.36499786    0.94000000    2.93000007
   18.23027802  119.36499786    0.92000002    2.94000006
   18.23444557  116.24700165    0.92000002    2.93000007
   18.23777771  114.33000183    0.92000002    2.93000007
   18.23833275  129.01400757    0.92000002    2.93000007
   18.24138832  118.76300049    0.92000002    2.93000007
   18.24472237  129.09399414    0.92000002    2.93000007
   18.24777794  120.84300232    0.92000002    2.93000007
   18.25111198  120.24500275    0.92000002    2.93000007
   18.25416756  120.22100067    0.92000002    2.93000007
   18.25749969  121.75499725    0.92000002    2.93000007
   18.26083374  130.58900452    0.92000002    2.91000009
   18.26388931  122.70600128    0.92000002    2.93000007
   18.26722145  123.59100342    0.89999998    2.93000007
   18.27305603  123.59100342    0.92000002    2.93000007
   18.27722168  124.15599823    0.92000002    2.93000007
   18.28055573  118.34200287    0.92000002    2.93000007
   18.28361130  119.06400299    0.92000002    2.93000007
   18.28694344  132.18600464    0.92000002    2.93000007
   18.29027748  125.70800018    0.95999998    2.93000007
   18.29333305  131.58700562    0.94000000    2.94000006
   18.29666710  128.23599243    0.94000000    2.94000006
   18.29999924  120.01899719    0.95999998    2.93000007
   18.30305481  126.20500183    0.95999998    2.93000007
   18.30499840  122.77400208    0.95999998    2.93000007
   18.30666542  125.05799866    0.95999998    2.93000007
   18.30999947  122.76499939    0.95999998    2.91000009
   18.31611061  122.76499939    0.95999998    2.93000007
   18.32000160  120.05899811    0.95999998    2.93000007
   18.32333374  123.96399689    0.95999998    2.93000007
   18.32666779  122.30999756    0.95999998    2.93000007
   18.32972336  122.47599792    0.95999998    2.93000007
   18.33305550  122.50599670    0.98000002    2.93000007
   18.33638954  122.29799652    0.98000002    2.93000007
   18.33833313  117.84999847    0.98000002    2.93000007
   18.34000015  122.11000061    0.98000002    2.93000007
   18.34333420  131.27799988    0.98000002    2.91000009
   18.34638977  136.41600037    0.98000002    2.93000007
   18.34972191  126.35399628    1.00000000    2.91000009
   18.35305595  128.21800232    1.00000000    2.93000007
   18.35888863  128.21800232    1.00000000    2.93000007
   18.36305618  120.03199768    1.01999998    2.91000009
   18.36611176  126.13700104    1.01999998    2.93000007
   18.36944389  134.68200684    1.03999996    2.93000007
   18.38638878  139.53700256    1.03999996    2.91000009
   18.38944435  129.15400696    1.03999996    2.93000007
   18.39277840  125.91100311    1.03999996    2.91000009
   18.39583397  118.98699951    1.03999996    2.91000009
   18.40194321  118.98699951    1.01999998    2.91000009
   18.40611076  131.32699585    1.01999998    2.91000009
   18.40916634  124.76300049    1.03999996    2.91000009
   18.41250038  124.36599731    1.03999996    2.91000009
   18.41583252  129.92199707    1.03999996    2.91000009
   18.41888809  131.24499512    1.03999996    2.91000009
   18.41972160  120.08100128    1.03999996    2.91000009
   18.42277718  137.15699768    1.05999994    2.91000009
   18.42583275  129.36099243    1.03999996    2.93000007
   18.42916679  127.85700226    1.03999996    2.93000007
   18.43222237  131.54299927    1.03999996    2.93000007
   18.43555450  132.34199524    1.05999994    2.91000009
   18.43888855  127.41600037    1.05999994    2.91000009
   18.44472122  127.41600037    1.05999994    2.91000009
   18.44888878  138.46800232    1.05999994    2.91000009
   18.45222282  128.09899902    1.05999994    2.91000009
   18.45305634  140.44000244    1.05999994    2.91000009
   18.45583344  136.81900024    1.05999994    2.93000007
   18.45888901  134.40199280    1.05999994    2.91000009
   18.46222305  126.54799652    1.05999994    2.91000009
   18.46527863  127.74600220    1.05999994    2.91000009
   18.46861076  137.95500183    1.05999994    2.91000009
   18.47194481  123.91999817    1.07000005    2.91000009
   18.47500038  129.01600647    1.07000005    2.91000009
   18.47833443  136.41099548    1.07000005    2.91000009
   18.48166656  126.61499786    1.07000005    2.91000009
   18.48750114  126.61499786    1.09000003    2.91000009
   18.49166679  126.42600250    1.07000005    2.91000009
   18.49500084  135.52400208    1.07000005    2.91000009
   18.49805641  126.94899750    1.07000005    2.91000009
   18.50138855  131.32699585    1.09000003    2.91000009
   18.50472260  126.37200165    1.09000003    2.91000009
   18.50777817  134.74499512    1.09000003    2.91000009
   18.51111031  128.06599426    1.09000003    2.91000009
   18.51444435  129.14799500    1.11000001    2.93000007
   18.51749992  129.44299316    1.09000003    2.91000009
   18.51972198  135.34399414    1.09000003    2.91000009
   18.52138901  135.14500427    1.09000003    2.91000009
   18.52444458  133.38200378    1.09000003    2.91000009
   18.53055573  133.38200378    1.09000003    2.91000009
   18.53444481  129.44799805    1.09000003    2.91000009
   18.53777695  130.40299988    1.09000003    2.91000009
   18.54111099  134.81100464    1.07000005    2.91000009
   18.54416656  133.50100708    1.07000005    2.91000009
   18.54749870  128.07299805    1.07000005    2.89000010
   18.55083275  126.55500031    1.07000005    2.89000010
   18.55305481  126.67400360    1.07000005    2.91000009
   18.55444336  138.16299438    1.07000005    2.91000009
   18.55749893  125.60199738    1.05999994    2.89000010
   18.56083298  131.11099243    1.05999994    2.89000010
   18.56388855  135.14399719    1.05999994    2.91000009
   18.56722260  128.59399414    1.03999996    2.91000009
   18.57333374  128.59399414    1.05999994    2.91000009
   18.57750130  129.05499268    1.05999994    2.91000009
   18.58055687  125.87200165    1.05999994    2.91000009
   18.58388901  129.18699646    1.05999994    2.91000009
   18.58638954  125.33599854    1.05999994    2.91000009
   18.58750153  127.20300293    1.05999994    2.91000009
   18.59055710  132.54299927    1.05999994    2.91000009
   18.59388924  116.91200256    1.07000005    2.91000009
   18.59722328  125.54599762    1.07000005    2.91000009
   18.60027885  123.30100250    1.07000005    2.91000009
   18.60361099  120.84100342    1.07000005    2.89000010
   18.60694504  136.56500244    1.05999994    2.91000009
   18.61000061  144.11799622    1.03999996    2.93000007
   18.61611176  144.11799622    1.03999996    2.93000007
   18.62027740  130.07499695    1.05999994    2.91000009
   18.62361145  126.24600220    1.05999994    2.91000009
   18.62666702  125.11699677    1.05999994    2.91000009
   18.63000107  130.22000122    1.05999994    2.91000009
   18.63333321  118.34999847    1.05999994    2.91000009
   18.63638878  134.12800598    1.05999994    2.91000009
   18.63972282  120.46800232    1.05999994    2.91000009
   18.64305496  135.27499390    1.05999994    2.91000009
   18.64611053  122.64600372    1.05999994    2.91000009
   18.64944458  125.76799774    1.05999994    2.91000009
   18.65250015  119.94200134    1.05999994    2.91000009
   18.65305519  121.88200378    1.05999994    2.91000009
   18.65888786  121.88200378    1.07000005    2.91000009
   18.66305542  133.03999329    1.07000005    2.91000009
   18.66638756  133.68400574    1.07000005    2.89000010
   18.66944313  129.99600220    1.03999996    2.91000009
   18.67277718  132.14500427    1.03999996    2.91000009
   18.67611122  121.85900116    1.03999996    2.91000009
   18.67916679  123.23000336    1.03999996    2.89000010
   18.68249893  125.00599670    1.03999996    2.91000009
   18.68583298  127.94100189    1.05999994    2.93000007
   18.68666649  125.59500122    1.03999996    2.91000009
   18.68916512  129.82299805    1.03999996    2.91000009
   18.69249916  130.38499451    1.03999996    2.91000009
   18.69555473  118.25299835    1.05999994    2.91000009
   18.70194435  118.25299835    1.05999994    2.91000009
   18.70611191  120.26599884    1.05999994    2.91000009
   18.70916748  126.44899750    1.07000005    2.91000009
   18.71250153  135.52400208    1.07000005    2.91000009
   18.71555710  123.17299652    1.07000005    2.91000009
   18.71888924  127.58499908    1.07000005    2.91000009
   18.72000122  117.33200073    1.07000005    2.91000009
   18.72249985  119.57299805    1.07000005    2.91000009
   18.72583389  139.86500549    1.07000005    2.89000010
   18.72888947  111.06900024    1.09000003    2.91000009
   18.73222351  131.01199341    1.09000003    2.91000009
   18.73555565  122.80999756    1.09000003    2.89000010
   18.73861122  126.12100220    1.11000001    2.91000009
   18.74472237  126.12100220    1.11000001    2.89000010
   18.74888992  117.62000275    1.13000000    2.91000009
   18.75194359  128.61599731    1.11000001    2.89000010
   18.75333405  126.99700165    1.13000000    2.91000009
   18.75555611  130.72099304    1.13000000    2.91000009
   18.75888824  130.24400330    1.13000000    2.89000010
   18.76194382  116.85299683    1.14999998    2.89000010
   18.76527786  124.76499939    1.14999998    2.89000010
   18.76861000  125.84200287    1.14999998    2.89000010
   18.77166557  124.36199951    1.13000000    2.89000010
   18.77499962  130.36999512    1.13000000    2.91000009
   18.77833366  126.12599945    1.13000000    2.89000010
   18.78138924  120.23799896    1.14999998    2.89000010
   18.78750038  120.23799896    1.14999998    2.91000009
   18.79166603  138.86700439    1.11000001    2.89000010
   18.79500008  127.51799774    1.11000001    2.89000010
   18.79805565  121.45300293    1.13000000    2.89000010
   18.80138779  124.01200104    1.14999998    2.89000010
   18.80444336  129.81900024    1.14999998    2.91000009
   18.80777740  140.01100159    1.14999998    2.91000009
   18.81110954  139.83799744    1.23000002    2.89000010
   18.81416512  124.99900055    1.25000000    2.89000010
   18.81750107  132.95700073    1.25000000    2.89000010
   18.82000160  132.52200317    1.25000000    2.89000010
   18.82111168  135.84800720    1.25000000    2.89000010
   18.82444572  124.00399780    1.25000000    2.89000010
   18.83027840  124.00399780    1.26999998    2.89000010
   18.83444595  130.56399536    1.26999998    2.89000010
   18.83777809  135.43299866    1.26999998    2.89000010
   18.84083366  128.37899780    1.26999998    2.86999989
   18.84416771  127.42299652    1.26999998    2.86999989
   18.84749985  132.12699890    1.26999998    2.86999989
   18.85055542  126.33999634    1.26999998    2.86999989
   18.85333443  131.61900330    1.26999998    2.86999989
   18.85416794  126.78399658    1.26999998    2.89000010
   18.85750008  125.02400208    1.26999998    2.89000010
   18.86055565  135.26300049    1.26999998    2.89000010
   18.86388969  138.84300232    1.26999998    2.86999989
   18.86722183  128.19799805    1.28999996    2.86999989
   18.87333298  128.19799805    1.28999996    2.89000010
   18.87722206  124.96499634    1.28999996    2.86999989
   18.88055611  128.83399963    1.28999996    2.86999989
   18.88388824  144.07899475    1.28999996    2.86999989
   18.88666725  135.63499451    1.30999994    2.86999989
   18.88750076  130.51300049    1.30999994    2.86999989
   18.89083290  138.52900696    1.30999994    2.89000010
   18.89416695  128.60800171    1.30999994    2.86999989
   18.89722252  135.02499390    1.30999994    2.86999989
   18.90055466  131.60499573    1.33000004    2.89000010
   18.90361023  130.95599365    1.33000004    2.86999989
   18.90694427  133.64799500    1.33000004    2.89000010
   18.91027832  135.39100647    1.34000003    2.89000010
   18.91611099  135.39100647    1.34000003    2.86999989
   18.92027664  137.17999268    1.34000003    2.89000010
   18.92333221  176.14999390    1.34000003    2.89000010
   18.92666626  161.95500183    1.33000004    2.86999989
   18.93000031  183.01499939    1.33000004    2.86999989
   18.93305397  177.16799927    1.33000004    2.89000010
   18.93638802  163.55299377    1.33000004    2.86999989
   18.93972206  212.92100525    1.30999994    2.89000010
   18.94277763  175.11500549    1.30999994    2.86999989
   18.94610977  189.23399353    1.30999994    2.89000010
   18.94916534  161.65400696    1.30999994    2.89000010
   18.95250130  160.54899597    1.30999994    2.89000010
   18.95333481  163.26899719    1.30999994    2.89000010
   18.95888901  163.26899719    1.30999994    2.86999989
   18.96305656  169.48699951    1.30999994    2.86999989
   18.96638870  168.11999512    1.30999994    2.86999989
   18.96944427  163.60000610    1.28999996    2.86999989
   18.97277832  162.42799377    1.30999994    2.84999990
   18.97583389  169.24200439    1.33000004    2.86999989
   18.97916794  167.66400146    1.34000003    2.86999989
   18.98250008  152.11700439    1.33000004    2.84999990
   18.98555565  171.08399963    1.34000003    2.86999989
   18.98666763  155.10299683    1.34000003    2.86999989
   18.98916626  152.59100342    1.33000004    2.86999989
   18.99250031  149.86399841    1.34000003    2.84999990
   18.99583435  149.15800476    1.34000003    2.86999989
   19.00166702  149.15800476    1.30999994    2.86999989
   19.00583267  133.34800720    1.30999994    2.86999989
   19.00916672  153.50300598    1.28999996    2.86999989
   19.01222229  145.82099915    1.28999996    2.86999989
   19.01555634  155.19099426    1.30999994    2.86999989
   19.01888847  154.77799988    1.28999996    2.86999989
   19.02000046  145.97099304    1.28999996    2.86999989
   19.02222252  142.76199341    1.28999996    2.89000010
   19.02555466  139.17999268    1.28999996    2.86999989
   19.02888870  150.24899292    1.28999996    2.86999989
   19.03194427  141.45599365    1.28999996    2.86999989
   19.03527641  143.69099426    1.28999996    2.86999989
   19.03833199  138.54499817    1.28999996    2.89000010
   19.04472160  138.54499817    1.30999994    2.89000010
   19.04888916  148.22099304    1.30999994    2.86999989
   19.05194283  157.62600708    1.28999996    2.86999989
   19.05333328  153.69200134    1.30999994    2.86999989
   19.05555534  154.67700195    1.30999994    2.86999989
   19.05888748  156.97799683    1.28999996    2.86999989
   19.06222153  140.92599487    1.28999996    2.86999989
   19.06527710  151.33299255    1.33000004    2.86999989
   19.06861115  148.23500061    1.34000003    2.86999989
   19.07166672  143.26400757    1.38000000    2.84999990
   19.07500076  137.81900024    1.55999994    2.84999990
   19.07833481  143.54499817    1.89999998    2.86999989
   19.08139038  133.76699829    2.39000010    2.84999990
   19.08750153  133.76699829    3.14000010    2.86999989
   19.09166718  137.60800171    3.70000005    2.86999989
   19.09472275  137.91200256    4.71999979    2.86999989
   19.09805679  137.17100525    4.90999985    2.84999990
   19.10138893  133.12800598    4.90999985    2.84999990
   19.10444450  128.34199524    4.90999985    2.86999989
   19.10777855  133.72599792    4.90999985    2.86999989
   19.11083412  144.00500488    4.90999985    2.86999989
   19.11416626  142.53900146    4.90999985    2.86999989
   19.11750031  145.31399536    4.90999985    2.84999990
   19.12000084  156.17199707    4.90999985    2.84999990
   19.12083435  144.65499878    4.90999985    2.84999990
   19.12416649  147.00399780    4.90999985    2.84999990
   19.13027763  147.00399780    4.90999985    2.84999990
   19.13444519  132.45199585    4.90999985    2.86999989
   19.13777733  150.08299255    4.90999985    2.86999989
   19.14083290  144.92300415    4.90999985    2.86999989
   19.14416695  133.07899475    4.90999985    2.86999989
   19.14722252  133.80799866    4.90999985    2.86999989
   19.15055466  136.49000549    4.90999985    2.86999989
   19.15333366  139.93099976    4.90999985    2.89000010
   19.15416718  164.69400024    4.90999985    2.53999996
   19.15749931  142.50100708    4.90999985    2.89000010
   19.16083336  147.05700684    4.90999985    2.86999989
   19.16388893  149.20700073    4.90999985    2.91000009
   19.16722107  126.99500275    4.90999985    2.73000002
   19.17305565  126.99500275    4.90999985    2.28999996
   19.17722130  133.00199890    4.90999985    2.93000007
   19.18055534  149.77000427    4.90999985    2.94000006
   19.18361092  155.02000427    4.90999985    2.94000006
   19.18666649  136.10899353    4.90999985    2.91000009
   19.18722153  160.54400635    4.90999985    2.91000009
   19.19055557  133.63699341    4.90999985    2.89000010
   19.19388771  134.07699585    4.90999985    2.93000007
   19.19694328  140.12500000    4.90999985    2.93000007
   19.20027924  133.20899963    4.90999985    2.91000009
   19.20333481  146.29800415    4.90999985    2.91000009
   19.20666695  139.85000610    4.90999985    2.91000009
   19.21000099  149.23899841    4.90999985    2.89000010
   19.21611214  149.23899841    4.90999985    2.86999989
   19.22000122  142.99299622    4.90999985    2.86999989
   19.22333336  130.69799805    4.90999985    2.86999989
   19.22666740  126.26699829    4.90999985    2.89000010
   19.22972298  137.86500549    4.90999985    2.89000010
   19.23305511  121.66899872    4.90999985    2.89000010
   19.23638916  143.83299255    4.90999985    2.91000009
   19.23944473  133.94799805    4.90999985    2.93000007
   19.24277878  127.04699707    4.90999985    2.93000007
   19.24583435  131.49600220    4.90999985    2.96000004
   19.24916649  145.83700562    4.90999985    2.96000004
   19.25250053  144.27900696    4.90999985    2.98000002
   19.25333405  134.07200623    4.90999985    2.96000004
   19.25888824  134.07200623    4.90999985    3.00000000
   19.26305580  133.70599365    4.90999985    3.00000000
   19.26611137  128.53500366    4.90999985    3.00000000
   19.26944351  136.17900085    4.90999985    3.00000000
   19.27277756  136.41999817    4.90999985    3.00000000
   19.27583313  137.51800537    4.90999985    3.01999998
   19.27916718  140.28599548    4.61999989    3.01999998
   19.28249931  143.20700073    3.95000005    3.01999998
   19.28555489  143.83000183    3.51999998    3.00000000
   19.28666687  142.83999634    2.78999996    3.00000000
   19.28916550  139.08500671    2.66000009    3.00000000
   19.29249954  138.05499268    1.76999998    3.00000000
   19.29583359  140.58700562    1.34000003    3.01999998
   19.30166626  140.58700562    0.98000002    3.00000000
   19.30583191  122.34300232    0.83999997    3.00000000
   19.30916595  122.64199829    0.79000002    2.98000002
   19.31222153  133.82200623    0.75000000    2.98000002
   19.31555557  120.94899750    0.73000002    2.98000002
   19.31861115  137.66799927    0.70999998    2.96000004
   19.32000160  140.11000061    0.70999998    2.98000002
   19.32222366  143.41999817    0.69000000    2.94000006
   19.32555580  144.10000610    0.67000002    2.93000007
   19.32888985  129.05099487    0.64999998    2.94000006
   19.33194542  137.69000244    0.64999998    2.91000009
   19.33527756  140.03199768    0.63000000    2.89000010
   19.33861160  135.79499817    0.61000001    2.82999992
   19.34444427  135.79499817    0.63000000    2.69000006
   19.34861183  138.81199646    0.58999997    2.55999994
   19.35194397  126.77700043    0.58999997    2.51999998
   19.35333443  142.61000061    0.58999997    2.46000004
   19.35527802  134.99099731    0.61000001    2.26999998
   19.35861206  143.11000061    0.61000001    2.11999989
   19.36194420  142.77600098    0.61000001    2.03999996
   19.36527824  135.21400452    0.58999997    1.75000000
   19.36833382  135.25000000    0.56999999    1.55999994
   19.37166595  136.96299744    0.56999999    1.34000003
   19.37472153  137.99800110    0.55000001    1.19000006
   19.37805557  147.26300049    0.55000001    1.05999994
   19.38138962  139.41600037    0.52999997    0.89999998
   19.40361023  148.64199829    0.51999998    0.70999998
   19.40416718  146.50799561    0.51999998    0.70999998
   19.40749931  137.70100403    0.50000000    0.73000002
   19.41055489  142.73800659    0.50000000    0.75000000
   19.41388893  143.97200012    0.50000000    0.76999998
   19.41694450  140.89799500    0.47999999    0.80000001
   19.42000008  145.30499268    0.47999999    0.81999999
   19.42055511  147.30900574    0.47999999    0.81999999
   19.42388916  151.77000427    0.46000001    0.81999999
   19.43027687  151.77000427    0.46000001    0.81999999
   19.43444443  150.46000671    0.44000000    0.83999997
   19.43750000  153.69999695    0.44000000    0.83999997
   19.44083214  160.98300171    0.44000000    0.81999999
   19.44416618  148.82200623    0.41999999    0.81999999
   19.44722176  157.12800598    0.41999999    0.81999999
   19.45055580  146.30700684    0.41999999    0.81999999
   19.45333481  139.82400513    0.41999999    0.81999999
   19.45416832  142.14900208    0.41999999    0.81999999
   19.45750046  148.39300537    0.41999999    0.81999999
   19.46083450  150.24200439    0.40000001    0.81999999
   19.46389008  138.79899597    0.41999999    0.81999999
   19.46722221  152.91499329    0.40000001    0.81999999
   19.47305679  152.91499329    0.40000001    0.81999999
   19.47722244  140.30700684    0.41999999    0.80000001
   19.48055649  146.54200745    0.40000001    0.80000001
   19.48361206  144.86900330    0.40000001    0.81999999
   19.48666763  138.89399719    0.41999999    0.80000001
   19.48722267  145.95199585    0.41999999    0.81999999
   19.49055672  143.71200562    0.41999999    0.80000001
   19.49388885  146.79499817    0.40000001    0.80000001
   19.49694443  141.42900085    0.41999999    0.80000001
   19.50027847  136.49899292    0.40000001    0.80000001
   19.50361061  136.30799866    0.40000001    0.80000001
   19.50666618  133.58500671    0.40000001    0.80000001
   19.51000023  133.43699646    0.40000001    0.80000001
   19.51583290  133.43699646    0.40000001    0.80000001
   19.52000046  144.25500488    0.38000000    0.80000001
   19.52333260  141.82200623    0.38000000    0.81999999
   19.52666664  136.37899780    0.38000000    0.80000001
   19.52972221  139.46099854    0.38000000    0.80000001
   19.53305435  152.41499329    0.38000000    0.80000001
   19.53610992  129.49499512    0.38000000    0.80000001
   19.53944397  140.69999695    0.36000001    0.80000001
   19.54277802  134.81900024    0.36000001    0.80000001
   19.54583359  137.01199341    0.36000001    0.80000001
   19.54916573  139.83999634    0.36000001    0.80000001
   19.55249977  136.34300232    0.36000001    0.80000001
   19.55333328  146.38099670    0.36000001    0.80000001
   19.55888748  146.38099670    0.36000001    0.80000001
   19.56305504  145.53900146    0.36000001    0.80000001
   19.56611061  163.91700745    0.36000001    0.80000001
   19.56944466  155.61700439    0.34000000    0.80000001
   19.57250023  150.71699524    0.36000001    0.80000001
   19.57583427  159.41299438    0.34000000    0.80000001
   19.57916832  133.71499634    0.34000000    0.80000001
   19.58222389  151.36700439    0.34000000    0.80000001
   19.58555603  149.66299438    0.34000000    0.80000001
   19.58666801  142.33799744    0.34000000    0.80000001
   19.58916664  145.11999512    0.34000000    0.80000001
   19.59222221  151.64300537    0.34000000    0.80000001
   19.59555626  151.63499451    0.34000000    0.80000001
   19.60166740  151.63499451    0.34000000    0.79000002
   19.60583305  143.03300476    0.36000001    0.79000002
   19.60916710  147.56199646    0.34000000    0.79000002
   19.61222267  139.45100403    0.34000000    0.80000001
   19.61555672  143.41299438    0.34000000    0.79000002
   19.61861038  137.01800537    0.34000000    0.79000002
   19.62000084  136.83599854    0.34000000    0.79000002
   19.62249947  133.62100220    0.34000000    0.79000002
   19.62555504  143.31799316    0.36000001    0.79000002
   19.62888908  139.16900635    0.36000001    0.79000002
   19.63222313  138.60299683    0.34000000    0.79000002
   19.63527679  143.46200562    0.36000001    0.79000002
   19.63861084  146.96699524    0.36000001    0.79000002
   19.64444351  146.96699524    0.36000001    0.79000002
   19.64861107  139.43800354    0.38000000    0.79000002
   19.65194321  139.66299438    0.36000001    0.79000002
   19.65333366  143.80299377    0.36000001    0.79000002
   19.65555573  141.93699646    0.36000001    0.79000002
   19.65861130  138.34599304    0.38000000    0.79000002
   19.66194344  148.21800232    0.36000001    0.79000002
   19.66499901  143.13499451    0.36000001    0.79000002
   19.66833305  139.36199951    0.36000001    0.79000002
   19.67166519  137.06700134    0.36000001    0.79000002
   19.67472076  136.80200195    0.36000001    0.79000002
   19.67805481  138.18600464    0.36000001    0.79000002
   19.68138885  138.78599548    0.36000001    0.79000002
   19.68722153  138.78599548    0.36000001    0.79000002
   19.69138718  135.66000366    0.36000001    0.79000002
   19.69472122  141.29600525    0.36000001    0.76999998
   19.69805527  132.64599609    0.38000000    0.79000002
   19.70111275  139.92300415    0.38000000    0.76999998
   19.70444489  126.90000153    0.38000000    0.79000002
   19.70777893  145.30299377    0.38000000    0.79000002
   19.71083450  141.89100647    0.38000000    0.76999998
   19.71416664  145.20899963    0.38000000    0.76999998
   19.71722221  130.54200745    0.38000000    0.76999998
   19.72000122  137.92300415    0.38000000    0.76999998
   19.72111130  128.54499817    0.38000000    0.76999998
   19.72416687  135.50100708    0.40000001    0.76999998
   19.73027802  135.50100708    0.40000001    0.76999998
   19.73444557  123.95999908    0.40000001    0.76999998
   19.73750114  122.50599670    0.40000001    0.76999998
   19.74083328  136.63099670    0.38000000    0.76999998
   19.74388885  125.27500153    0.38000000    0.76999998
   19.74722290  128.05000305    0.38000000    0.76999998
   19.75055504  145.74699402    0.38000000    0.76999998
   19.75333405  136.17500305    0.38000000    0.76999998
   19.75416756  132.67700195    0.38000000    0.76999998
   19.75722313  142.97799683    0.38000000    0.76999998
   19.76055527  139.93099976    0.38000000    0.76999998
   19.76361084  140.90899658    0.36000001    0.76999998
   19.76694489  136.02000427    0.38000000    0.76999998
   19.77305603  136.02000427    0.36000001    0.76999998
   19.77722168  131.81599426    0.36000001    0.76999998
   19.78027725  133.26499939    0.36000001    0.76999998
   19.78361130  140.63699341    0.38000000    0.76999998
   19.78666687  138.38600159    0.38000000    0.76999998
   19.78750038  130.51800537    0.38000000    0.76999998
   19.79055595  136.05099487    0.38000000    0.76999998
   19.79388809  134.96499634    0.36000001    0.76999998
   19.79694366  132.38600159    0.38000000    0.76999998
   19.80027771  139.87100220    0.36000001    0.76999998
   19.80360985  145.41700745    0.36000001    0.76999998
   19.80666542  136.10099792    0.36000001    0.76999998
   19.80999947  138.63000488    0.38000000    0.76999998
   19.81583214  138.63000488    0.38000000    0.76999998
   19.82000160  122.58100128    0.36000001    0.76999998
   19.82333374  142.56199646    0.36000001    0.76999998
   19.82638931  133.08200073    0.36000001    0.76999998
   19.82972336  136.22900391    0.36000001    0.76999998
   19.83305550  139.71099854    0.34000000    0.76999998
   19.83611107  137.76699829    0.36000001    0.76999998
   19.83944511  127.04199982    0.34000000    0.76999998
   19.84250069  128.83900452    0.34000000    0.76999998
   19.84583473  125.93699646    0.34000000    0.76999998
   19.84916687  126.45400238    0.34000000    0.76999998
   19.85222244  139.58999634    0.34000000    0.76999998
   19.85333443  140.07499695    0.34000000    0.76999998
   19.85861206  140.07499695    0.34000000    0.76999998
   19.86277771  129.38299561    0.34000000    0.76999998
   19.86611176  122.27700043    0.34000000    0.75000000
   19.86944389  134.19299316    0.34000000    0.76999998
   19.87249947  125.89299774    0.34000000    0.76999998
   19.87583351  130.86999512    0.34000000    0.76999998
   19.87916756  128.69099426    0.34000000    0.76999998
   19.88222313  134.68400574    0.34000000    0.76999998
   19.88555527  130.36900330    0.34000000    0.76999998
   19.88666725  131.00500488    0.34000000    0.75000000
   19.88916588  133.17399597    0.34000000    0.75000000
   19.89222145  136.64700317    0.34000000    0.75000000
   19.89555550  137.86700439    0.34000000    0.75000000
   19.90166664  137.86700439    0.34000000    0.75000000
   19.90583229  132.92500305    0.34000000    0.75000000
   19.90888786  137.04299927    0.34000000    0.75000000
   19.91222191  127.73699951    0.34000000    0.75000000
   19.91527748  130.92599487    0.34000000    0.75000000
   19.91860962  136.86500549    0.34000000    0.75000000
   19.92000008  126.22100067    0.31999999    0.75000000
   19.92222214  130.33700562    0.31999999    0.75000000
   19.92527771  137.00799561    0.31999999    0.75000000
   19.92860985  129.76300049    0.31999999    0.75000000
   19.93194389  120.24500275    0.31999999    0.75000000
   19.93499947  127.98999786    0.34000000    0.75000000
   19.93833160  131.55099487    0.34000000    0.75000000
   19.94444275  131.55099487    0.34000000    0.75000000
   19.94861031  133.03300476    0.31999999    0.75000000
   19.95194435  123.64099884    0.31999999    0.75000000
   19.95333481  130.51600647    0.31999999    0.75000000
   19.95555687  128.95700073    0.31999999    0.75000000
   19.95861244  126.59600067    0.31999999    0.75000000
   19.96194458  126.85700226    0.31999999    0.75000000
   19.96527863  128.50100708    0.31999999    0.75000000
   19.96833420  136.00799561    0.30000001    0.75000000
   19.97166634  132.20799255    0.30000001    0.75000000
   19.97472191  128.65299988    0.31999999    0.75000000
   19.97805595  129.36900330    0.30000001    0.75000000
   19.98139000  134.53500366    0.31999999    0.75000000
   19.98722267  134.53500366    0.30000001    0.75000000
   19.99138832  127.55500031    0.30000001    0.75000000
   19.99472237  133.42999268    0.30000001    0.75000000
   19.99777794  123.01000214    0.30000001    0.75000000
   20.00111198  132.35099792    0.30000001    0.75000000
   20.00444412  136.52099609    0.30000001    0.75000000
   20.00749969  130.73300171    0.30000001    0.75000000
   20.01083374  132.16600037    0.30000001    0.75000000
   20.01416588  132.97799683    0.30000001    0.75000000
   20.01722145  138.31700134    0.30000001    0.75000000
   20.02000046  127.00700378    0.30000001    0.75000000
   20.02111053  127.41000366    0.30000001    0.75000000
   20.02416611  129.58799744    0.30000001    0.75000000
   20.03000069  129.58799744    0.30000001    0.75000000
   20.03416634  126.28600311    0.30000001    0.75000000
   20.03750038  145.90600586    0.30000001    0.73000002
   20.04083252  135.00700378    0.30000001    0.75000000
   20.04388809  132.49800110    0.30000001    0.75000000
   20.04722214  135.58099365    0.30000001    0.75000000
   20.05027771  133.39599609    0.30000001    0.73000002
   20.05333328  140.85699463    0.30000001    0.75000000
   20.05416679  134.53799438    0.30000001    0.73000002
   20.05722237  135.09100342    0.28000000    0.75000000
   20.06055450  136.90199280    0.30000001    0.73000002
   20.06388855  136.31100464    0.30000001    0.73000002
   20.06694603  125.51799774    0.30000001    0.73000002
   20.07305717  125.51799774    0.28000000    0.73000002
   20.07722282  125.31300354    0.30000001    0.75000000
   20.08027840  131.87600708    0.30000001    0.73000002
   20.08361244  131.60099792    0.30000001    0.73000002
   20.08666801  138.33299255    0.30000001    0.75000000
   20.08722305  128.58900452    0.30000001    0.75000000
   20.09027863  138.39500427    0.28000000    0.75000000
   20.09361267  135.14700317    0.30000001    0.73000002
   20.09694481  136.10299683    0.30000001    0.75000000
   20.10000038  134.61700439    0.30000001    0.73000002
   20.10333443  141.89300537    0.30000001    0.73000002
   20.10666656  132.76899719    0.30000001    0.73000002
   20.10972214  136.74099731    0.30000001    0.73000002
   20.11583328  136.74099731    0.30000001    0.73000002
   20.12000084  128.89999390    0.30000001    0.73000002
   20.12055588  127.61199951    0.30000001    0.73000002
   20.12361145  129.17999268    0.30000001    0.73000002
   20.12694550  137.50199890    0.30000001    0.73000002
   20.13027763  140.14199829    0.30000001    0.73000002
   20.13333321  131.58500671    0.30000001    0.73000002
   20.13666725  133.81399536    0.30000001    0.73000002
   20.13999939  132.11399841    0.30000001    0.73000002
   20.14305496  130.47300720    0.30000001    0.73000002
   20.14638901  129.28300476    0.30000001    0.73000002
   20.14944458  137.56399536    0.30000001    0.73000002
   20.15277672  148.10400391    0.30000001    0.73000002
   20.15388870  140.49699402    0.30000001    0.70999998
   20.15861130  140.49699402    0.30000001    0.73000002
   20.16277695  143.55499268    0.30000001    0.73000002
   20.16611099  155.69400024    0.31999999    0.70999998
   20.16916656  137.74200439    0.30000001    0.70999998
   20.17249870  141.86999512    0.31999999    0.70999998
   20.17583275  135.32200623    0.30000001    0.70999998
   20.17888832  142.99200439    0.30000001    0.70999998
   20.18222237  143.69900513    0.31999999    0.70999998
   20.18527603  138.56300354    0.30000001    0.70999998
   20.18722153  142.13400269    0.30000001    0.70999998
   20.18888855  144.28900146    0.30000001    0.70999998
   20.19222069  137.79499817    0.31999999    0.70999998
   20.19555473  139.36799622    0.30000001    0.70999998
   20.20138931  139.36799622    0.30000001    0.70999998
   20.20555687  146.75700378    0.30000001    0.70999998
   20.20888901  140.75199890    0.30000001    0.70999998
   20.21222305  140.63999939    0.30000001    0.70999998
   20.21527863  146.10699463    0.30000001    0.70999998
   20.21861076  132.96299744    0.31999999    0.70999998
   20.22055626  141.75700378    0.30000001    0.70999998
   20.22222328  148.07200623    0.31999999    0.70999998
   20.22555542  145.48399353    0.30000001    0.70999998
   20.22888947  148.18899536    0.31999999    0.70999998
   20.23194504  148.48899841    0.30000001    0.70999998
   20.23527718  139.98199463    0.31999999    0.70999998
   20.23861122  144.74000549    0.31999999    0.70999998
   20.24444389  144.74000549    0.31999999    0.69000000
   20.24861145  144.39100647    0.31999999    0.69000000
   20.25166702  153.60499573    0.31999999    0.69000000
   20.25388908  149.15199280    0.31999999    0.69000000
   20.25527763  150.25500488    0.31999999    0.69000000
   20.25861168  142.37300110    0.31999999    0.69000000
   20.26194382  145.91099548    0.31999999    0.70999998
   20.26499939  144.89700317    0.31999999    0.69000000
   20.26833344  144.05400085    0.30000001    0.69000000
   20.27166557  144.08799744    0.30000001    0.69000000
   20.27472115  148.97200012    0.30000001    0.69000000
   20.27805519  139.27400208    0.30000001    0.69000000
   20.28111076  147.70899963    0.30000001    0.69000000
   20.28722191  147.70899963    0.30000001    0.69000000
   20.29138756  147.67599487    0.30000001    0.69000000
   20.29444313  145.60600281    0.30000001    0.69000000
   20.29777718  139.75100708    0.30000001    0.69000000
   20.30111122  137.90400696    0.30000001    0.69000000
   20.30416679  151.86199951    0.30000001    0.69000000
   20.30749893  147.13600159    0.30000001    0.69000000
   20.31083298  152.91099548    0.30000001    0.69000000
   20.31388855  142.18600464    0.30000001    0.69000000
   20.31722260  144.79899597    0.30000001    0.69000000
   20.32027817  148.93899536    0.28000000    0.69000000
   20.32083511  138.77099609    0.28000000    0.69000000
   20.32416725  145.42799377    0.30000001    0.69000000
   20.33000183  145.42799377    0.30000001    0.67000002
   20.33416748  138.21600342    0.30000001    0.67000002
   20.33750153  137.33900452    0.30000001    0.67000002
   20.34055710  139.30799866    0.30000001    0.67000002
   20.34388924  152.39500427    0.30000001    0.67000002
   20.34722328  147.80900574    0.30000001    0.67000002
   20.35027885  153.11000061    0.30000001    0.67000002
   20.35361099  143.72300720    0.31999999    0.67000002
   20.35416794  140.79100037    0.30000001    0.67000002
   20.35722351  149.98599243    0.30000001    0.67000002
   20.36055565  142.64599609    0.30000001    0.67000002
   20.36361122  151.47399902    0.30000001    0.67000002
   20.36694527  149.48199463    0.30000001    0.67000002
   20.37277794  149.48199463    0.31999999    0.67000002
   20.37694550  144.01800537    0.30000001    0.64999998
   20.38027763  141.79499817    0.30000001    0.67000002
   20.38361168  143.91200256    0.30000001    0.64999998
   20.38666725  138.98500061    0.31999999    0.64999998
   20.38750076  146.81500244    0.30000001    0.64999998
   20.39027786  148.11500549    0.30000001    0.64999998
   20.39361191  145.82800293    0.31999999    0.67000002
   20.39666748  154.45100403    0.30000001    0.64999998
   20.39999962  136.72200012    0.31999999    0.64999998
   20.40333366  155.84700012    0.31999999    0.67000002
   20.42444420  155.84700012    0.30000001    0.64999998
   20.42860985  151.46699524    0.30000001    0.64999998
   20.43166542  145.77400208    0.30000001    0.64999998
   20.43499947  145.97700500    0.30000001    0.64999998
   20.43833160  149.28300476    0.30000001    0.64999998
   20.44138718  145.84800720    0.30000001    0.64999998
   20.44472122  154.80499268    0.30000001    0.63000000
   20.44777679  153.88000488    0.30000001    0.63000000
   20.45111275  135.36300659    0.30000001    0.63000000
   20.45444489  151.30200195    0.30000001    0.63000000
   20.45527840  147.55700684    0.30000001    0.63000000
   20.45777893  150.53799438    0.30000001    0.63000000
   20.46111107  145.46000671    0.30000001    0.63000000
   20.46722221  145.46000671    0.30000001    0.63000000
   20.47138977  151.99600220    0.28000000    0.63000000
   20.47444534  145.91099548    0.28000000    0.63000000
   20.47777748  147.08999634    0.28000000    0.63000000
   20.48083305  141.72900391    0.28000000    0.63000000
   20.48416710  147.38999939    0.28000000    0.63000000
   20.48750114  157.13600159    0.30000001    0.63000000
   20.48861122  155.31599426    0.28000000    0.63000000
   20.49083328  154.38999939    0.28000000    0.63000000
   20.49416733  151.02499390    0.28000000    0.63000000
   20.49749947  151.16400146    0.28000000    0.63000000
   20.50055504  144.16000366    0.30000001    0.63000000
   20.50388908  153.46000671    0.28000000    0.63000000
   20.51000023  153.46000671    0.28000000    0.61000001
   20.51416588  146.14100647    0.28000000    0.63000000
   20.51722145  150.81399536    0.28000000    0.61000001
   20.52055550  151.93800354    0.28000000    0.61000001
   20.52194405  154.42300415    0.28000000    0.61000001
   20.52416611  144.43299866    0.28000000    0.63000000
   20.52750015  154.74000549    0.28000000    0.61000001
   20.53055573  153.74200439    0.28000000    0.61000001
   20.53388786  156.19299316    0.28000000    0.61000001
   20.53722191  149.51100159    0.28000000    0.61000001
   20.54027748  165.10299683    0.28000000    0.61000001
   20.54361153  146.47000122    0.30000001    0.58999997
   20.54722214  148.59899902    0.28000000    0.58999997
   20.55277634  148.59899902    0.28000000    0.56999999
   20.55694389  162.28799438    0.28000000    0.56999999
   20.56027794  157.99800110    0.28000000    0.55000001
   20.56333351  158.56900024    0.28000000    0.55000001
   20.56666756  153.53599548    0.25999999    0.52999997
   20.57000160  143.30400085    0.25999999    0.52999997
   20.57305717  169.39700317    0.25999999    0.52999997
   20.57638931  150.53799438    0.25999999    0.52999997
   20.57944489  148.83999634    0.28000000    0.51999998
   20.58277893  155.50199890    0.28000000    0.51999998
   20.58611107  155.42199707    0.28000000    0.51999998
   20.58889008  160.74899292    0.28000000    0.51999998
   20.58972359  153.70399475    0.28000000    0.50000000
   20.59555626  153.70399475    0.30000001    0.50000000
   20.59972191  152.70300293    0.30000001    0.47999999
   20.60305595  164.84899902    0.28000000    0.46000001
   20.60639000  151.97700500    0.30000001    0.46000001
   20.60944557  154.27999878    0.36000001    0.46000001
   20.61277771  158.54699707    0.80000001    0.47999999
   20.61583328  169.28799438    0.95999998    0.47999999
   20.61916733  155.86099243    1.33000004    0.47999999
   20.62222290  158.19299316    1.39999998    0.46000001
   20.62277794  149.63000488    1.36000001    0.47999999
   20.62611198  155.98399353    1.30999994    0.47999999
   20.62916756  146.74200439    1.33000004    0.47999999
   20.63249969  158.38699341    1.39999998    0.46000001
   20.63861084  158.38699341    1.13000000    0.44000000
   20.64277840  219.86399841    1.03999996    0.40000001
   20.64583397  366.94799805    0.94000000    0.40000001
   20.64916611  393.25399780    1.00000000    0.34000000
   20.65222168   74.19490051    1.07000005    0.31999999
   20.65555573  136.43499756    1.14999998    0.31999999
   20.65611076  241.09899902    1.14999998    0.31999999
   20.65944481   94.75679779    1.16999996    0.31999999
   20.66250038   80.95570374    1.21000004    0.30000001
   20.66583252   -1.00000000    1.25000000    0.28000000
   20.66916656   -1.00000000    1.26999998    0.25999999
   20.67222214   -1.00000000    1.33000004    0.25999999
   20.67555428   -1.00000000    1.33000004    0.25000000
   20.68527603   -1.00000000    1.41999996    0.03000000
   20.68861008   -1.00000000    1.41999996    0.03000000
   20.69222069   -1.00000000    1.41999996    0.03000000
   20.69555473   -1.00000000    1.41999996    0.03000000
   20.69888878   -1.00000000    1.41999996    0.03000000
   20.70194435   -1.00000000    1.41999996    0.03000000
   20.70527840   -1.00000000    1.41999996    0.03000000
   20.70833397   -1.00000000    1.41999996    0.03000000
   20.71166801   -1.00000000    1.41999996    0.03000000
   20.71500015   -1.00000000    1.41999996    0.03000000
   20.71805573   -1.00000000    1.41999996    0.03000000
   20.72833443   -1.00000000    1.41999996    0.03000000
   20.73139000   -1.00000000    1.41999996    0.03000000
   20.73472214   -1.00000000    1.41999996    0.03000000
   20.73805618   -1.00000000    1.41999996    0.03000000
   20.74111176   -1.00000000    1.41999996    0.03000000
   20.74444389   -1.00000000    1.41999996    0.03000000
   20.74749947   -1.00000000    1.41999996    0.03000000
   20.75083351   -1.00000000    1.41999996    0.03000000
   20.75416756   -1.00000000    1.41999996    0.03000000
   20.75749969   -1.00000000    1.41999996    0.03000000
   20.76083374   -1.00000000    1.41999996    0.03000000
   20.77111053   -1.00000000    1.41999996    0.03000000
   20.77444458   -1.00000000    1.41999996    0.03000000
   20.78416634   -1.00000000    0.00000000    0.00000000
   20.78777695   -1.00000000    0.00000000    0.00000000
   20.79111099   -1.00000000    0.00000000    0.00000000
   20.79444313   -1.00000000    0.00000000    0.00000000
   20.79805565   -1.00000000    0.00000000    0.00000000
   20.80138779   -1.00000000    0.00000000    0.00000000
   20.80499840   -1.00000000    0.00000000    0.00000000
   20.80833244   -1.00000000    0.00000000    0.00000000
   20.81694603   -1.00000000    0.00000000    0.00000000
   20.82027817   -1.00000000    0.00000000    0.00000000
   20.82333374   -1.00000000    1.41999996    0.03000000
   20.82611275   -1.00000000    1.41999996    0.03000000
   20.82916832   -1.00000000    1.41999996    0.03000000
   20.83222389   -1.00000000    1.41999996    0.03000000
   20.83527756   -1.00000000    1.41999996    0.03000000
   20.83833313   -1.00000000    1.41999996    0.03000000
   20.84138870   -1.00000000    1.41999996    0.03000000
   20.84444427   -1.00000000    1.41999996    0.03000000
   20.84749985   -1.00000000    1.41999996    0.03000000
   20.85055542   -1.00000000    1.41999996    0.03000000
   20.85861206   -1.00000000    1.41999996    0.03000000
   20.86166763   -1.00000000    1.41999996    0.03000000
   20.86472321   -1.00000000    1.41999996    0.03000000
   20.86777878   -1.00000000    1.41999996    0.03000000
   20.87083435   -1.00000000    1.41999996    0.03000000
   20.87388992   -1.00000000    1.41999996    0.03000000
   20.87694550   -1.00000000    1.41999996    0.03000000
   20.88000107   -1.00000000    1.41999996    0.03000000
   20.88305473   -1.00000000    1.41999996    0.03000000
   20.88611031   -1.00000000    1.41999996    0.03000000
   20.88916588   -1.00000000    1.41999996    0.03000000
   20.89222145   -1.00000000    1.41999996    0.03000000
   20.90138817   -1.00000000    1.41999996    0.03000000
   20.90444374   -1.00000000    1.41999996    0.03000000
   20.90749931   -1.00000000    1.41999996    0.03000000
   20.91055489   -1.00000000    1.41999996    0.03000000
   20.91361046   -1.00000000    1.41999996    0.03000000
   20.91666603   -1.00000000    1.41999996    0.03000000
   20.91972160   -1.00000000    1.41999996    0.03000000
   20.92277718   -1.00000000    1.41999996    0.03000000
   20.92583275   -1.00000000    1.41999996    0.03000000
   20.92888832   -1.00000000    1.41999996    0.03000000
   20.93194389   -1.00000000    1.41999996    0.03000000
   20.93499947   -1.00000000    1.41999996    0.03000000
   20.94416618   -1.00000000    1.41999996    0.03000000
   20.94722176   -1.00000000    1.41999996    0.03000000
   20.95027924   -1.00000000    1.41999996    0.03000000
   20.95333481   -1.00000000    1.41999996    0.03000000
   20.95639038   -1.00000000    1.41999996    0.03000000
   20.95944595   -1.00000000    1.41999996    0.03000000
   20.96250153   -1.00000000    1.41999996    0.03000000
   20.96555710   -1.00000000    1.41999996    0.03000000
   20.96861076   -1.00000000    1.41999996    0.03000000
   20.97166634   -1.00000000    1.41999996    0.03000000
   20.97472191   -1.00000000    1.41999996    0.03000000
   20.97777748   -1.00000000    1.41999996    0.03000000
   20.98694420   -1.00000000    1.41999996    0.03000000
   20.99027824   -1.00000000    1.41999996    0.03000000
   20.99333382   -1.00000000    1.41999996    0.03000000
   20.99638939   -1.00000000    1.41999996    0.03000000
   20.99944496   -1.00000000    1.41999996    0.03000000
   21.00250053   -1.00000000    1.41999996    0.03000000
   21.00555611   -1.00000000    1.41999996    0.03000000
   21.00861168   -1.00000000    1.41999996    0.03000000
   21.01166725   -1.00000000    1.41999996    0.03000000
   21.01472282   -1.00000000    1.41999996    0.03000000
   21.01777840   -1.00000000    1.41999996    0.03000000
   21.02083397   -1.00000000    1.41999996    0.03000000
   21.03000069   -1.00000000    1.41999996    0.03000000
   21.03305435   -1.00000000    1.41999996    0.03000000
   21.03610992   -1.00000000    1.41999996    0.03000000
   21.03916550   -1.00000000    1.41999996    0.03000000
   21.04222107   -1.00000000    1.41999996    0.03000000
   21.04527664   -1.00000000    1.41999996    0.03000000
   21.04833221   -1.00000000    1.41999996    0.03000000
   21.05138779   -1.00000000    1.41999996    0.03000000
   21.05444336   -1.00000000    1.41999996    0.03000000
   21.05749893   -1.00000000    1.41999996    0.03000000
   21.06055450   -1.00000000    1.41999996    0.03000000
   21.06361008   -1.00000000    1.41999996    0.03000000
   21.07277870   -1.00000000    1.41999996    0.03000000
   21.07583427   -1.00000000    1.41999996    0.03000000
   21.07888985   -1.00000000    1.41999996    0.03000000
   21.08194542   -1.00000000    1.41999996    0.03000000
   21.08500099   -1.00000000    1.41999996    0.03000000
   21.08805656   -1.00000000    1.41999996    0.03000000
   21.09111214   -1.00000000    1.41999996    0.03000000
   21.09416771   -1.00000000    1.41999996    0.03000000
   21.09722328   -1.00000000    1.41999996    0.03000000
   21.10027885   -1.00000000    1.41999996    0.03000000
   21.10333443   -1.00000000    1.41999996    0.03000000
   21.10639000   -1.00000000    1.41999996    0.03000000
   21.11555672   -1.00000000    1.41999996    0.03000000
   21.11861038   -1.00000000    1.41999996    0.03000000
   21.12166595   -1.00000000    1.41999996    0.03000000
   21.12472153   -1.00000000    1.41999996    0.03000000
   21.12777710   -1.00000000    1.41999996    0.03000000
   21.13083267   -1.00000000    1.41999996    0.03000000
   21.13388824   -1.00000000    1.41999996    0.03000000
