    HOUR (UT)   FLARE FACTOR    SKY TESTER    SUN TESTER
   13.85555553   -1.00000000   -1.00000000   -1.00000000
   13.89999962  170.60899353    0.92000002    2.59999990
   13.90333271  180.05400085    0.92000002    2.57999992
   13.90666676  174.12699890    0.92000002    2.57999992
   13.90972137  166.43699646    0.92000002    2.59999990
   13.91305542  176.62300110    0.92000002    2.59999990
   13.91638851  177.30400085    0.89999998    2.59999990
   13.92055607  177.30400085    0.92000002    2.59999990
   13.92472267  165.97300720    0.92000002    2.59999990
   13.92777824  158.69799805    0.92000002    2.59999990
   13.93111134  162.95300293    0.94000000    2.59999990
   13.93333340  164.72799683    0.94000000    2.57999992
   13.93472195  163.39700317    0.94000000    2.57999992
   13.93805599  167.43699646    0.92000002    2.59999990
   13.94111156  149.29699707    0.92000002    2.59999990
   13.94444466  165.41000366    0.92000002    2.59999990
   13.94750023  165.97599792    0.92000002    2.59999990
   13.95083332  164.63000488    0.94000000    2.59999990
   13.95416641  157.44500732    0.94000000    2.59999990
   13.95722198  170.72700500    0.94000000    2.59999990
   13.96333313  170.72700500    0.94000000    2.59999990
   13.96749973  162.35200500    0.94000000    2.59999990
   13.97055531  164.96299744    0.94000000    2.59999990
   13.97388840  172.84599304    0.94000000    2.57999992
   13.97722149  162.69799805    0.94000000    2.59999990
   13.98027706  165.12699890    0.94000000    2.59999990
   13.98361111  171.21299744    0.94000000    2.59999990
   13.98694515  164.90400696    0.92000002    2.59999990
   13.99000072  156.16299438    0.92000002    2.59999990
   13.99333382  161.70700073    0.92000002    2.59999990
   13.99666691  163.33599854    0.92000002    2.59999990
   13.99972248  163.97900391    0.92000002    2.59999990
   14.00027752  159.17500305    0.92000002    2.59999990
   14.00611115  159.17500305    0.94000000    2.59999990
   14.01027775  163.35299683    0.92000002    2.61999989
   14.01361084  167.12600708    0.89999998    2.59999990
   14.01666641  173.64700317    0.92000002    2.59999990
   14.01999950  163.62699890    0.89999998    2.59999990
   14.02305508  162.69299316    0.92000002    2.61999989
   14.02638817  162.69900513    0.89999998    2.61999989
   14.02972221  158.48100281    0.92000002    2.61999989
   14.03277779  166.73100281    0.89999998    2.59999990
   14.03361130  169.84700012    0.89999998    2.59999990
   14.03666687  200.91000366    0.92000002    2.59999990
   14.03972244  183.54400635    0.94000000    2.59999990
   14.04305553  182.69900513    0.94000000    2.59999990
   14.04888916  182.69900513    0.94000000    2.59999990
   14.05305576  172.55799866    0.94000000    2.59999990
   14.05638885  188.93600464    0.94000000    2.59999990
   14.05972195  177.01100159    0.95999998    2.59999990
   14.06277752  171.46000671    1.03999996    2.59999990
   14.06611156  167.95399475    1.03999996    2.59999990
   14.06694412  169.56300354    0.98000002    2.59999990
   14.06972218  188.36999512    0.98000002    2.59999990
   14.07305527  162.98899841    1.03999996    2.61999989
   14.07611084  168.83799744    1.05999994    2.59999990
   14.07944393  172.42599487    1.00000000    2.59999990
   14.08249950  165.95199585    0.98000002    2.59999990
   14.08583260  169.50100708    0.95999998    2.61999989
   14.09194374  169.50100708    0.94000000    2.61999989
   14.09611034  169.65600586    0.89999998    2.61999989
   14.09916592  170.10000610    0.88000000    2.61999989
   14.10027790  171.60600281    0.88000000    2.61999989
   14.10277843  182.44000244    0.88000000    2.61999989
   14.10583401  153.95599365    0.86000001    2.61999989
   14.10916710  158.94099426    0.88000000    2.61999989
   14.11250019  165.89399719    0.86000001    2.61999989
   14.11555576  162.24099731    0.86000001    2.61999989
   14.11888885  177.79800415    0.88000000    2.61999989
   14.12222195  163.29600525    0.88000000    2.61999989
   14.12527752  164.67999268    0.88000000    2.61999989
   14.12861156  164.75799561    0.89999998    2.61999989
   14.13472176  164.75799561    0.89999998    2.61999989
   14.13888836  168.79800415    0.89999998    2.61999989
   14.14222240  166.43800354    0.89999998    2.61999989
   14.14527798  170.35499573    0.89999998    2.61999989
   14.14861107  168.78100586    0.89999998    2.61999989
   14.15166664  178.28500366    0.88000000    2.61999989
   14.15499973  181.72999573    0.86000001    2.61999989
   14.15833282  177.80499268    0.89999998    2.61999989
   14.16138840  165.99200439    0.88000000    2.64000010
   14.16472149  165.30599976    0.88000000    2.61999989
   14.16694450  163.15499878    0.88000000    2.61999989
   14.16833401  169.91900635    0.88000000    2.64000010
   14.17138958  172.55400085    0.89999998    2.61999989
   14.17750072  172.55400085    0.88000000    2.61999989
   14.18166733  157.07400513    0.88000000    2.61999989
   14.18472195  153.12399292    0.88000000    2.61999989
   14.18805599  160.96699524    0.83999997    2.61999989
   14.19138908  152.03100586    0.86000001    2.61999989
   14.19444466  151.53300476    0.86000001    2.61999989
   14.19777775  157.82899475    0.86000001    2.61999989
   14.20055580  158.27600098    0.86000001    2.61999989
   14.20138836  150.64900208    0.86000001    2.61999989
   14.20472240  151.78999329    0.86000001    2.61999989
   14.20805550  152.41400146    0.86000001    2.64000010
   14.21111107  156.88900757    0.86000001    2.64000010
   14.21444416  158.18699646    0.88000000    2.64000010
   14.22027779  158.18699646    0.88000000    2.61999989
   14.22444439  143.56799316    0.88000000    2.64000010
   14.22777748  151.95700073    0.88000000    2.64000010
   14.23083305  146.13600159    0.89999998    2.64000010
   14.23361111  138.47099304    0.88000000    2.61999989
   14.23472214  148.41099548    0.88000000    2.64000010
   14.23777771  143.80099487    0.86000001    2.64000010
   14.24111176  149.06799316    0.83999997    2.61999989
   14.24444485  152.44200134    0.81999999    2.61999989
   14.24750042  153.09899902    0.83999997    2.64000010
   14.25083351  152.65299988    0.81999999    2.61999989
   14.25416660  147.11099243    0.81999999    2.64000010
   14.25722218  160.11999512    0.83999997    2.61999989
   14.26305580  160.11999512    0.86000001    2.61999989
   14.26722240  156.77799988    0.88000000    2.64000010
   14.27055550  148.12300110    0.88000000    2.64000010
   14.27388859  154.29600525    0.89999998    2.61999989
   14.27694416  143.32000732    0.89999998    2.61999989
   14.28027725  136.26300049    0.89999998    2.61999989
   14.28361130  139.75300598    0.89999998    2.64000010
   14.28666687  143.92599487    0.88000000    2.64000010
   14.29000092  144.33299255    0.88000000    2.64000010
   14.29333401  144.21200562    0.89999998    2.64000010
   14.29666710  144.65499878    0.89999998    2.61999989
   14.29972267  136.96699524    0.88000000    2.61999989
   14.30027771  136.63600159    0.88000000    2.61999989
   14.30611134  136.63600159    0.86000001    2.64000010
   14.31027794  143.28100586    0.83999997    2.64000010
   14.31333351  149.49200439    0.83999997    2.64000010
   14.31666660  144.31900024    0.83999997    2.64000010
   14.31972218  154.07099915    0.83999997    2.61999989
   14.32305527  149.06799316    0.83999997    2.61999989
   14.32638836  152.91299438    0.86000001    2.64000010
   14.32944393  144.22700500    0.86000001    2.64000010
   14.33277798  144.42999268    0.86000001    2.64000010
   14.33361053  141.45799255    0.86000001    2.64000010
   14.33638859  139.59100342    0.86000001    2.64000010
   14.33944416  151.71099854    0.86000001    2.64000010
   14.34277725  140.27999878    0.98000002    2.64000010
   14.34888840  140.27999878    1.16999996    2.61999989
   14.35305595  153.47200012    1.19000006    2.61999989
   14.35611153  154.36900330    1.16999996    2.61999989
   14.35944462  148.63699341    1.07000005    2.64000010
   14.36277771  138.32800293    1.19000006    2.64000010
   14.36583328  149.46200562    1.19000006    2.64000010
   14.36694431  144.06199646    1.05999994    2.64000010
   14.36944485  141.95300293    1.05999994    2.64000010
   14.37250042  134.58299255    0.98000002    2.64000010
   14.37583351  141.70899963    0.94000000    2.64000010
   14.37916660  144.91799927    0.83999997    2.64000010
   14.38222218  146.45799255    0.83999997    2.64000010
   14.38555527  145.00900269    0.83999997    2.64000010
   14.39166641  145.00900269    0.86000001    2.64000010
   14.39583302  141.29200745    0.88000000    2.64000010
   14.39916611  139.69799805    0.88000000    2.64000010
   14.40027714  139.09700012    0.88000000    2.64000010
   14.40277767  135.03700256    0.88000000    2.64000010
   14.40583324  147.55499268    0.88000000    2.64000010
   14.40916634  141.05099487    0.88000000    2.64000010
   14.41249943  139.29800415    0.88000000    2.64000010
   14.41555500  136.14999390    0.89999998    2.64000010
   14.41888905  133.58599854    0.89999998    2.64000010
   14.42222214  138.99800110    0.89999998    2.64000010
   14.42527771  142.61599731    0.89999998    2.64000010
   14.42861176  136.99000549    0.89999998    2.64000010
   14.43444443  136.99000549    0.89999998    2.64000010
   14.43861103  143.49499512    0.92000002    2.64000010
   14.44194412  146.66200256    0.92000002    2.64000010
   14.44527817  140.76899719    0.89999998    2.64000010
   14.44833374  131.03399658    0.89999998    2.64000010
   14.45166683  137.41999817    0.89999998    2.64000010
   14.45472240  135.41000366    0.89999998    2.64000010
   14.45805550  128.39799500    0.89999998    2.64000010
   14.46138859  138.24499512    0.89999998    2.64000010
   14.46444416  134.81900024    0.92000002    2.64000010
   14.46694374  129.57099915    0.92000002    2.64000010
   14.46833324  132.17399597    0.92000002    2.64000010
   14.47166634  127.56099701    0.94000000    2.64000010
   14.47749996  127.56099701    0.92000002    2.64000010
   14.48166656  136.92599487    0.92000002    2.66000009
   14.48472214  132.22200012    0.92000002    2.64000010
   14.48805618  134.09700012    0.92000002    2.64000010
   14.49111176  124.67700195    0.94000000    2.66000009
   14.49444485  130.90499878    0.94000000    2.64000010
   14.49777794  126.90899658    0.94000000    2.64000010
   14.50027752  132.52499390    0.94000000    2.64000010
   14.50138855  127.67099762    0.94000000    2.64000010
   14.50472260  136.63600159    0.94000000    2.64000010
   14.50777817  129.92999268    0.94000000    2.64000010
   14.51111126  130.14599609    0.95999998    2.66000009
   14.51444435  131.47300720    0.95999998    2.64000010
   14.52027798  131.47300720    0.95999998    2.64000010
   14.52472210  130.46600342    0.98000002    2.66000009
   14.52777767  136.00199890    0.98000002    2.64000010
   14.53111076  127.62100220    0.98000002    2.64000010
   14.53361130  134.25500488    0.98000002    2.66000009
   14.53472233  123.90499878    0.98000002    2.66000009
   14.53805637  130.34300232    0.98000002    2.64000010
   14.54111195  135.47599792    0.98000002    2.64000010
   14.54444504  141.25700378    0.98000002    2.66000009
   14.54777813  143.55099487    1.00000000    2.66000009
   14.55083370  142.57200623    0.98000002    2.66000009
   14.55416679  130.07200623    1.01999998    2.66000009
   14.55722237  139.63299561    1.05999994    2.64000010
   14.56305599  139.63299561    0.98000002    2.66000009
   14.56722260  140.86599731    0.98000002    2.64000010
   14.57055569  120.34500122    0.95999998    2.64000010
   14.57361126  136.48199463    0.95999998    2.64000010
   14.57694435  124.06999969    0.98000002    2.64000010
   14.58027744  123.76399994    0.98000002    2.66000009
   14.58333302  130.26100159    0.98000002    2.66000009
   14.58666611  125.96800232    0.98000002    2.66000009
   14.59000015  133.05000305    0.98000002    2.66000009
   14.59305477  130.28799438    0.98000002    2.66000009
   14.59638882  133.98599243    1.00000000    2.66000009
   14.59972191  129.86999512    0.98000002    2.66000009
   14.60027790  137.07800293    0.98000002    2.66000009
   14.60611153  137.07800293    1.00000000    2.66000009
   14.61000061  128.94700623    0.98000002    2.66000009
   14.61361122  127.67299652    1.00000000    2.64000010
   14.61666679  133.17599487    0.98000002    2.66000009
   14.61999989  121.89399719    0.98000002    2.66000009
   14.62333393  123.79599762    0.98000002    2.66000009
   14.62638855  124.29199982    0.98000002    2.66000009
   14.62972260  128.02799988    0.98000002    2.66000009
   14.63277817  131.00000000    0.95999998    2.66000009
   14.63361073  122.75800323    0.95999998    2.66000009
   14.63638878  117.15000153    0.95999998    2.66000009
   14.63972187  135.40899658    0.95999998    2.66000009
   14.64277744  127.20800018    0.95999998    2.66000009
   14.64888859  127.20800018    0.95999998    2.66000009
   14.65305519  123.87300110    0.94000000    2.66000009
   14.65611076  122.97599792    0.94000000    2.66000009
   14.65944386  121.42700195    0.94000000    2.66000009
   14.66249943  115.45300293    0.92000002    2.66000009
   14.66583252  123.20600128    0.92000002    2.66000009
   14.66694450  115.39199829    0.92000002    2.66000009
   14.66944504  119.77700043    0.92000002    2.66000009
   14.67277813  122.26499939    0.92000002    2.66000009
   14.67583370  126.18000031    0.92000002    2.66000009
   14.67916679  123.22200012    0.92000002    2.66000009
   14.68249989  117.94300079    0.92000002    2.66000009
   14.68555546  121.13700104    0.92000002    2.67000008
   14.69166660  121.13700104    0.92000002    2.66000009
   14.69583321  115.91899872    0.92000002    2.66000009
   14.69888878  120.72899628    0.92000002    2.66000009
   14.70027733  125.66300201    0.92000002    2.66000009
   14.70249939  117.89700317    0.92000002    2.66000009
   14.70583344  115.72399902    0.92000002    2.66000009
   14.70888901  119.15699768    0.94000000    2.66000009
   14.71222210  113.73300171    0.92000002    2.66000009
   14.71555519  117.42900085    0.92000002    2.66000009
   14.71861076  119.92400360    0.89999998    2.66000009
   14.72194386  112.12799835    0.92000002    2.66000009
   14.72527695  108.56300354    0.89999998    2.66000009
   14.72833252  122.87599945    0.89999998    2.66000009
   14.73444462  122.87599945    0.89999998    2.66000009
   14.73861122  116.36699677    0.89999998    2.67000008
   14.74194431  124.31900024    0.92000002    2.66000009
   14.74499989  112.67900085    0.92000002    2.66000009
   14.74833393  121.78500366    0.92000002    2.66000009
   14.75138855  115.91300201    0.92000002    2.66000009
   14.75472260  119.03500366    0.92000002    2.66000009
   14.75805569  116.54799652    0.92000002    2.66000009
   14.76111126  114.88999939    0.92000002    2.66000009
   14.76444435  121.82299805    0.92000002    2.66000009
   14.76694393  124.10600281    0.92000002    2.66000009
   14.76805496  115.87999725    0.92000002    2.66000009
   14.77138901  118.33100128    0.92000002    2.66000009
   14.77722168  118.33100128    0.92000002    2.66000009
   14.78138828  114.38600159    0.92000002    2.66000009
   14.78472233  116.17299652    0.94000000    2.66000009
   14.78777790  118.15699768    0.94000000    2.67000008
   14.79111195  112.43599701    0.94000000    2.67000008
   14.79444504  104.66899872    0.94000000    2.66000009
   14.79750061  115.02700043    0.94000000    2.66000009
   14.80027771  116.41000366    0.94000000    2.66000009
   14.80111122  126.89600372    0.94000000    2.66000009
   14.80444431  112.77899933    0.94000000    2.66000009
   14.80749989  108.61100006    0.94000000    2.66000009
   14.81083393  106.47499847    0.94000000    2.66000009
   14.81388950  109.36199951    0.95999998    2.67000008
   14.82027817  109.36199951    0.95999998    2.67000008
   14.82416630  109.35299683    0.95999998    2.67000008
   14.82750034  107.53299713    0.94000000    2.67000008
   14.83083344  121.71099854    0.94000000    2.66000009
   14.83388901  111.63600159    0.94000000    2.66000009
   14.83472157  108.54499817    0.94000000    2.66000009
   14.83777714  138.50500488    0.94000000    2.67000008
   14.84111118  144.02099609    0.94000000    2.67000008
   14.84416676  129.77000427    0.94000000    2.67000008
   14.84749985  133.49499512    0.92000002    2.66000009
   14.85083389  103.67700195    0.92000002    2.66000009
   14.85388947  121.58200073    0.92000002    2.66000009
   14.85722256  111.86900330    0.89999998    2.69000006
   14.86305618  111.86900330    0.89999998    2.67000008
   14.86722279  119.39700317    0.89999998    2.66000009
   14.87027836  107.91999817    0.89999998    2.67000008
   14.87361145  116.41400146    0.88000000    2.67000008
   14.87694454  108.09300232    0.88000000    2.67000008
   14.88000011  112.57499695    0.88000000    2.67000008
   14.88333321  101.52999878    0.88000000    2.67000008
   14.88638878  106.04599762    0.88000000    2.67000008
   14.89000034  109.52700043    0.88000000    2.67000008
   14.89305496  108.93299866    0.88000000    2.67000008
   14.89638901  106.86699677    0.88000000    2.67000008
   14.89944458  106.58399963    0.86000001    2.67000008
   14.90027714  109.47699738    0.86000001    2.67000008
   14.92111111  109.47699738    0.83999997    2.67000008
   14.92527771  125.45800018    0.83999997    2.69000006
   14.92861176  127.93800354    0.83999997    2.69000006
   14.93166733  124.37000275    0.83999997    2.67000008
   14.93388939  121.97000122    0.83999997    2.67000008
   14.93527794  124.97399902    0.83999997    2.67000008
   14.93861103  134.91000366    0.86000001    2.67000008
   14.94166660  127.19100189    0.83999997    2.67000008
   14.94499969  126.87500000    0.83999997    2.67000008
   14.94833374  125.62899780    0.83999997    2.67000008
   14.95138836  124.99800110    0.83999997    2.67000008
   14.95472240  123.36299896    0.83999997    2.67000008
   14.95805550  120.36699677    0.83999997    2.67000008
   14.96388912  120.36699677    0.86000001    2.67000008
   14.96805477  117.75199890    0.88000000    2.67000008
   14.97111034  129.59700012    0.88000000    2.67000008
   14.97444439  130.23699951    0.88000000    2.67000008
   14.97777748  131.69299316    0.88000000    2.67000008
   14.98083305  129.40800476    0.89999998    2.67000008
   14.98416710  127.03500366    0.88000000    2.67000008
   14.98750019  125.29799652    0.88000000    2.67000008
   14.99055576  129.03599548    0.89999998    2.67000008
   14.99388885  121.40000153    0.89999998    2.69000006
   14.99694443  140.31599426    0.89999998    2.67000008
   15.00027752  118.96199799    0.89999998    2.67000008
   15.00083351  123.81900024    0.89999998    2.67000008
   15.00666714  123.81900024    0.92000002    2.67000008
   15.01083374  124.31600189    0.92000002    2.69000006
   15.01416683  117.85299683    0.92000002    2.69000006
   15.01749992  121.15299988    0.92000002    2.67000008
   15.02083302  119.94999695    0.94000000    2.69000006
   15.02388859  120.96399689    0.89999998    2.67000008
   15.02722168  124.35199738    0.89999998    2.67000008
   15.03055573  117.23300171    0.88000000    2.69000006
   15.03361130  123.89900208    0.88000000    2.69000006
   15.03416729  119.91400146    0.88000000    2.69000006
   15.03722286  121.70500183    0.88000000    2.69000006
   15.04027843  121.64600372    0.86000001    2.69000006
   15.04361153  123.06300354    0.86000001    2.69000006
   15.04972267  123.06300354    0.81999999    2.69000006
   15.05361176  126.09400177    0.81999999    2.69000006
   15.05694485  124.25199890    0.81999999    2.69000006
   15.06027794  120.72799683    0.81999999    2.69000006
   15.06333351  114.26899719    0.80000001    2.69000006
   15.06666660  121.76000214    0.81999999    2.67000008
   15.06750011  118.98699951    0.81999999    2.67000008
   15.07027817  120.93599701    0.80000001    2.67000008
   15.07333374  131.04699707    0.80000001    2.69000006
   15.07666683  118.30500031    0.80000001    2.69000006
   15.07999992  126.28600311    0.79000002    2.67000008
   15.08305550  120.55200195    0.80000001    2.69000006
   15.08638859  121.76300049    0.80000001    2.69000006
   15.09249973  121.76300049    0.79000002    2.69000006
   15.09666634  125.46900177    0.79000002    2.69000006
   15.09972191  115.79100037    0.79000002    2.69000006
   15.10083389  132.77000427    0.79000002    2.69000006
   15.10333347  121.03099823    0.79000002    2.69000006
   15.10638905  125.33200073    0.79000002    2.69000006
   15.10972214  128.93099976    0.79000002    2.69000006
   15.11305618  119.26300049    0.79000002    2.69000006
   15.11611176  119.37400055    0.79000002    2.69000006
   15.11944485  120.44200134    0.86000001    2.69000006
   15.12277794  121.43900299    0.83999997    2.69000006
   15.12583351  123.69799805    0.81999999    2.69000006
   15.12916660  120.94200134    0.83999997    2.69000006
   15.13527775  120.94200134    0.80000001    2.69000006
   15.13944435  115.09400177    0.81999999    2.69000006
   15.14249992  113.32900238    0.80000001    2.69000006
   15.14583302  108.65299988    0.81999999    2.69000006
   15.14916611  112.70700073    0.83999997    2.69000006
   15.15222168  111.79799652    0.81999999    2.69000006
   15.15555477  109.02500153    0.83999997    2.69000006
   15.15888882  112.61499786    0.80000001    2.69000006
   15.16194439  114.64199829    0.80000001    2.69000006
   15.16527748  116.68800354    0.80000001    2.69000006
   15.16750050  116.83499908    0.80000001    2.69000006
   15.16888905  111.92900085    0.76999998    2.71000004
   15.17194462  121.01499939    0.76999998    2.71000004
   15.17805576  121.01499939    0.76999998    2.69000006
   15.18222237  108.02999878    0.76999998    2.69000006
   15.18555546  132.22799683    0.76999998    2.69000006
   15.18861103  115.03500366    0.79000002    2.69000006
   15.19194412  124.64199829    0.79000002    2.69000006
   15.19499969  121.74400330    0.76999998    2.69000006
   15.19833374  122.71099854    0.75000000    2.69000006
   15.20083332  123.95400238    0.76999998    2.71000004
   15.20194435  113.21199799    0.76999998    2.69000006
   15.20499992  115.55500031    0.76999998    2.69000006
   15.20833302  115.31600189    0.76999998    2.69000006
   15.21166611  124.81099701    0.76999998    2.69000006
   15.21472168  117.51399994    0.76999998    2.69000006
   15.22083282  117.51399994    0.76999998    2.69000006
   15.22499943  119.94899750    0.76999998    2.69000006
   15.22833252  129.14199829    0.76999998    2.69000006
   15.23138809  116.91200256    0.76999998    2.69000006
   15.23416710  118.71299744    0.76999998    2.71000004
   15.23527813  122.27799988    0.76999998    2.71000004
   15.23833370  120.22200012    0.76999998    2.69000006
   15.24166679  122.13099670    0.76999998    2.69000006
   15.24499989  133.08700562    0.76999998    2.71000004
   15.24805546  131.42799377    0.76999998    2.69000006
   15.25138855  118.88099670    0.76999998    2.69000006
   15.25472260  135.17399597    0.76999998    2.69000006
   15.25777817  117.79699707    0.79000002    2.71000004
   15.26388931  117.79699707    0.76999998    2.69000006
   15.26805496  116.89800262    0.76999998    2.69000006
   15.27111053  113.60399628    0.76999998    2.69000006
   15.27444458  120.27500153    0.76999998    2.69000006
   15.27750015  120.98300171    0.79000002    2.69000006
   15.28083324  118.80899811    0.79000002    2.69000006
   15.28416729  128.45700073    0.79000002    2.69000006
   15.28722286  123.01899719    0.80000001    2.69000006
   15.39111137   -1.00000000   -1.00000000   -1.00000000
   15.59138870   -1.00000000   -1.00000000   -1.00000000
   15.82111073   -1.00000000   -1.00000000   -1.00000000
   15.85777855   84.35939789    0.81999999    2.71000004
   15.86111164  122.63400269    0.81999999    2.71000004
   15.86416721  120.90899658    0.81999999    2.71000004
   15.86750031  117.57199860    0.81999999    2.71000004
   15.87083340  118.77999878    0.81999999    2.71000004
   15.87388897  124.72599792    0.81999999    2.71000004
   15.87805557  124.72599792    0.80000001    2.71000004
   15.88222218  133.49600220    0.80000001    2.73000002
   15.88555527  128.05999756    0.80000001    2.71000004
   15.88861084  139.76199341    0.80000001    2.71000004
   15.89111137  127.62500000    0.81999999    2.71000004
   15.89249992  123.91200256    0.80000001    2.71000004
   15.89555550  131.37600708    0.80000001    2.71000004
   15.89888859  122.83699799    0.80000001    2.71000004
   15.90222168  120.70899963    0.80000001    2.71000004
   15.90527725  122.52100372    0.80000001    2.71000004
   15.90861034  124.85299683    0.81999999    2.71000004
   15.91166592  126.22200012    0.81999999    2.71000004
   15.91499996  125.14600372    0.81999999    2.71000004
   15.92083359  125.14600372    0.81999999    2.71000004
   15.92500019  124.14600372    0.80000001    2.71000004
   15.92833328  124.19999695    0.80000001    2.71000004
   15.93166733  115.56600189    0.80000001    2.71000004
   15.93472195  118.43499756    0.81999999    2.71000004
   15.93805599  118.68900299    0.81999999    2.71000004
   15.94138908  104.57399750    0.80000001    2.71000004
   15.94444466  114.91400146    0.79000002    2.73000002
   15.94777775  118.17700195    0.79000002    2.71000004
   15.95083332  121.65499878    0.79000002    2.71000004
   15.95416641  114.86799622    0.79000002    2.71000004
   15.96416664  114.86799622    0.00000000    0.00000000
   15.96833324  114.86799622    0.00000000    0.00000000
   15.97277737  114.86799622    0.00000000    0.00000000
   15.97611046  114.86799622    0.00000000    0.00000000
   15.97972202  114.86799622    0.00000000    0.00000000
   15.98305511  114.86799622    0.00000000    0.00000000
   15.98638916  114.86799622    0.00000000    0.00000000
   15.99000072  114.86799622    0.00000000    0.00000000
   15.99333382  114.86799622    0.00000000    0.00000000
   15.99694443  114.86799622    0.00000000    0.00000000
   15.99861145  114.86799622    0.00000000    0.00000000
   16.00027847  114.86799622    0.00000000    0.00000000
   16.00361061  114.86799622    0.00000000    0.00000000
   16.00722313  114.86799622    0.00000000    0.00000000
   16.01083374  114.86799622    0.79000002    2.71000004
   16.01472282  114.86799622    0.79000002    2.71000004
   16.01777840  114.86799622    0.79000002    2.71000004
   16.02083397  114.86799622    0.79000002    2.71000004
   16.02388954  114.86799622    0.79000002    2.71000004
   16.02694511  114.86799622    0.79000002    2.71000004
   16.03000069  114.86799622    0.79000002    2.71000004
   16.03194427  114.86799622    0.79000002    2.71000004
   16.03305435  114.86799622    0.79000002    2.71000004
   16.03610992  114.86799622    0.79000002    2.71000004
   16.03916550  114.86799622    0.79000002    2.71000004
   16.04222107  114.86799622    0.79000002    2.71000004
   16.04527664  114.86799622    0.79000002    2.71000004
   16.04833221  114.86799622    0.79000002    2.71000004
   16.05360985  114.86799622    0.79000002    2.71000004
   16.05749893  114.86799622    0.79000002    2.71000004
   16.06055450  114.86799622    0.79000002    2.71000004
   16.06361008  114.86799622    0.79000002    2.71000004
   16.06555557  114.86799622    0.79000002    2.71000004
   16.06666756  114.86799622    0.79000002    2.71000004
   16.06972313  114.86799622    0.79000002    2.71000004
   16.07277870  114.86799622    0.79000002    2.71000004
   16.07583427  114.86799622    0.79000002    2.71000004
   16.07888985  114.86799622    0.79000002    2.71000004
   16.08194542  114.86799622    0.79000002    2.71000004
   16.08500099  114.86799622    0.79000002    2.71000004
   16.08805656  114.86799622    0.79000002    2.71000004
   16.09111214  114.86799622    0.79000002    2.71000004
   16.09666824  114.86799622    0.79000002    2.71000004
   16.10027885  114.86799622    0.79000002    2.71000004
   16.10333443  114.86799622    0.79000002    2.71000004
   16.10639000  114.86799622    0.79000002    2.71000004
   16.10944557  114.86799622    0.79000002    2.71000004
   16.11250114  114.86799622    0.79000002    2.71000004
   16.11555672  114.86799622    0.79000002    2.71000004
   16.11861038  114.86799622    0.79000002    2.71000004
   16.12166595  114.86799622    0.79000002    2.71000004
   16.12472153  114.86799622    0.79000002    2.71000004
   16.12777710  114.86799622    0.79000002    2.71000004
   16.13083267  114.86799622    0.79000002    2.71000004
   16.13222313  114.86799622    0.79000002    2.71000004
   16.13388824  114.86799622    0.79000002    2.71000004
   16.13944435  114.86799622    0.79000002    2.71000004
   16.14305496  114.86799622    0.79000002    2.71000004
   16.14611053  114.86799622    0.79000002    2.71000004
   16.14916611  114.86799622    0.79000002    2.71000004
   16.15222168  114.86799622    0.79000002    2.71000004
   16.15527725  114.86799622    0.79000002    2.71000004
   16.15833282  114.86799622    0.79000002    2.71000004
   16.16138840  114.86799622    0.79000002    2.71000004
   16.16444397  114.86799622    0.79000002    2.71000004
   16.16555595  114.86799622    0.79000002    2.71000004
   16.16749954  114.86799622    0.79000002    2.71000004
   16.17055511  114.86799622    0.79000002    2.71000004
   16.17361069  114.86799622    0.79000002    2.71000004
   16.17666626  114.86799622    0.79000002    2.71000004
   16.18222237  114.86799622    0.79000002    2.71000004
   16.18583298  114.86799622    0.79000002    2.71000004
   16.18888855  114.86799622    0.79000002    2.71000004
   16.19194412  114.86799622    0.79000002    2.71000004
   16.19499969  114.86799622    0.79000002    2.71000004
   16.19833183  114.86799622    0.79000002    2.71000004
   16.19888878  114.86799622    0.79000002    2.71000004
   16.20138931  114.86799622    0.79000002    2.71000004
   16.20444489  114.86799622    0.79000002    2.71000004
   16.20750046  114.86799622    0.79000002    2.71000004
   16.21055603  114.86799622    0.79000002    2.71000004
   16.21361160  114.86799622    0.79000002    2.71000004
   16.21666718  114.86799622    0.79000002    2.71000004
   16.21972275  114.86799622    0.79000002    2.71000004
   16.22500038  114.86799622    0.79000002    2.71000004
   16.22888947  114.86799622    0.79000002    2.71000004
   16.23194504  114.86799622    0.79000002    2.71000004
   16.23222351  114.86799622    0.79000002    2.71000004
   16.23500061  114.86799622    0.79000002    2.71000004
   16.23805618  114.86799622    0.79000002    2.71000004
   16.24111176  114.86799622    0.79000002    2.71000004
   16.24416733  114.86799622    0.79000002    2.71000004
   16.24722290  114.86799622    0.79000002    2.71000004
   16.25027847  114.86799622    0.79000002    2.71000004
   16.25333405  114.86799622    0.79000002    2.71000004
   16.25638962  114.86799622    0.79000002    2.71000004
   16.25944519  114.86799622    0.79000002    2.71000004
   16.26250076  114.86799622    0.79000002    2.71000004
   16.26805496  114.86799622    0.79000002    2.71000004
   16.27166557  114.86799622    0.79000002    2.71000004
   16.27472115  114.86799622    0.79000002    2.71000004
   16.27777672  114.86799622    0.79000002    2.71000004
   16.28083229  114.86799622    0.79000002    2.71000004
   16.28388786  114.86799622    0.79000002    2.71000004
   16.28694344  114.86799622    0.79000002    2.71000004
   16.28999901  114.86799622    0.79000002    2.71000004
   16.29305458  114.86799622    0.79000002    2.71000004
   16.29611015  114.86799622    0.79000002    2.71000004
   16.29888916  114.86799622    0.79000002    2.71000004
   16.29916573  114.86799622    0.79000002    2.71000004
   16.30222130  114.86799622    0.79000002    2.71000004
   16.30527687  114.86799622    0.79000002    2.71000004
   16.31083298  114.86799622    0.79000002    2.71000004
   16.31444359  114.86799622    0.79000002    2.71000004
   16.31750107  114.86799622    0.79000002    2.71000004
   16.32055664  114.86799622    0.79000002    2.71000004
   16.32361221  114.86799622    0.79000002    2.71000004
   16.32666779  114.86799622    0.79000002    2.71000004
   16.32972336  114.86799622    0.79000002    2.71000004
   16.33222389  114.86799622    0.79000002    2.71000004
   16.33277893  114.86799622    0.79000002    2.71000004
   16.33583450  114.86799622    0.79000002    2.71000004
   16.33889008  114.86799622    0.79000002    2.71000004
   16.34194565  114.86799622    0.79000002    2.71000004
   16.34500122  114.86799622    0.79000002    2.71000004
   16.34805679  114.86799622    0.79000002    2.71000004
   16.35361099  114.86799622    0.79000002    2.71000004
   16.35750008  114.86799622    0.79000002    2.71000004
   16.36055565  114.86799622    0.79000002    2.71000004
   16.36361122  114.86799622    0.79000002    2.71000004
   16.36583328  114.86799622    0.79000002    2.71000004
   16.36666679  114.86799622    0.79000002    2.71000004
   16.36972237  114.86799622    0.79000002    2.71000004
   16.37277794  114.86799622    0.79000002    2.71000004
   16.37583351  114.86799622    0.79000002    2.71000004
   16.37888908  114.86799622    0.79000002    2.71000004
   16.38194466  114.86799622    0.79000002    2.71000004
   16.38500023  114.86799622    0.79000002    2.71000004
   16.38805580  114.86799622    0.79000002    2.71000004
   16.39111137  114.86799622    0.79000002    2.71000004
   16.39638901  114.86799622    0.79000002    2.71000004
   16.40027809  114.86799622    0.79000002    2.71000004
   16.40333366  114.86799622    0.79000002    2.71000004
   16.40638924  114.86799622    0.79000002    2.71000004
   16.40944481  114.86799622    0.79000002    2.71000004
   16.41250038  114.86799622    0.79000002    2.71000004
   16.41555595  114.86799622    0.79000002    2.71000004
   16.41860962  114.86799622    0.79000002    2.71000004
   16.42166519  114.86799622    0.79000002    2.71000004
   16.42472076  114.86799622    0.79000002    2.71000004
   16.42777634  114.86799622    0.79000002    2.71000004
   16.43083191  114.86799622    0.79000002    2.71000004
   16.43249893  114.86799622    0.79000002    2.71000004
   16.43388748  114.86799622    0.79000002    2.71000004
   16.43944359  114.86799622    0.79000002    2.71000004
   16.44305420  114.86799622    0.79000002    2.71000004
   16.44610977  114.86799622    0.79000002    2.71000004
   16.44916534  114.86799622    0.79000002    2.71000004
   16.45222282  114.86799622    0.79000002    2.71000004
   16.45527840  114.86799622    0.79000002    2.71000004
   16.45833397  114.86799622    0.79000002    2.71000004
   16.46138954  114.86799622    0.79000002    2.71000004
   16.46444511  114.86799622    0.79000002    2.71000004
   16.46583366  114.86799622    0.79000002    2.71000004
   16.46750069  114.86799622    0.79000002    2.71000004
   16.47055626  114.86799622    0.79000002    2.71000004
   16.47361183  114.86799622    0.79000002    2.71000004
   16.47666740  114.86799622    0.79000002    2.71000004
   16.48222351  114.86799622    0.79000002    2.71000004
   16.49305534  114.86799622    0.00000000    0.00000000
   16.49638939  114.86799622    0.00000000    0.00000000
   16.49916649  114.86799622    0.00000000    0.00000000
   16.49972153  114.86799622    0.00000000    0.00000000
   16.50333405  114.86799622    0.00000000    0.00000000
   16.50666618  114.86799622    0.00000000    0.00000000
   16.51027870  114.86799622    0.00000000    0.00000000
   16.51361084  114.86799622    0.00000000    0.00000000
   16.51694489  114.86799622    0.00000000    0.00000000
   16.52055550  114.86799622    0.00000000    0.00000000
   16.52555466  114.86799622    0.00000000    0.00000000
   16.52944374  114.86799622    0.79000002    2.71000004
   16.53249931  114.86799622    0.79000002    2.71000004
   16.53249931  114.86799622    0.79000002    2.71000004
   16.53555489  114.86799622    0.79000002    2.71000004
   16.53861046  114.86799622    0.79000002    2.71000004
   16.54166603  114.86799622    0.79000002    2.71000004
   16.54472160  114.86799622    0.79000002    2.71000004
   16.54777718  114.86799622    0.79000002    2.71000004
   16.55083275  114.86799622    0.79000002    2.71000004
   16.55388832  114.86799622    0.79000002    2.71000004
   16.55694389  114.86799622    0.79000002    2.71000004
   16.55999947  114.86799622    0.79000002    2.71000004
   16.56305504  114.86799622    0.79000002    2.71000004
   16.56777954  114.86799622    0.79000002    2.71000004
   16.57166672  114.86799622    0.79000002    2.71000004
   16.57472229  114.86799622    0.79000002    2.71000004
   16.57777786  114.86799622    0.79000002    2.71000004
   16.58083344  114.86799622    0.79000002    2.71000004
   16.58388901  114.86799622    0.79000002    2.71000004
   16.58694458  114.86799622    0.79000002    2.71000004
   16.59000015  114.86799622    0.79000002    2.71000004
   16.59305573  114.86799622    0.79000002    2.71000004
   16.59611130  114.86799622    0.79000002    2.71000004
   16.59916687  114.86799622    0.79000002    2.71000004
   16.59916687  114.86799622    0.79000002    2.71000004
   16.60222244  114.86799622    0.79000002    2.71000004
   16.60527802  114.86799622    0.79000002    2.71000004
   16.61083412  114.86799622    0.79000002    2.71000004
   16.61444473  114.86799622    0.79000002    2.71000004
   16.61750031  114.86799622    0.79000002    2.71000004
   16.62055588  114.86799622    0.79000002    2.71000004
   16.62361145  114.86799622    0.79000002    2.71000004
   16.62666702  114.86799622    0.79000002    2.71000004
   16.62972260  114.86799622    0.79000002    2.71000004
   16.63249969  114.86799622    0.79000002    2.71000004
   16.63277817  114.86799622    0.79000002    2.71000004
   16.63583374  114.86799622    0.79000002    2.71000004
   16.63888931  114.86799622    0.79000002    2.71000004
   16.64194489  114.86799622    0.79000002    2.71000004
   16.64500046  114.86799622    0.79000002    2.71000004
   16.64805603  114.86799622    0.79000002    2.71000004
   16.65361023  114.86799622    0.79000002    2.71000004
   16.65722275  114.86799622    0.79000002    2.71000004
   16.66027832  114.86799622    0.79000002    2.71000004
   16.66333389  114.86799622    0.79000002    2.71000004
   16.66611099  114.86799622    0.79000002    2.71000004
   16.66666603  114.86799622    0.79000002    2.71000004
   16.66972160  114.86799622    0.79000002    2.71000004
   16.67277718  114.86799622    0.79000002    2.71000004
   16.67583275  114.86799622    0.79000002    2.71000004
   16.67888832  114.86799622    0.79000002    2.71000004
   16.68194389  114.86799622    0.79000002    2.71000004
   16.68499947  114.86799622    0.79000002    2.71000004
   16.68805504  114.86799622    0.79000002    2.71000004
   16.69111061  114.86799622    0.79000002    2.71000004
   16.69638824  114.86799622    0.79000002    2.71000004
   16.70000076  114.86799622    0.79000002    2.71000004
   16.70305634  114.86799622    0.79000002    2.71000004
   16.70611191  114.86799622    0.79000002    2.71000004
   16.70916748  114.86799622    0.79000002    2.71000004
   16.71222305  114.86799622    0.79000002    2.71000004
   16.71527863  114.86799622    0.79000002    2.71000004
   16.71833420  114.86799622    0.79000002    2.71000004
   16.72138977  114.86799622    0.79000002    2.71000004
   16.72444534  114.86799622    0.79000002    2.71000004
   16.72750092  114.86799622    0.79000002    2.71000004
   16.73055649  114.86799622    0.79000002    2.71000004
   16.73277855  114.86799622    0.79000002    2.71000004
   16.73388863  114.86799622    0.79000002    2.71000004
   16.73916626  114.86799622    0.79000002    2.71000004
   16.74305534  114.86799622    0.79000002    2.71000004
   16.74611092  114.86799622    0.79000002    2.71000004
   16.74916649  114.86799622    0.79000002    2.71000004
   16.75222206  114.86799622    0.79000002    2.71000004
   16.75527763  114.86799622    0.79000002    2.71000004
   16.75833321  114.86799622    0.79000002    2.71000004
   16.76138878  114.86799622    0.79000002    2.71000004
   16.76444435  114.86799622    0.79000002    2.71000004
   16.76611137  114.86799622    0.79000002    2.71000004
   16.76749992  114.86799622    0.79000002    2.71000004
   16.77055550  114.86799622    0.79000002    2.71000004
   16.77361107  114.86799622    0.79000002    2.71000004
   16.77666664  114.86799622    0.79000002    2.71000004
   16.78222275  114.86799622    0.79000002    2.71000004
   16.78583336  114.86799622    0.79000002    2.71000004
   16.78888893  114.86799622    0.79000002    2.71000004
   16.79194450  114.86799622    0.79000002    2.71000004
   16.79500008  114.86799622    0.79000002    2.71000004
   16.79805565  114.86799622    0.79000002    2.71000004
   16.79944420  114.86799622    0.79000002    2.71000004
   16.80111122  114.86799622    0.79000002    2.71000004
   16.80416679  114.86799622    0.79000002    2.71000004
   16.80722237  114.86799622    0.79000002    2.71000004
   16.81027794  114.86799622    0.79000002    2.71000004
   16.81333351  114.86799622    0.79000002    2.71000004
   16.81638718  114.86799622    0.79000002    2.71000004
   16.81944466  114.86799622    0.79000002    2.71000004
   16.82500076  114.86799622    0.79000002    2.71000004
   16.82861137  114.86799622    0.79000002    2.71000004
   16.83166695  114.86799622    0.79000002    2.71000004
   16.83277893  114.86799622    0.79000002    2.71000004
   16.83472252  114.86799622    0.79000002    2.71000004
   16.83777809  114.86799622    0.79000002    2.71000004
   16.84083366  114.86799622    0.79000002    2.71000004
   16.84388924  114.86799622    0.79000002    2.71000004
   16.84694481  114.86799622    0.79000002    2.71000004
   16.85000038  114.86799622    0.79000002    2.71000004
   16.85305595  114.86799622    0.79000002    2.71000004
   16.85611153  114.86799622    0.79000002    2.71000004
   16.87861061  114.86799622    0.79000002    2.71000004
   16.88249969  114.86799622    0.79000002    2.71000004
   16.88555527  114.86799622    0.79000002    2.71000004
   16.88861084  114.86799622    0.79000002    2.71000004
   16.89166641  114.86799622    0.79000002    2.71000004
   16.89472198  114.86799622    0.79000002    2.71000004
   16.89777756  114.86799622    0.79000002    2.71000004
   16.90083313  114.86799622    0.79000002    2.71000004
   16.90388870  114.86799622    0.79000002    2.71000004
   16.90694427  114.86799622    0.79000002    2.71000004
   16.90972137  114.86799622    0.79000002    2.71000004
   16.90999985  114.86799622    0.79000002    2.71000004
   16.91305542  114.86799622    0.79000002    2.71000004
   16.91611099  114.86799622    0.79000002    2.71000004
   16.92166519  114.86799622    0.79000002    2.71000004
   16.92527771  114.86799622    0.79000002    2.71000004
   16.92833328  114.86799622    0.79000002    2.71000004
   16.93138885  114.86799622    0.79000002    2.71000004
   16.93444443  114.86799622    0.79000002    2.71000004
   16.93750000  114.86799622    0.79000002    2.71000004
   16.94055557  114.86799622    0.79000002    2.71000004
   16.94305420  114.86799622    0.79000002    2.71000004
   16.94361115  114.86799622    0.79000002    2.71000004
   16.94666672  114.86799622    0.79000002    2.71000004
   16.94972038  114.86799622    0.79000002    2.71000004
   16.95277786  114.86799622    0.79000002    2.71000004
   16.95583344  114.86799622    0.79000002    2.71000004
   16.95888901  114.86799622    0.79000002    2.71000004
   16.96444511  114.86799622    0.79000002    2.71000004
   16.96805573  114.86799622    0.79000002    2.71000004
   16.97111130  114.86799622    0.79000002    2.71000004
   16.97416687  114.86799622    0.79000002    2.71000004
   16.97638893  114.86799622    0.79000002    2.71000004
   16.97750092  114.86799622    0.79000002    2.71000004
   16.98055649  114.86799622    0.79000002    2.71000004
   16.98361206  114.86799622    0.79000002    2.71000004
   16.98666763  114.86799622    0.79000002    2.71000004
   16.98972321  114.86799622    0.79000002    2.71000004
   16.99277878  114.86799622    0.79000002    2.71000004
   16.99583435  114.86799622    0.79000002    2.71000004
   16.99888992  114.86799622    0.79000002    2.71000004
   17.00194359  114.86799622    0.79000002    2.71000004
   17.00722313  114.86799622    0.79000002    2.71000004
   17.01111031  114.86799622    0.79000002    2.71000004
   17.01416588  114.86799622    0.79000002    2.71000004
   17.01722145  114.86799622    0.79000002    2.71000004
   17.02027702  114.86799622    0.79000002    2.71000004
   17.02333260  114.86799622    0.79000002    2.71000004
   17.02638817  114.86799622    0.79000002    2.71000004
   17.02944374  114.86799622    0.79000002    2.71000004
   17.03249931  114.86799622    0.79000002    2.71000004
   17.03555489  114.86799622    0.79000002    2.71000004
   17.03861046  114.86799622    0.79000002    2.71000004
   17.04166603  114.86799622    0.79000002    2.71000004
   17.04305458  114.86799622    0.79000002    2.71000004
   17.04472160  114.86799622    0.79000002    2.71000004
   17.04999924  114.86799622    0.79000002    2.71000004
   17.05388832  114.86799622    0.79000002    2.71000004
   17.05694389  114.86799622    0.79000002    2.71000004
   17.05999947  114.86799622    0.79000002    2.71000004
   17.06305504  114.86799622    0.79000002    2.71000004
   17.06611061  114.86799622    0.79000002    2.71000004
   17.06916809  114.86799622    0.79000002    2.71000004
   17.07222366  114.86799622    0.79000002    2.71000004
   17.07527924  114.86799622    0.79000002    2.71000004
   17.07638931  114.86799622    0.79000002    2.71000004
   17.07833481  114.86799622    0.79000002    2.71000004
   17.08139038  114.86799622    0.79000002    2.71000004
   17.08444595  114.86799622    0.79000002    2.71000004
   17.08750153  114.86799622    0.79000002    2.71000004
   17.09305573  114.86799622    0.79000002    2.71000004
   17.09666824  114.86799622    0.79000002    2.71000004
   17.09972191  114.86799622    0.79000002    2.71000004
   17.10277748  114.86799622    0.79000002    2.71000004
   17.10583305  114.86799622    0.79000002    2.71000004
   17.10888863  114.86799622    0.79000002    2.71000004
   17.10972214  114.86799622    0.79000002    2.71000004
   17.11194420  114.86799622    0.79000002    2.71000004
   17.11499977  114.86799622    0.79000002    2.71000004
   17.11805534  114.86799622    0.79000002    2.71000004
   17.12111092  114.86799622    0.79000002    2.71000004
   17.12416649  114.86799622    0.79000002    2.71000004
   17.13972282  114.86799622    0.79000002    2.71000004
   17.14166641   -1.00000000   -1.00000000   -1.00000000
   17.14638901   -1.00000000   -1.00000000   -1.00000000
   17.19361115  141.82800293    1.07000005    2.44000006
   17.19694328  127.75199890    1.25000000    2.69000006
   17.20000076  137.63699341    0.89999998    2.67000008
   17.20333481  139.30900574    0.89999998    2.69000006
   17.20666695  133.50300598    4.90999985    2.82999992
   17.20972252  128.51400757    0.23000000    0.52999997
   17.21389008  128.51400757    0.20999999    0.51999998
   17.21805573  133.64300537    0.20999999    0.51999998
   17.22138977  124.47799683    0.25000000    0.51999998
   17.22444534  136.49099731    0.50000000    0.51999998
   17.22694588  132.23300171    1.16999996    0.51999998
   17.22833443  137.11000061    1.60000002    0.51999998
   17.23139000  118.38099670    1.58000004    0.51999998
   17.23472214  116.85099792    1.61000001    0.51999998
   17.23777771  137.70599365    1.01999998    0.51999998
   17.24111176  131.07699585    0.47999999    0.51999998
   17.24444389  134.55700684    0.25000000    0.51999998
   17.24749947  144.16700745    0.34000000    0.51999998
   17.25083351  108.92800140    0.31999999    0.51999998
   17.25666618  108.92800140    0.20999999    0.51999998
   17.26083374  197.32000732    0.20999999    0.51999998
   17.26416588  139.25399780    0.38000000    0.38000000
   17.26749992  151.12699890    0.36000001    0.51999998
   17.27055550  136.27999878    0.25999999    0.51999998
   17.27388954  135.72200012    0.23000000    0.51999998
   17.27722168  138.80299377    0.25000000    0.51999998
   17.28027725  128.60899353    0.20999999    0.51999998
   17.28361130  151.37500000    0.23000000    0.51999998
   17.28666687  141.47799683    0.20999999    0.51999998
   17.28999901  134.79800415    0.20999999    0.51999998
   17.29333305  142.36099243    0.19000000    0.51999998
   17.29388809  141.45399475    0.19000000    0.51999998
   17.29972076  141.45399475    0.19000000    0.51999998
   17.30360985  145.41999817    0.19000000    0.51999998
   17.30694389  143.77600098    0.19000000    0.51999998
   17.31027794  142.82000732    0.19000000    0.51999998
   17.31333351  143.63499451    0.19000000    0.51999998
   17.31666756  158.61399841    0.20999999    0.51999998
   17.32000160  157.77799988    0.19000000    0.51999998
   17.32305717  165.61099243    0.19000000    0.51999998
   17.32638931  185.49299622    0.19000000    0.51999998
   17.32722282  173.22099304    0.19000000    0.51999998
   17.33000183  155.98100281    0.19000000    0.51999998
   17.33333397  165.68400574    0.19000000    0.51999998
   17.33666801  173.35899353    0.19000000    0.51999998
   17.34250069  173.35899353    0.19000000    0.51999998
   17.34666824  156.73199463    0.19000000    0.51999998
   17.34972191  164.88400269    0.19000000    0.51999998
   17.35305595  180.38600159    0.17000000    0.51999998
   17.35639000  199.67599487    0.17000000    0.51999998
   17.35944557  188.15600586    0.19000000    0.51999998
   17.36055565  193.58900452    0.17000000    0.51999998
   17.36305618  194.03500366    0.17000000    0.51999998
   17.36638832  186.72399902    0.17000000    0.51999998
   17.36972237  165.83700562    0.17000000    0.51999998
   17.37277794  179.47099304    0.17000000    0.51999998
   17.37611198  162.18299866    0.17000000    0.51999998
   17.37916756  171.27299500    0.17000000    0.51999998
   17.38527679  171.27299500    0.17000000    0.51999998
   17.38944435  161.55299377    0.17000000    0.51999998
   17.39277840  163.73300171    0.17000000    0.51999998
   17.39388847  164.86799622    0.17000000    0.51999998
   17.39611053  175.40600586    0.17000000    0.51999998
   17.39944458  179.70500183    0.17000000    0.51999998
   17.40277672  160.49600220    0.17000000    0.51999998
   17.40583229  153.54200745    0.17000000    0.51999998
   17.40916634  153.52799988    0.17000000    0.51999998
   17.41222191  136.72500610    0.17000000    0.51999998
   17.41555595  163.12800598    0.17000000    0.51999998
   17.41888809  148.91499329    0.17000000    0.51999998
   17.42194366  145.80599976    0.17000000    0.51999998
   17.42805481  145.80599976    0.17000000    0.51999998
   17.43222237  146.27400208    0.17000000    0.51999998
   17.43555450  152.95300293    0.19000000    0.51999998
   17.43861008  142.39900208    0.17000000    0.51999998
   17.44194412  149.37899780    0.17000000    0.51999998
   17.44527626  153.42999268    0.17000000    0.51999998
   17.44833183  163.41799927    0.17000000    0.51999998
   17.45166779  153.14500427    0.17000000    0.51999998
   17.45499992  143.21899414    0.17000000    0.51999998
   17.45805550  163.47300720    0.17000000    0.51999998
   17.46055603  151.78700256    0.17000000    0.51999998
   17.46166801  151.12199402    0.17000000    0.51999998
   17.46500015  139.41700745    0.17000000    0.51999998
   17.47111130  139.41700745    0.17000000    0.51999998
   17.47527885  141.02999878    0.15000001    0.51999998
   17.47833443  127.36000061    0.15000001    0.51999998
   17.48166656  135.00100708    0.15000001    0.51999998
   17.48472214  122.99700165    0.15000001    0.51999998
   17.48805618  145.38000488    0.17000000    0.51999998
   17.49138832  132.99699402    0.15000001    0.51999998
   17.49388885  133.81599426    0.17000000    0.51999998
   17.49472237  130.90100098    0.17000000    0.51999998
   17.49805641  134.49800110    0.17000000    0.51999998
   17.50138855  123.15599823    0.17000000    0.51999998
   17.50444412  131.11999512    0.17000000    0.51999998
   17.50777817  132.73899841    0.17000000    0.51999998
   17.51388931  132.73899841    0.17000000    0.51999998
   17.51805496  130.18200684    0.17000000    0.51999998
   17.52111053  133.52299500    0.17000000    0.51999998
   17.52444458  125.43699646    0.17000000    0.51999998
   17.52722168  120.19999695    0.17000000    0.51999998
   17.52805519  117.01799774    0.17000000    0.51999998
   17.53138924  124.55100250    0.17000000    0.51999998
   17.53472137  123.27300262    0.17000000    0.51999998
   17.53777695  118.83499908    0.17000000    0.51999998
   17.54111099  116.56900024    0.17000000    0.51999998
   17.54416656  131.17100525    0.17000000    0.51999998
   17.54749870  132.89100647    0.17000000    0.51999998
   17.55083275  127.15000153    0.17000000    0.51999998
   17.55666542  127.15000153    0.17000000    0.51999998
   17.56083298  137.26800537    0.19000000    0.51999998
   17.56416512  126.80300140    0.19000000    0.51999998
   17.56722260  139.12899780    0.19000000    0.51999998
   17.57055664  134.42599487    0.17000000    0.51999998
   17.57361221  159.97399902    0.19000000    0.51999998
   17.57694626  153.11900330    0.17000000    0.51999998
   17.58027840  204.91400146    0.17000000    0.51999998
   17.58333397  207.88200378    0.17000000    0.51999998
   17.58666801  178.66799927    0.17000000    0.51999998
   17.59000015  162.03100586    0.17000000    0.51999998
   17.59305573  165.53500366    0.19000000    0.51999998
   17.59388924  164.30900574    0.17000000    0.51999998
   17.59944534  164.30900574    0.19000000    0.51999998
   17.60361099  167.55499268    0.19000000    0.51999998
   17.60694504  184.74499512    0.19000000    0.51999998
   17.61027908  193.52200317    0.19000000    0.51999998
   17.61333466  195.67100525    0.19000000    0.51999998
   17.61666679  199.08999634    0.19000000    0.51999998
   17.62000084  176.34700012    0.19000000    0.51999998
   17.62305641  191.18699646    0.19000000    0.51999998
   17.62638855  200.67900085    0.19000000    0.51999998
   17.62722206  197.22700500    0.19000000    0.51999998
   17.63000107  172.98699951    0.19000000    0.51999998
   17.63305473  161.44299316    0.19000000    0.51999998
   17.63638878  184.08099365    0.19000000    0.51999998
   17.64249992  184.08099365    0.19000000    0.51999998
   17.64666748  161.71499634    0.19000000    0.51999998
   17.64972115  121.90699768    0.19000000    0.51999998
   17.65305519  128.35899353    0.19000000    0.44000000
   17.65611076  180.15400696    0.19000000    0.51999998
   17.65944481  180.60200500    0.19000000    0.50000000
   17.66055489  179.93600464    0.19000000    0.50000000
   17.66333389  159.69599915    0.19000000    0.51999998
   17.66638756  173.90699768    0.19000000    0.51999998
   17.66972160  187.19999695    0.19000000    0.51999998
   17.67277718  165.95199585    0.19000000    0.51999998
   17.67611122  171.41099548    0.19000000    0.51999998
   17.67944336  155.54899597    0.19000000    0.51999998
   17.68527603  155.54899597    0.19000000    0.51999998
   17.68944359  154.39599609    0.19000000    0.51999998
   17.69249916  151.55799866    0.19000000    0.51999998
   17.69388771  152.00599670    0.19000000    0.51999998
   17.69638824  165.73100281    0.19000000    0.51999998
   17.69944382  157.84899902    0.19000000    0.51999998
   17.70277786  156.16200256    0.19000000    0.51999998
   17.70583344  158.82699585    0.19000000    0.51999998
   17.70916748  145.07899475    0.19000000    0.51999998
   17.71250153  146.55900574    0.19000000    0.51999998
   17.71555710  156.83599854    0.19000000    0.51999998
   17.71888924  152.42199707    0.19000000    0.51999998
   17.72222328  146.81599426    0.19000000    0.51999998
   17.72805595  146.81599426    0.19000000    0.51999998
   17.73222351  133.58099365    0.19000000    0.51999998
   17.73555565  148.05799866    0.19000000    0.51999998
   17.73861122  138.62100220    0.19000000    0.51999998
   17.74194527  143.91999817    0.19000000    0.51999998
   17.74527740  131.57499695    0.19000000    0.51999998
   17.74833298  137.26699829    0.19000000    0.51999998
   17.75166702  127.08699799    0.19000000    0.51999998
   17.75472260  133.60600281    0.19000000    0.51999998
   17.75805473  142.79699707    0.19000000    0.51999998
   17.76055527  116.96099854    0.19000000    0.51999998
   17.76194382  119.34100342    0.19000000    0.51999998
   17.76499939  126.60800171    0.19000000    0.51999998
   17.77083397  126.60800171    0.19000000    0.51999998
   17.77499962  128.18899536    0.19000000    0.51999998
   17.77833366  118.33699799    0.19000000    0.51999998
   17.78138924  130.39700317    0.19000000    0.51999998
   17.78472137  126.44499969    0.19000000    0.51999998
   17.78805542  116.35900116    0.17000000    0.51999998
   17.79111099  123.39299774    0.17000000    0.51999998
   17.79388809  124.30200195    0.17000000    0.51999998
   17.79472160  135.10299683    0.17000000    0.51999998
   17.79805565  120.65200043    0.19000000    0.51999998
   17.80138779  125.86000061    0.17000000    0.51999998
   17.80444336  124.31999969    0.17000000    0.51999998
   17.80777740  131.06900024    0.17000000    0.51999998
   17.81388855  131.06900024    0.17000000    0.51999998
   17.81777954  118.62899780    0.17000000    0.51999998
   17.82111168  127.11399841    0.17000000    0.51999998
   17.82444572  119.66799927    0.17000000    0.51999998
   17.82722282  120.59400177    0.17000000    0.51999998
   17.82777786  106.06400299    0.17000000    0.51999998
   17.83111191  114.75199890    0.17000000    0.51999998
   17.83444595  110.64399719    0.17000000    0.51999998
   17.83750153  125.41300201    0.19000000    0.51999998
   17.84083366  122.91600037    0.19000000    0.51999998
   17.84416771  129.17399597    0.19000000    0.51999998
   17.84722328  130.89500427    0.19000000    0.51999998
   17.85055542  117.36699677    0.20999999    0.51999998
   17.85666656  117.36699677    0.28000000    0.51999998
   17.86083412  117.44300079    0.30000001    0.51999998
   17.86388969  109.58100128    0.28000000    0.51999998
   17.86722183  108.20800018    0.28000000    0.51999998
   17.87027740  114.89900208    0.25000000    0.51999998
   17.87361145  113.30699921    0.23000000    0.51999998
   17.87694550  112.30899811    0.20999999    0.51999998
   17.88000107  119.60199738    0.20999999    0.51999998
   17.88333321  108.70099640    0.23000000    0.51999998
   17.88666725  100.30200195    0.23000000    0.51999998
   17.88972282  111.79299927    0.25000000    0.51999998
   17.89305496  105.77999878    0.25999999    0.51999998
   17.89388847  108.66899872    0.25999999    0.51999998
   17.89944458  108.66899872    0.28000000    0.51999998
   17.90361023  113.25399780    0.28000000    0.51999998
   17.90666580  104.77600098    0.28000000    0.51999998
   17.90999985  111.60399628    0.25999999    0.51999998
   17.91333389  104.78700256    0.25999999    0.51999998
   17.91638756  107.66899872    0.25000000    0.51999998
   17.91972160  105.93900299    0.25000000    0.51999998
   17.92305565  111.67099762    0.25000000    0.51999998
   17.92611122  115.94899750    0.25000000    0.51999998
   17.92722130  116.43699646    0.28000000    0.75000000
   17.92972183  114.44899750    4.90999985    2.75000000
   17.93305397  107.36299896    1.69000006    2.71000004
   17.93638802  110.77200317    1.66999996    2.73000002
   17.94222069  110.77200317    1.60000002    2.71000004
   17.94638824  109.69599915    1.69000006    2.73000002
   17.94972038  115.10399628    1.80999994    2.71000004
   17.95277786  109.71800232    1.80999994    2.71000004
   17.95611191  110.11799622    1.71000004    2.71000004
   17.95944595  110.56900024    1.71000004    2.71000004
   17.96055603   80.88749695    2.11999989    2.71000004
   17.96305656  108.45300293    4.59999990    2.57999992
   17.96611214  115.09600067    4.90999985    2.67000008
   17.96944427  115.75099945    2.91000009    2.73000002
   17.97249985  112.69599915    2.84999990    2.73000002
   17.97583389  107.18299866    1.58000004    2.73000002
   17.97916794  108.32199860    1.44000006    2.73000002
   17.98500061  108.32199860    1.60000002    2.71000004
   17.98916626  107.95700073    3.50000000    2.71000004
   17.99250031  103.98000336    4.90999985    2.73000002
   17.99388885  116.31500244    3.93000007    2.73000002
   17.99611092  105.00399780    1.66999996    2.73000002
   17.99944496  107.86499786    1.50000000    2.71000004
   18.00277710  102.87699890    1.53999996    2.71000004
   18.00583267  105.11299896    1.53999996    2.71000004
   18.00916672  100.85600281    1.58000004    2.73000002
   18.01250076  100.98500061    4.76000023    2.73000002
   18.01555634  110.14700317    4.19999981    2.75000000
   18.01888847   97.98400116    3.84999990    2.75000000
   18.02194405  105.52200317    2.61999989    2.76999998
   18.02805519  105.52200317    4.90999985    2.75000000
   18.03194427   -1.00000000    4.90999985    1.69000006
   18.03527641   -1.00000000    4.90999985    0.94000000
   18.03861046   -1.00000000    4.90999985    1.36000001
   18.04194450   -1.00000000    4.90999985    0.79000002
   18.04500008   -1.00000000    4.90999985    0.51999998
   18.04833221   -1.00000000    4.90999985    0.51999998
   18.05138779   -1.00000000    4.90999985    0.25999999
   18.05472183   -1.00000000    4.90999985    0.52999997
   18.05805397   -1.00000000    4.90999985    1.55999994
   18.06138802  110.85500336    4.90999985    1.53999996
   18.06472206   -1.00000000    4.90999985    1.07000005
   18.07083511   -1.00000000    4.90999985    2.25000000
   18.07500076  110.68299866    4.90999985    2.32999992
   18.07805634  128.07499695    4.90999985    1.88000000
   18.08139038   -1.00000000    4.90999985    2.50000000
   18.08472252   -1.00000000    4.90999985    0.61000001
   18.08777809   -1.00000000    4.90999985    0.50000000
   18.09111214   -1.00000000    4.90999985    0.19000000
   18.09472275   -1.00000000    4.90999985    0.15000001
   18.09805679   -1.00000000    4.90999985    0.11000000
   18.10111237   -1.00000000    4.90999985    0.11000000
   18.10444450   -1.00000000    4.90999985    0.13000000
   18.10777855   -1.00000000    4.90999985    0.15000001
   18.11777878   -1.00000000    4.90999985    0.40000001
   18.12083435   -1.00000000    4.90999985    0.51999998
   18.12416649   -1.00000000    4.90999985    0.81999999
   18.12777710   -1.00000000    4.90999985    0.86000001
   18.13111115  128.08299255    4.90999985    0.75000000
   18.13416672   -1.00000000    4.90999985    1.64999998
   18.13750076  182.22599792    4.90999985    1.85000002
   18.14083290  180.45899963    4.90999985    2.86999989
   18.14388847  140.34899902    4.90999985    2.86999989
   18.14722252   -1.00000000    4.90999985    0.40000001
   18.15027809  223.71200562    4.90999985    1.14999998
   18.15638924  223.71200562    4.90999985    2.25000000
   18.16055489  144.74699402    4.90999985    1.96000004
   18.16388893   -1.00000000    4.90999985    1.11000001
   18.16722107  176.93299866    4.90999985    1.05999994
   18.17027664   85.73629761    4.90999985    2.55999994
   18.17361069  179.91799927    4.90999985    2.07999992
   18.17666626  102.04199982    4.90999985    2.75000000
   18.18000031  219.99499512    4.90999985    1.75000000
   18.18333244  163.52099609    4.90999985    2.23000002
   18.18666649  157.61900330    4.90999985    1.63000000
   18.18972206  103.34500122    4.90999985    2.57999992
   18.19305420  361.26998901    4.90999985    1.85000002
   18.19388771  127.99600220    4.90999985    1.63000000
   18.21444511  127.99600220    4.90999985    2.44000006
   18.21861076  110.19699860    4.90999985    2.44000006
   18.22194481  107.62999725    4.90999985    2.42000008
   18.22500038  120.58699799    4.90999985    2.39000010
   18.22722244  110.79199982    4.90999985    2.39000010
   18.22888947  114.73600006    4.90999985    2.42000008
   18.23194504  106.76599884    4.90999985    2.51999998
   18.23527718  106.73100281    4.90999985    2.55999994
   18.23833275  101.69100189    4.90999985    2.55999994
   18.24166679  122.58200073    4.90999985    2.48000002
   18.24500084  103.47499847    4.90999985    2.44000006
   18.24805641  105.63300323    4.90999985    2.44000006
   18.25138855  103.74600220    4.90999985    2.51999998
   18.25722313  103.74600220    4.90999985    2.48000002
   18.26138878  101.61199951    4.90999985    2.50000000
   18.26472282   87.51999664    4.90999985    2.51999998
   18.26777840  117.23000336    4.90999985    2.50000000
   18.27111053  107.73699951    4.90999985    2.36999989
   18.27416611  107.43299866    4.90999985    2.42000008
   18.27750015   91.53579712    4.90999985    2.42000008
   18.28083229  108.84100342    4.90999985    2.36999989
   18.28416634  118.09899902    4.90999985    2.42000008
   18.28722191   89.77110291    4.90999985    2.40000010
   18.29055595   98.53170013    4.90999985    2.34999990
   18.29361153   95.61609650    4.90999985    2.48000002
   18.29416656   90.28279877    4.90999985    2.50000000
   18.29999924   90.28279877    4.90999985    2.59999990
   18.30416679   96.07409668    4.90999985    2.57999992
   18.30749893   94.38700104    4.90999985    2.66000009
   18.31055450   92.71929932    4.88999987    2.61999989
   18.31388855  105.59700012    4.90999985    2.61999989
   18.31722260  105.38899994    4.90999985    2.61999989
   18.32027817  121.23000336    4.61999989    2.61999989
   18.32361221  203.27299500    4.13999987    2.59999990
   18.32694626  230.16499329    3.99000001    2.64000010
   18.32750130  159.11099243    3.99000001    2.64000010
   18.33055687  159.00300598    3.73000002    2.66000009
   18.33388901  139.60899353    3.07999992    2.67000008
   18.33694458  139.47599792    2.55999994    2.67000008
   18.34305573  139.47599792    1.86000001    2.69000006
   18.34694481  152.07200623    1.64999998    2.69000006
   18.35027885  145.67599487    1.66999996    2.69000006
   18.35361099  143.25000000    1.88000000    2.69000006
   18.35666656  134.60499573    2.26999998    2.67000008
   18.36000061  160.50799561    2.66000009    2.67000008
   18.36083412  147.80999756    2.75000000    2.66000009
   18.36361122  130.99400330    3.21000004    2.66000009
   18.36694527  127.49700165    3.50000000    2.67000008
   18.37000084  128.08399963    3.80999994    2.67000008
   18.37333298  125.65100098    4.63999987    2.66000009
   18.37666702  145.99200439    4.90999985    2.61999989
   18.37972260  136.85800171    4.90999985    2.64000010
   18.38583374  136.85800171    4.90999985    2.64000010
   18.38999939  134.92500305    4.90999985    2.55999994
   18.39305496  137.18099976    4.90999985    2.64000010
   18.39416695  123.90599823    4.90999985    2.64000010
   18.39666748  116.63099670    4.90999985    2.61999989
   18.39999962  128.74600220    4.90999985    2.61999989
   18.40305519  134.49099731    4.90999985    2.59999990
   18.40638924  126.65200043    4.90999985    2.57999992
   18.40972137  120.31999969    4.90999985    2.64000010
   18.41277695  126.54799652    4.71999979    2.64000010
   18.41611099  148.39100647    4.32999992    2.64000010
   18.41916656  134.04899597    4.21999979    2.66000009
   18.42249870  135.70199585    3.82999992    2.67000008
   18.42860985  135.70199585    2.80999994    2.67000008
   18.43277740  134.30099487    2.67000008    2.67000008
   18.43610954  109.01799774    2.78999996    2.67000008
   18.43916512  115.94100189    2.84999990    2.67000008
   18.44249916  109.74600220    2.64000010    2.69000006
   18.44583321  125.30200195    2.30999994    2.73000002
   18.44888878  115.31800079    3.36999989    2.73000002
   18.45222282  111.07599640    4.90999985    2.75000000
   18.45527840  115.98300171    4.90999985    2.76999998
   18.45861244   99.28710175    4.90999985    2.75000000
   18.46083450  113.03700256    4.90999985    2.78999996
   18.46222305  115.07299805    4.90999985    2.76999998
   18.46555710  120.99199677    4.90999985    2.82999992
   18.47138977  120.99199677    4.90999985    2.86999989
   18.47555542  130.02600098    4.90999985    2.84999990
   18.47888947   -1.00000000    4.90999985    2.05999994
   18.48194504   -1.00000000    4.90999985    1.13000000
   18.48527718   -1.00000000    4.90999985    0.19000000
   18.48861122   -1.00000000    4.90999985    0.20999999
   18.49166679   -1.00000000    4.90999985    0.23000000
   18.49527740   -1.00000000    4.90999985    0.23000000
   18.49833298   -1.00000000    4.90999985    0.23000000
   18.50166702   -1.00000000    4.90999985    0.25999999
   18.50499916   -1.00000000    4.90999985    0.36000001
   18.50805473   -1.00000000    4.90999985    0.20999999
   18.51833344   -1.00000000    4.07999992    0.07000000
   18.52166557   -1.00000000    4.46999979    0.05000000
   18.52472115   -1.00000000    4.90999985    0.03000000
   18.52833366   -1.00000000    4.90999985    0.03000000
   18.53138924   -1.00000000    4.90999985    0.03000000
   18.53472137   -1.00000000    4.90999985    0.05000000
   18.53805542   -1.00000000    4.90999985    0.07000000
   18.54111099   -1.00000000    4.90999985    0.09000000
   18.54444313   -1.00000000    4.90999985    0.09000000
   18.54749870   -1.00000000    4.90999985    0.07000000
   18.55083275   -1.00000000    4.90999985    0.05000000
   18.56110954   -1.00000000    4.44999981    0.03000000
   18.56444359   -1.00000000    3.78999996    0.03000000
   18.56777954   -1.00000000    4.90999985    0.05000000
   18.57083511   -1.00000000    4.90999985    0.03000000
   18.57416725   -1.00000000    3.30999994    0.03000000
   18.57722282   -1.00000000    3.61999989    0.03000000
   18.58055687   -1.00000000    4.63999987    0.03000000
   18.58388901   -1.00000000    4.82999992    0.01000000
   18.58694458   -1.00000000    4.07999992    0.01000000
   18.59027863   -1.00000000    2.15000010    0.01000000
   18.59361267   -1.00000000    2.15000010    0.01000000
   18.60416794   -1.00000000    2.15000010    0.01000000
   18.60722351   -1.00000000    2.15000010    0.01000000
   18.61055565   -1.00000000    2.15000010    0.01000000
   18.61361122   -1.00000000    2.15000010    0.01000000
   18.61694527   -1.00000000    2.15000010    0.01000000
   18.62027740   -1.00000000    2.15000010    0.01000000
   18.62333298   -1.00000000    2.15000010    0.01000000
   18.62666702   -1.00000000    2.15000010    0.01000000
   18.63027763   -1.00000000    2.15000010    0.01000000
   18.63333321   -1.00000000    2.15000010    0.01000000
   18.63666725   -1.00000000    2.15000010    0.01000000
   18.64694405   -1.00000000    1.86000001    0.01000000
   18.64999962   -1.00000000    1.86000001    0.01000000
   18.65333366   -1.00000000    1.86000001    0.01000000
   18.65666580   -1.00000000    1.86000001    0.01000000
   18.65972137   -1.00000000    1.86000001    0.01000000
   18.66333389   -1.00000000    1.86000001    0.01000000
   18.66638756   -1.00000000    1.86000001    0.01000000
   18.66972160   -1.00000000    1.86000001    0.01000000
   18.67305565   -1.00000000    1.86000001    0.01000000
   18.67611122   -1.00000000    1.86000001    0.01000000
   18.67944336   -1.00000000    1.86000001    0.01000000
   18.68972206   -1.00000000    0.52999997    0.01000000
   18.69305420   -1.00000000    1.09000003    0.01000000
   18.69666672   -1.00000000    4.17999983    0.01000000
   18.69972038   -1.00000000    4.90999985    0.01000000
   18.70305634   -1.00000000    4.90999985    0.03000000
   18.70639038   -1.00000000    4.90999985    0.05000000
   18.70944595   -1.00000000    4.90999985    0.09000000
   18.71277809   -1.00000000    4.90999985    0.09000000
   18.71611214   -1.00000000    4.90999985    0.11000000
   18.71916771   -1.00000000    4.90999985    0.11000000
   18.72249985   -1.00000000    4.90999985    0.15000001
   18.73250008   -1.00000000    4.90999985    0.17000000
   18.73583412   -1.00000000    4.90999985    0.19000000
   18.73916626   -1.00000000    4.90999985    0.30000001
   18.74222183   -1.00000000    4.90999985    0.61000001
   18.74555588   -1.00000000    4.90999985    0.67000002
   18.74861145   -1.00000000    4.90999985    0.76999998
   18.75194359   -1.00000000    4.90999985    1.19000006
   18.75527763   -1.00000000    4.90999985    1.33000004
   18.75833321   -1.00000000    4.90999985    1.36000001
   18.76194382   -1.00000000    4.90999985    1.36000001
   18.76499939   -1.00000000    4.90999985    1.44000006
   18.77138901   -1.00000000    4.90999985    1.38000000
   18.77555466   -1.00000000    4.90999985    1.26999998
   18.77861023   -1.00000000    4.90999985    1.23000002
   18.78194427   -1.00000000    4.90999985    1.03999996
   18.78527641   -1.00000000    4.90999985    1.07000005
   18.78833199   -1.00000000    4.90999985    1.14999998
   18.79166603   -1.00000000    4.90999985    1.05999994
   18.79527664   -1.00000000    4.90999985    1.07000005
   18.79861069   -1.00000000    4.90999985    1.09000003
   18.80166626   -1.00000000    4.90999985    1.00000000
   18.80499840   -1.00000000    4.90999985    0.98000002
   18.80805397   -1.00000000    4.90999985    1.09000003
   18.81833458   -1.00000000    4.90999985    1.26999998
   18.82139015   -1.00000000    4.90999985    1.16999996
   18.82472229   -1.00000000    4.90999985    1.09000003
   18.82833481   -1.00000000    4.90999985    1.11000001
   18.83166695   -1.00000000    4.90999985    1.26999998
   18.83472252   -1.00000000    4.90999985    1.25000000
   18.83805656   -1.00000000    4.90999985    1.41999996
   18.84111214   -1.00000000    4.90999985    1.39999998
   18.84444427   -1.00000000    4.90999985    1.48000002
   18.84777832   -1.00000000    4.90999985    1.44000006
   18.85083389   -1.00000000    4.90999985    1.25000000
   18.86111069   -1.00000000    4.90999985    0.75000000
   18.86444473   -1.00000000    4.90999985    0.94000000
   18.86750031   -1.00000000    4.90999985    1.16999996
   18.87083435   -1.00000000    4.90999985    0.40000001
   18.87416649   -1.00000000    4.90999985    0.17000000
   18.87722206   -1.00000000    4.90999985    0.09000000
   18.88055611   -1.00000000    4.90999985    0.05000000
   18.88361168   -1.00000000    4.90999985    0.03000000
   18.88694382   -1.00000000    4.53000021    0.01000000
   18.89027786   -1.00000000    3.80999994    0.01000000
   18.89333344   -1.00000000    3.80999994    0.01000000
   18.90388870   -1.00000000    3.80999994    0.01000000
   18.90722275   -1.00000000    3.80999994    0.01000000
   18.91055489   -1.00000000    3.80999994    0.01000000
   18.91361046   -1.00000000    3.80999994    0.01000000
   18.91694450   -1.00000000    3.80999994    0.01000000
   18.92000008   -1.00000000    3.80999994    0.01000000
   18.92333221   -1.00000000    3.80999994    0.01000000
   18.92666626   -1.00000000    3.80999994    0.01000000
   18.93000031   -1.00000000    3.80999994    0.01000000
   18.93333244   -1.00000000    3.80999994    0.01000000
   18.93638802   -1.00000000    3.80999994    0.01000000
   18.94694328   -1.00000000    4.90999985    0.05000000
   18.95000076   -1.00000000    4.90999985    0.13000000
   18.95333481   -1.00000000    4.90999985    0.15000001
   18.95639038   -1.00000000    4.90999985    0.05000000
   18.95972252   -1.00000000    4.90999985    0.05000000
   18.96333504   -1.00000000    4.90999985    0.07000000
   18.96666718   -1.00000000    4.90999985    0.09000000
   18.96972275   -1.00000000    4.90999985    0.15000001
   18.97305679   -1.00000000    4.90999985    0.25000000
   18.97638893   -1.00000000    4.90999985    0.36000001
   18.97944450   -1.00000000    4.90999985    0.55000001
   18.98555565   -1.00000000    4.90999985    1.66999996
   18.98972321  162.99400330    4.90999985    2.25000000
   18.99305534  108.85299683    4.90999985    2.48000002
   18.99444389  102.11900330    4.90999985    2.46000004
   18.99638939  137.29200745    4.90999985    2.39000010
   18.99972153  117.16699982    4.90999985    2.25000000
   19.00305557  114.56900024    4.90999985    2.30999994
   19.00611115  160.53599548    4.90999985    2.40000010
   19.00944519  137.71400452    4.90999985    2.44000006
   19.01250076  129.23100281    4.90999985    2.40000010
   19.01583290  126.93499756    4.90999985    2.44000006
   19.01916695  148.53599548    4.90999985    2.42000008
   19.02222252  119.50199890    4.90999985    2.30999994
   19.02833366  119.50199890    4.90999985    2.50000000
   19.03249931  140.33799744    4.90999985    2.53999996
   19.03583336  125.61900330    4.90999985    2.50000000
   19.03916550  115.44200134    4.90999985    2.51999998
   19.04222107  101.52700043    4.90999985    2.53999996
   19.04555511  118.83999634    4.90999985    2.55999994
   19.04861069  123.05100250    4.90999985    2.53999996
   19.05194283  124.28199768    4.90999985    2.55999994
   19.05527687  116.37699890    4.90999985    2.57999992
   19.05833244  124.94100189    4.90999985    2.55999994
   19.06110954  127.34500122    4.90999985    2.55999994
   19.06194305  122.85600281    4.90999985    2.55999994
   19.06527710  131.06500244    4.90999985    2.55999994
   19.07139015  131.06500244    4.90999985    2.57999992
   19.07555580  123.19599915    4.90999985    2.59999990
   19.07861137  121.81400299    4.90999985    2.55999994
   19.08194542  105.51999664    4.90999985    2.46000004
   19.08500099  123.13600159    4.90999985    2.42000008
   19.08833313  124.80899811    4.90999985    2.50000000
   19.09166718  113.36599731    4.90999985    2.48000002
   19.09444427  109.20099640    4.90999985    2.46000004
   19.09500122  105.85700226    4.90999985    2.46000004
   19.09833336  121.34400177    4.90999985    2.46000004
   19.10166740  123.67099762    4.90999985    2.50000000
   19.10472298  121.51300049    4.90999985    2.50000000
   19.10805511  123.12699890    4.90999985    2.48000002
   19.11416626  123.12699890    4.90999985    2.26999998
   19.11833382  120.83899689    4.90999985    2.32999992
   19.12138939  119.63600159    4.90999985    2.34999990
   19.12472153  113.93299866    4.90999985    2.36999989
   19.12777710   98.00540161    4.90999985    2.36999989
   19.12833405  217.33200073    4.90999985    2.40000010
   19.13166618  200.85400391    4.90999985    1.88000000
   19.13500023  134.44200134    4.90999985    1.86000001
   19.13805580  223.86799622    4.90999985    2.15000010
   19.14138794   -1.00000000    4.90999985    1.83000004
   19.14444351   47.63380051    4.90999985    1.69000006
   19.14777756  194.31199646    4.90999985    1.86000001
   19.15111160  177.05700684    4.90999985    1.94000006
   19.15694427  177.05700684    4.90999985    2.01999998
   19.16110992  222.38499451    4.90999985    1.98000002
   19.16444397  197.07000732    4.90999985    2.00000000
   19.16749954  153.70700073    4.90999985    2.01999998
   19.17083359  133.62100220    4.90999985    2.07999992
   19.17416573  144.17199707    4.90999985    2.15000010
   19.17722130  127.19300079    4.90999985    2.26999998
   19.18055534  136.88600159    4.90999985    2.32999992
   19.18361092  134.52799988    4.90999985    2.07999992
   19.18694305  259.06100464    4.90999985    2.01999998
   19.19027710  192.39900208    4.90999985    2.01999998
   19.19333267  124.44599915    4.90999985    1.86000001
   19.19444275  116.43299866    4.90999985    1.80999994
   19.19972038  116.43299866    4.90999985    1.76999998
   19.20388985  345.07199097    4.90999985    1.91999996
   19.20722389  289.95098877    4.90999985    1.94000006
   19.21055603  179.76199341    4.90999985    1.98000002
   19.22805595  155.49000549    4.90999985    2.26999998
   19.23055649  113.98999786    4.90999985    2.30999994
   19.23361206  109.88800049    4.90999985    2.34999990
   19.23694420  114.18800354    4.90999985    2.39000010
   19.24277878  114.18800354    4.90999985    2.36999989
   19.24694443  103.86100006    4.90999985    2.39000010
   19.25027847  107.16100311    4.90999985    2.39000010
   19.25333405  104.55799866    4.90999985    2.36999989
   19.25666618  117.15499878    4.90999985    2.40000010
   19.26000023  102.33200073    4.90999985    2.42000008
   19.26138878  107.87799835    4.90999985    2.40000010
   19.26333427  112.77300262    4.90999985    2.40000010
   19.26666641  105.49500275    4.90999985    2.42000008
   19.27000046  111.00700378    4.90999985    2.44000006
   19.27305603  105.02100372    4.90999985    2.42000008
   19.27638817  114.38899994    4.90999985    2.42000008
   19.27944374  110.68299866    4.90999985    2.42000008
   19.28583336  110.68299866    4.76000023    2.57999992
   19.28972244  110.03900146    3.99000001    2.59999990
   19.29305458  106.63600159    3.70000005    2.61999989
   19.29472160  105.22000122    3.50000000    2.59999990
   19.29666710  109.91699982    3.45000005    2.59999990
   19.29999924   93.73850250    3.28999996    2.61999989
   19.30333328  121.04900360    3.16000009    2.59999990
   19.30638885  115.28399658    3.03999996    2.61999989
   19.30972099  104.66699982    2.93000007    2.59999990
   19.31305504  109.46199799    2.84999990    2.61999989
   19.31611061  109.04699707    2.84999990    2.61999989
   19.31944466  119.86100006    2.84999990    2.64000010
   19.32250023  108.79399872    2.57999992    2.61999989
   19.32861137  108.79399872    2.48000002    2.61999989
   19.33277893  108.52100372    2.40000010    2.64000010
   19.33583450  119.24400330    2.39000010    2.61999989
   19.33916664  109.02100372    2.40000010    2.61999989
   19.34250069  102.86399841    2.69000006    2.61999989
   19.34555626  101.36299896    3.78999996    2.61999989
   19.34889030  108.44899750    4.90999985    2.61999989
   19.35194397  108.92700195    4.90999985    2.64000010
   19.35527802  110.48000336    4.90999985    2.64000010
   19.35861206  114.47200012    4.90999985    2.59999990
   19.36138916  112.96900177    4.90999985    2.57999992
   19.36194420  111.43199921    4.90999985    2.55999994
   19.36527824  110.89700317    4.90999985    2.53999996
   19.37138939  110.89700317    4.90999985    2.51999998
   19.37555504  108.43499756    4.90999985    2.50000000
   19.37888908  119.01200104    4.90999985    2.50000000
   19.38194466  102.04799652    4.90999985    2.53999996
   19.38527679  115.56300354    4.90999985    2.55999994
   19.38833237  121.37300110    4.90999985    2.55999994
   19.39166641  114.00800323    4.90999985    2.53999996
   19.39472198  121.40200043    4.90999985    2.51999998
   19.39527702  114.40599823    4.90999985    2.48000002
   19.39861107  101.58799744    4.90999985    2.46000004
   19.40194321  120.37200165    4.90999985    2.39000010
   19.40499878  126.41300201    4.90999985    2.32999992
   19.40833282  107.85299683    4.90999985    2.30999994
   19.41416550  107.85299683    4.90999985    2.19000006
   19.41833305  149.67300415    4.90999985    2.34999990
   19.42166519  130.63699341    4.90999985    2.39000010
   19.42472076  110.54499817    4.90999985    2.51999998
   19.42805481  138.23100281    4.90999985    2.32999992
   19.42833328  130.54299927    4.90999985    2.32999992
   19.43166542  120.51999664    4.90999985    2.25000000
   19.43499947  118.88300323    4.90999985    2.36999989
   19.43805504  143.55400085    4.90999985    2.40000010
   19.44138718  109.83899689    4.90999985    2.42000008
   19.44444275  111.25700378    4.90999985    2.46000004
   19.44777679  133.16400146    4.90999985    2.40000010
   19.45111275  107.82800293    4.90999985    2.36999989
   19.45722389  107.82800293    4.90999985    2.28999996
   19.46138954  146.23800659    4.90999985    2.25000000
   19.46166801  132.87600708    4.90999985    2.25000000
   19.46500015  121.11000061    4.90999985    2.32999992
   19.46833420  109.16600037    4.90999985    2.30999994
   19.47138977  148.71499634    4.90999985    2.11999989
   19.47472191  186.17900085    4.90999985    2.03999996
   19.47777748  150.21400452    4.90999985    2.03999996
   19.48111153  148.65800476    4.90999985    2.15000010
   19.48444557  152.75500488    4.90999985    2.25000000
   19.48750114  140.35299683    4.90999985    2.19000006
   19.49083328  143.12399292    4.90999985    2.28999996
   19.49416733  148.93200684    4.90999985    2.32999992
   19.49472237  131.71299744    4.90999985    2.36999989
   19.50000000  131.71299744    4.90999985    1.96000004
   19.50416756  134.37800598    4.90999985    1.83000004
   19.50722313  339.28900146    4.90999985    1.88000000
   19.51055527  216.17100525    4.90999985    1.98000002
   19.51388931  266.77600098    4.90999985    2.09999990
   19.51694489  168.33999634    4.90999985    2.23000002
   19.52027702  164.72500610    4.90999985    2.21000004
   19.52333260  131.07299805    4.90999985    2.28999996
   19.52666664  120.47100067    4.90999985    2.32999992
   19.52805519  130.35800171    4.90999985    2.34999990
   19.53027725  137.79600525    4.90999985    2.32999992
   19.53361130  188.77299500    4.90999985    2.25000000
   19.53694344  128.45700073    4.90999985    2.23000002
   19.54277802  128.45700073    4.90999985    2.32999992
   19.54694366  194.29200745    4.90999985    2.07999992
   19.55027771  163.25999451    4.90999985    1.75000000
   19.55333328   -1.00000000   -1.00000000   -1.00000000
   19.55666542  155.25799561    4.90999985    1.85000002
   19.55972099  149.22200012    4.90999985    1.71000004
   19.56333351   -1.00000000    4.90999985    1.64999998
   19.56666756  183.58399963    4.90999985    1.88000000
   19.56972313  143.29400635    4.90999985    2.05999994
   19.57305717  223.51300049    4.90999985    1.94000006
   19.57638931  149.70799255    4.90999985    2.07999992
   19.57944489   98.14279938    4.90999985    2.01999998
   19.58555603   98.14279938    4.90999985    2.00000000
   19.58972359  171.18499756    4.90999985    2.21000004
   19.59305573  194.05400085    4.90999985    2.23000002
   19.59472275  226.17799377    4.90999985    2.26999998
   19.59638977  153.68499756    4.90999985    1.83000004
   19.59972191  320.83300781    4.90999985    2.05999994
   19.60305595   88.95390320    4.90999985    2.01999998
   19.60611153  152.52200317    4.90999985    2.17000008
   19.60944557  156.09100342    4.90999985    2.25000000
   19.61277771  357.53698730    4.90999985    2.07999992
   19.61583328  149.78999329    4.90999985    1.98000002
   19.61916733  135.90600586    4.90999985    2.36999989
   19.62222290  146.89599609    4.90999985    2.39000010
   19.62861061  146.89599609    4.90999985    1.76999998
   19.63249969   -1.00000000    4.90999985    1.19000006
   19.63583374   84.53019714    4.90999985    0.83999997
   19.63916588   -1.00000000    4.90999985    1.38000000
   19.64222145   81.19689941    4.90999985    0.75000000
   19.64555550   -1.00000000    4.90999985    1.05999994
   19.64888954   -1.00000000    4.90999985    0.69000000
   21.13944435   -1.00000000   -1.00000000   -1.00000000
   22.43972206   -1.00000000   -1.00000000   -1.00000000
