    HOUR (UT)   FLARE FACTOR    SKY TESTER    SUN TESTER
   11.74638939   -1.00000000   -1.00000000   -1.00000000
   11.77416611  209.04800415    1.83000004    2.25000000
   11.77750015  203.30700684    1.83000004    2.26999998
   11.78083324  203.58200073    1.83000004    2.26999998
   11.78416729  212.84500122    1.85000002    2.26999998
   11.78722286  220.42599487    1.86000001    2.26999998
   11.79055595  199.04699707    1.86000001    2.26999998
   11.79472256  199.04699707    1.86000001    2.25000000
   11.79888916  203.01300049    1.86000001    2.28999996
   11.80194473  205.95100403    1.86000001    2.26999998
   11.80527782  205.77299500    1.85000002    2.28999996
   11.80749989  207.03999329    1.85000002    2.28999996
   11.80888939  205.12199402    1.83000004    2.28999996
   11.81222248  202.72200012    1.80999994    2.28999996
   11.81527805  213.00900269    1.78999996    2.28999996
   11.81861115  186.07000732    1.76999998    2.28999996
   11.82194424  198.40499878    1.76999998    2.28999996
   11.82527733  193.49200439    1.75000000    2.28999996
   11.82833290  194.25799561    1.73000002    2.30999994
   11.83166695  188.96099854    1.71000004    2.30999994
   11.83749962  188.96099854    1.66999996    2.30999994
   11.84166622  227.03399658    1.66999996    2.30999994
   11.84472179  212.25000000    1.64999998    2.30999994
   11.84805489  227.21099854    1.64999998    2.30999994
   11.85138893  209.31799316    1.64999998    2.30999994
   11.85472298  208.56100464    1.64999998    2.30999994
   11.85777855  199.24899292    1.64999998    2.30999994
   11.86111164  205.35400391    1.64999998    2.32999992
   11.86444473  205.49499512    1.64999998    2.32999992
   11.86750031  224.94500732    1.66999996    2.32999992
   11.87083340  225.45399475    1.66999996    2.32999992
   11.87388897  206.66700745    1.69000006    2.32999992
   11.87444496  201.83900452    1.69000006    2.32999992
   11.88027763  201.83900452    1.71000004    2.32999992
   11.88444424  223.56599426    1.73000002    2.32999992
   11.88777733  199.84399414    1.73000002    2.32999992
   11.89083290  225.21400452    1.75000000    2.32999992
   11.89416695  221.67399597    1.75000000    2.32999992
   11.89750004  221.63900757    1.76999998    2.32999992
   11.90055561  222.96600342    1.76999998    2.32999992
   11.90388870  208.08999634    1.78999996    2.32999992
   11.90722179  191.85499573    1.80999994    2.32999992
   11.90777779  206.86799622    1.80999994    2.32999992
   11.91083336  180.13000488    1.78999996    2.34999990
   11.91416645  216.09700012    1.78999996    2.32999992
   11.91722298  206.30599976    1.78999996    2.32999992
   11.92333412  206.30599976    1.76999998    2.34999990
   11.92722225  182.43600464    1.71000004    2.34999990
   11.93055630  201.53799438    1.71000004    2.34999990
   11.93388939  183.75300598    1.71000004    2.34999990
   11.93694496  173.82000732    1.66999996    2.36999989
   11.94027805  209.14100647    1.61000001    2.36999989
   11.94111156  194.74000549    1.60000002    2.36999989
   11.94388866  196.65499878    1.61000001    2.36999989
   11.94722271  196.21000671    1.60000002    2.36999989
   11.95027733  195.36500549    1.58000004    2.34999990
   11.95361137  218.09300232    1.58000004    2.36999989
   11.95694447  205.73599243    1.58000004    2.39000010
   11.96000004  230.64500427    1.55999994    2.39000010
   11.96611118  230.64500427    1.55999994    2.39000010
   11.97027779  176.02699280    1.58000004    2.39000010
   11.97333336  176.55200195    1.58000004    2.39000010
   11.97444439  171.08799744    1.58000004    2.39000010
   11.97694397  181.38299561    1.55999994    2.39000010
   11.98027706  194.69999695    1.58000004    2.39000010
   11.98333359  184.04400635    1.58000004    2.39000010
   11.98666668  178.35400391    1.55999994    2.39000010
   11.99000072  195.53599548    1.58000004    2.39000010
   11.99305534  184.87300110    1.58000004    2.40000010
   11.99638939  165.47999573    1.58000004    2.39000010
   11.99972248  180.57200623    1.60000002    2.40000010
   12.00277805  176.35699463    1.60000002    2.40000010
   12.00888920  176.35699463    1.61000001    2.39000010
   12.01305580  176.30200195    1.61000001    2.40000010
   12.01638889  182.37300110    1.61000001    2.40000010
   12.01944447  177.46299744    1.61000001    2.39000010
   12.02277756  184.16999817    1.61000001    2.40000010
   12.02611065  173.14799500    1.61000001    2.40000010
   12.02916622  174.85600281    1.61000001    2.40000010
   12.03249931  168.28599548    1.61000001    2.40000010
   12.03555584  162.91099548    1.61000001    2.44000006
   12.03888893  192.34700012    1.61000001    2.40000010
   12.04111195  178.88699341    1.60000002    2.40000010
   12.04250050  178.41799927    1.60000002    2.40000010
   12.04583359  174.02099609    1.60000002    2.40000010
   12.05166721  174.02099609    1.58000004    2.40000010
   12.05583382  171.80700684    1.58000004    2.42000008
   12.05916691  166.35499573    1.55999994    2.40000010
   12.06222248  170.49400330    1.53999996    2.42000008
   12.06583309  172.21400452    1.53999996    2.42000008
   12.06888866  182.54699707    1.51999998    2.42000008
   12.07222176  193.14999390    1.51999998    2.42000008
   12.07444477  164.07099915    1.51999998    2.42000008
   12.07583332  168.75399780    1.51999998    2.42000008
   12.07916641  180.09100342    1.50000000    2.42000008
   12.08222198  164.00000000    1.46000004    2.42000008
   12.08555508  171.56700134    1.48000002    2.44000006
   12.08888817  157.40800476    1.46000004    2.44000006
   12.09444427  157.40800476    1.46000004    2.44000006
   12.09861088  167.41099548    1.46000004    2.44000006
   12.10194492  164.87500000    1.46000004    2.46000004
   12.10527802  176.58299255    1.48000002    2.44000006
   12.10805607  168.69500732    1.46000004    2.44000006
   12.10888958  162.21099854    1.48000002    2.44000006
   12.11222267  165.58700562    1.48000002    2.44000006
   12.11527824  157.64500427    1.46000004    2.46000004
   12.11861134  155.36700439    1.48000002    2.46000004
   12.12194443  160.78100586    1.48000002    2.44000006
   12.12500000  158.12600708    1.48000002    2.44000006
   12.12833309  168.09199524    1.48000002    2.46000004
   12.13138866  213.57899475    1.48000002    2.46000004
   12.13749981  213.57899475    1.48000002    2.46000004
   12.14166641  178.12399292    1.48000002    2.46000004
   12.14472198  161.49899292    1.48000002    2.46000004
   12.14805508  165.15400696    1.48000002    2.46000004
   12.15111065  162.70799255    1.48000002    2.46000004
   12.15444374  170.64599609    1.46000004    2.46000004
   12.15777779  171.39399719    1.46000004    2.48000002
   12.16083336  166.12500000    1.46000004    2.46000004
   12.16416645  173.36500549    1.44000006    2.46000004
   12.16750050  164.67599487    1.44000006    2.46000004
   12.17055607  173.63600159    1.41999996    2.48000002
   12.17388916  164.50900269    1.41999996    2.48000002
   12.17472267  155.47099304    1.41999996    2.46000004
   12.18027782  155.47099304    1.41999996    2.48000002
   12.18444443  194.39399719    1.41999996    2.48000002
   12.18750000  194.94799805    1.41999996    2.48000002
   12.19083309  204.80200195    1.39999998    2.48000002
   12.19416714  188.14799500    1.39999998    2.48000002
   12.19722271  197.82099915    1.39999998    2.46000004
   12.20055580  194.88400269    1.39999998    2.46000004
   12.20361137  173.24099731    1.39999998    2.48000002
   12.20722198  191.13999939    1.38000000    2.48000002
   12.20805550  179.49000549    1.38000000    2.48000002
   12.21083355  172.91499329    1.36000001    2.48000002
   12.21416664  170.08500671    1.34000003    2.48000002
   12.21722221  176.81799316    1.34000003    2.48000002
   12.22305489  176.81799316    1.34000003    2.48000002
   12.22722149  189.44900513    1.33000004    2.50000000
   12.23055553  195.72099304    1.33000004    2.50000000
   12.23361111  182.66600037    1.33000004    2.48000002
   12.23694515  161.62800598    1.33000004    2.48000002
   12.24027824  171.13299561    1.36000001    2.50000000
   12.24138927  183.11900330    1.36000001    2.50000000
   12.24361134  175.36799622    1.36000001    2.50000000
   12.24694443  180.83500671    1.38000000    2.50000000
   12.25027752  180.01800537    1.36000001    2.50000000
   12.25333309  180.33599854    1.39999998    2.51999998
   12.25666714  158.31900024    1.39999998    2.50000000
   12.26000023  173.21899414    1.41999996    2.48000002
   12.26583290  173.21899414    1.41999996    2.48000002
   12.26999950  188.06900024    1.46000004    2.50000000
   12.27333355  189.78900146    1.46000004    2.50000000
   12.27472210  180.65699768    1.46000004    2.50000000
   12.27694416  188.86300659    1.46000004    2.50000000
   12.28027725  186.85400391    1.46000004    2.50000000
   12.28333378  186.99499512    1.48000002    2.50000000
   12.28666687  193.11900330    1.48000002    2.51999998
   12.29000092  196.37300110    1.46000004    2.51999998
   12.29305553  165.93499756    1.44000006    2.50000000
   12.29638958  187.41900635    1.44000006    2.51999998
   12.29972267  177.55499268    1.44000006    2.50000000
   12.30277824  187.91400146    1.41999996    2.51999998
   12.30888939  187.91400146    1.38000000    2.51999998
   12.31305599  181.97099304    1.38000000    2.51999998
   12.31611156  188.78799438    1.38000000    2.51999998
   12.31944466  186.22300720    1.36000001    2.53999996
   12.32250023  186.88299561    1.36000001    2.53999996
   12.32583332  185.48599243    1.36000001    2.55999994
   12.32916641  192.04499817    1.36000001    2.53999996
   12.33222198  192.14100647    1.36000001    2.53999996
   12.33555508  192.55499268    1.36000001    2.53999996
   12.33888817  188.68200684    1.36000001    2.51999998
   12.34138870  179.80499268    1.36000001    2.53999996
   12.34222221  165.90600586    1.36000001    2.53999996
   12.34555531  171.77600098    1.34000003    2.53999996
   12.35166740  171.77600098    1.34000003    2.53999996
   12.35583401  172.32499695    1.34000003    2.55999994
   12.35888958  179.44500732    1.34000003    2.55999994
   12.36222267  196.83700562    1.34000003    2.55999994
   12.36555576  195.07699585    1.34000003    2.53999996
   12.36888885  194.15400696    1.36000001    2.55999994
   12.37194443  193.57000732    1.36000001    2.53999996
   12.37472248  194.57099915    1.36000001    2.53999996
   12.37555599  186.28199768    1.36000001    2.53999996
   12.37888908  172.58799744    1.36000001    2.53999996
   12.38222218  180.70199585    1.36000001    2.53999996
   12.38527775  184.68899536    1.34000003    2.53999996
   12.38861084  184.85600281    1.36000001    2.53999996
   12.39444447  184.85600281    1.34000003    2.55999994
   12.39861107  189.20100403    1.33000004    2.53999996
   12.40194416  192.12600708    1.33000004    2.53999996
   12.40499973  182.93200684    1.30999994    2.55999994
   12.40805531  187.25199890    1.28999996    2.55999994
   12.40861034  181.78399658    1.28999996    2.53999996
   12.41194439  186.25799561    1.28999996    2.55999994
   12.41527748  178.59700012    1.30999994    2.55999994
   12.41833401  173.97000122    1.28999996    2.55999994
   12.42166710  184.06100464    1.28999996    2.55999994
   12.42472267  177.57099915    1.26999998    2.55999994
   12.42805576  187.99499512    1.25000000    2.55999994
   12.43138885  186.60600281    1.23000002    2.55999994
   12.43722248  186.60600281    1.23000002    2.57999992
   12.44138908  180.00399780    1.21000004    2.57999992
   12.44472218  185.69400024    1.21000004    2.55999994
   12.44805527  187.36900330    1.21000004    2.57999992
   12.45111084  184.77999878    1.21000004    2.57999992
   12.45444393  185.25000000    1.23000002    2.57999992
   12.45749950  183.05799866    1.23000002    2.57999992
   12.46083355  183.44700623    1.23000002    2.57999992
   12.46416664  187.72500610    1.23000002    2.59999990
   12.46722221  191.72000122    1.23000002    2.55999994
   12.47055531  191.71200562    1.23000002    2.57999992
   12.47388840  179.17599487    1.23000002    2.57999992
   12.47472191  177.18800354    1.23000002    2.57999992
   12.48027706  177.18800354    1.23000002    2.57999992
   12.48444462  188.82699585    1.25000000    2.57999992
   12.48750019  210.18200684    1.25000000    2.57999992
   12.49083328  181.75399780    1.25000000    2.57999992
   12.49388885  178.68299866    1.26999998    2.57999992
   12.49722290  189.23500061    1.26999998    2.57999992
   12.50055599  191.99699402    1.26999998    2.59999990
   12.50361156  184.26699829    1.28999996    2.57999992
   12.50694466  183.94299316    1.28999996    2.57999992
   12.50805569  183.67799377    1.28999996    2.57999992
   12.51055527  178.64799500    1.33000004    2.57999992
   12.51388931  177.82400513    1.28999996    2.57999992
   12.51722240  177.73899841    1.30999994    2.55999994
   12.52305508  177.73899841    1.30999994    2.59999990
   12.52722168  178.05999756    1.38000000    2.57999992
   12.53027725  169.63400269    1.38000000    2.57999992
   12.53361130  168.80499268    1.39999998    2.59999990
   12.53694534  190.20700073    1.41999996    2.57999992
   12.54000092  172.71000671    1.41999996    2.57999992
   12.54138947  177.65499878    1.41999996    2.59999990
   12.54361153  168.00900269    1.44000006    2.59999990
   12.54694462  164.85800171    1.44000006    2.57999992
   12.55027771  173.07299805    1.44000006    2.57999992
   12.55333328  181.32400513    1.46000004    2.59999990
   12.55666733  162.18600464    1.44000006    2.57999992
   12.56000042  168.11500549    1.44000006    2.59999990
   12.56583309  168.11500549    1.39999998    2.59999990
   12.56999969  174.45199585    1.38000000    2.59999990
   12.57333374  179.66799927    1.36000001    2.59999990
   12.57472229  170.64599609    1.33000004    2.59999990
   12.57666683  178.39799500    1.33000004    2.59999990
   12.57999992  161.30599976    1.30999994    2.59999990
   12.58333302  180.19700623    1.28999996    2.61999989
   12.58638859  185.80000305    1.30999994    2.61999989
   12.58972168  178.64300537    1.28999996    2.59999990
   12.59305477  168.72300720    1.28999996    2.59999990
   12.59638882  177.43499756    1.28999996    2.59999990
   12.59944439  178.84800720    1.28999996    2.61999989
   12.60277843  165.97200012    1.28999996    2.59999990
   12.60861111  165.97200012    1.28999996    2.59999990
   12.61277771  174.45399475    1.28999996    2.61999989
   12.61611176  180.85200500    1.28999996    2.61999989
   12.61916637  180.57099915    1.26999998    2.61999989
   12.62250042  178.18200684    1.26999998    2.61999989
   12.62583351  186.81799316    1.26999998    2.61999989
   12.62888908  188.67199707    1.26999998    2.61999989
   12.63222218  186.10099792    1.26999998    2.61999989
   12.63555527  169.73500061    1.25000000    2.61999989
   12.63861084  178.77699280    1.23000002    2.61999989
   12.64138889  178.94200134    1.23000002    2.61999989
   12.64222240  182.55900574    1.23000002    2.61999989
   12.64555550  179.44299316    1.23000002    2.61999989
   12.65166664  179.44299316    1.19000006    2.61999989
   12.65583324  181.32899475    1.16999996    2.61999989
   12.65888882  175.80499268    1.16999996    2.61999989
   12.66222191  170.84700012    1.16999996    2.64000010
   12.66527748  182.41299438    1.14999998    2.61999989
   12.66861153  178.90199280    1.14999998    2.61999989
   12.67194462  173.02400208    1.14999998    2.64000010
   12.67472267  174.14799500    1.14999998    2.64000010
   12.67527771  166.49200439    1.14999998    2.64000010
   12.67861176  172.38400269    1.14999998    2.64000010
   12.68194485  171.36999512    1.14999998    2.64000010
   12.68500042  168.77400208    1.14999998    2.64000010
   12.68833351  178.75199890    1.14999998    2.64000010
   12.69444466  178.75199890    1.14999998    2.64000010
   12.69861126  166.81300354    1.14999998    2.64000010
   12.70194435  178.71800232    1.14999998    2.64000010
   12.70499992  162.24299622    1.14999998    2.66000009
   12.70805550  173.33099365    1.13000000    2.64000010
   12.70861053  171.05299377    1.14999998    2.61999989
   12.71194458  150.16700745    1.16999996    2.64000010
   12.71527767  162.05099487    1.16999996    2.66000009
   12.71833324  169.90800476    1.16999996    2.64000010
   12.72166634  163.24299622    1.19000006    2.64000010
   12.72499943  184.19900513    1.19000006    2.64000010
   12.72805500  180.87500000    1.19000006    2.64000010
   12.73138809  176.33200073    1.19000006    2.64000010
   12.73722267  176.33200073    1.19000006    2.66000009
   12.74138927  172.15699768    1.16999996    2.64000010
   12.74472237  162.24499512    1.16999996    2.66000009
   12.74777794  166.71499634    1.16999996    2.66000009
   12.75111103  168.31199646    1.16999996    2.64000010
   12.75416660  173.04400635    1.14999998    2.64000010
   12.75749969  169.13499451    1.14999998    2.64000010
   12.76083374  160.85800171    1.14999998    2.66000009
   12.76388931  156.63699341    1.14999998    2.66000009
   12.76722240  163.41600037    1.14999998    2.66000009
   12.77055550  171.36300659    1.11000001    2.66000009
   12.77361107  159.01800537    1.09000003    2.64000010
   12.77472210  183.79200745    1.09000003    2.64000010
   12.79527855  183.79200745    1.05999994    2.67000008
   12.79944515  169.01400757    1.05999994    2.66000009
   12.80277824  161.63600159    1.03999996    2.67000008
   12.80583382  168.43899536    1.01999998    2.67000008
   12.80805588  167.52000427    1.01999998    2.67000008
   12.80944443  168.59399414    1.01999998    2.66000009
   12.81277752  173.52699280    1.00000000    2.66000009
   12.81611156  162.14300537    1.00000000    2.67000008
   12.81916618  171.75500488    1.00000000    2.67000008
   12.82250023  173.51300049    1.00000000    2.67000008
   12.82583332  175.17900085    1.00000000    2.67000008
   12.82888889  175.88000488    1.01999998    2.67000008
   12.83222198  171.29800415    1.01999998    2.67000008
   12.83805561  171.29800415    0.98000002    2.67000008
   12.84222221  167.60000610    0.95999998    2.67000008
   12.84555531  163.97900391    0.95999998    2.67000008
   12.84861088  153.86799622    0.95999998    2.69000006
   12.85194492  167.85600281    0.95999998    2.67000008
   12.85527802  169.44099426    0.95999998    2.67000008
   12.85833359  162.94099426    0.95999998    2.67000008
   12.86166668  167.86500549    0.95999998    2.67000008
   12.86472225  165.14700317    0.94000000    2.67000008
   12.86805534  156.89700317    0.95999998    2.69000006
   12.87138939  170.78799438    0.95999998    2.67000008
   12.87444496  166.08700562    0.95999998    2.67000008
   12.87500000  165.08599854    0.95999998    2.67000008
   12.88083363  165.08599854    0.98000002    2.69000006
   12.88500023  164.27900696    0.98000002    2.69000006
   12.88833332  161.40299988    1.00000000    2.69000006
   12.89166641  164.86799622    1.00000000    2.69000006
   12.89472198  158.39900208    0.98000002    2.69000006
   12.89805508  163.42100525    1.00000000    2.67000008
   12.90138817  156.08299255    1.00000000    2.69000006
   12.90444374  156.40199280    1.01999998    2.67000008
   12.90777779  164.02999878    1.01999998    2.67000008
   12.90833282  162.62300110    1.01999998    2.67000008
   12.91138840  164.75399780    1.03999996    2.67000008
   12.91472149  158.61900330    1.07000005    2.69000006
   12.91777802  157.43499756    1.07000005    2.67000008
   12.92388916  157.43499756    1.07000005    2.67000008
   12.92805576  187.81399536    1.13000000    2.67000008
   12.93111134  204.66099548    1.13000000    2.69000006
   12.93444443  181.75999451    1.13000000    2.67000008
   12.93750000  230.27999878    1.13000000    2.69000006
   12.94111156  295.80499268    1.14999998    2.67000008
   12.94166660  242.94500732    1.14999998    2.67000008
   12.94472218  364.26699829    1.16999996    2.67000008
   12.94666672  330.71701050    1.16999996    2.67000008
   12.94805527  338.19000244    1.16999996    2.67000008
   12.94944477  378.95001221    1.16999996    2.67000008
   12.95083332  371.60699463    1.16999996    2.67000008
   12.95222187  363.44000244    1.16999996    2.67000008
   12.95361137  317.05599976    1.16999996    2.67000008
   12.95499992  302.16500854    1.14999998    2.67000008
   12.95638847  320.17898560    1.14999998    2.67000008
   12.95777798  316.97900391    1.13000000    2.67000008
   12.95916653  323.17898560    1.13000000    2.67000008
   12.96055508  384.52099609    1.11000001    2.67000008
   12.96194458  312.45199585    1.11000001    2.67000008
   12.96333313  296.60501099    1.09000003    2.69000006
   12.96472168  269.97100830    1.09000003    2.69000006
   12.96611118  345.68899536    1.07000005    2.69000006
   12.96749973  310.20401001    1.07000005    2.69000006
   12.96888828  317.93399048    1.05999994    2.69000006
   12.97027779  278.15200806    1.05999994    2.69000006
   12.97166634  235.34599304    1.05999994    2.69000006
   12.97166634  164.75399780    1.03999996    2.67000008
   12.97194386  158.61900330    1.07000005    2.69000006
   12.97194386  157.43499756    1.07000005    2.67000008
   12.97194386  187.81399536    1.13000000    2.67000008
   12.97222137  204.66099548    1.13000000    2.69000006
   12.97222137  181.75999451    1.13000000    2.67000008
   12.97222137  230.27999878    1.13000000    2.69000006
   12.97249985  295.80499268    1.14999998    2.67000008
   12.97249985  364.26699829    1.16999996    2.67000008
   12.97305489  265.66598511    1.05999994    2.67000008
   12.97638798  249.69200134    1.05999994    2.69000006
   12.97944355  228.20399475    1.05999994    2.69000006
   12.98277760  183.60099792    1.05999994    2.69000006
   12.98611164  216.70500183    1.05999994    2.69000006
   12.99250031  216.70500183    1.05999994    2.69000006
   12.99666691  160.52600098    1.05999994    2.69000006
   12.99972248  190.45300293    1.05999994    2.69000006
   13.00305557  170.95599365    1.05999994    2.69000006
   13.00555515  170.02699280    1.05999994    2.71000004
   13.00666714  180.37300110    1.05999994    2.71000004
   13.01000023  166.88900757    1.05999994    2.69000006
   13.01333332  160.64399719    1.05999994    2.69000006
   13.01638889  165.55400085    1.03999996    2.69000006
   13.01972198  166.19500732    1.03999996    2.69000006
   13.02305508  157.78700256    1.03999996    2.69000006
   13.02611065  163.16299438    1.01999998    2.67000008
   13.02944374  151.70300293    1.00000000    2.71000004
   13.03527832  151.70300293    1.00000000    2.71000004
   13.03944492  153.29699707    1.00000000    2.71000004
   13.04277802  164.25199890    0.98000002    2.71000004
   13.04583359  157.31700134    0.95999998    2.71000004
   13.04916668  156.89500427    0.95999998    2.71000004
   13.05222225  164.92100525    0.95999998    2.69000006
   13.05555534  155.73800659    0.92000002    2.71000004
   13.05888939  158.72700500    0.92000002    2.71000004
   13.06194496  165.79800415    0.89999998    2.71000004
   13.06527805  159.86300659    0.89999998    2.71000004
   13.06861115  162.47000122    0.88000000    2.71000004
   13.07166672  165.64999390    0.88000000    2.71000004
   13.07222176  158.97500610    0.88000000    2.71000004
   13.07805538  158.97500610    0.88000000    2.73000002
   13.08222198  176.13900757    0.88000000    2.73000002
   13.08555508  163.87699890    0.88000000    2.71000004
   13.08861065  163.02699280    0.86000001    2.73000002
   13.09194374  165.85000610    0.86000001    2.71000004
   13.09527779  167.96600342    0.86000001    2.73000002
   13.09833336  158.45899963    0.86000001    2.73000002
   13.10166740  161.66200256    0.83999997    2.71000004
   13.10500050  159.00599670    0.86000001    2.73000002
   13.10555553  164.24600220    0.83999997    2.71000004
   13.10861111  163.10899353    0.83999997    2.73000002
   13.11166668  165.44900513    0.83999997    2.73000002
   13.11500072  152.09700012    0.83999997    2.73000002
   13.12111092  152.09700012    0.83999997    2.73000002
   13.12500000  159.37800598    0.81999999    2.73000002
   13.12833309  175.87600708    0.81999999    2.73000002
   13.13166714  157.27499390    0.81999999    2.73000002
   13.13472176  174.01899719    0.81999999    2.73000002
   13.13805580  162.91900635    0.81999999    2.73000002
   13.13888836  161.72000122    0.81999999    2.73000002
   13.14166641  166.87800598    0.81999999    2.73000002
   13.14472198  163.59599304    0.83999997    2.73000002
   13.14805508  162.59399414    0.81999999    2.73000002
   13.15138817  171.29600525    0.83999997    2.71000004
   13.15444374  162.19999695    0.83999997    2.71000004
   13.15777779  171.66499329    0.83999997    2.73000002
   13.16388893  171.66499329    0.83999997    2.73000002
   13.16805553  170.15400696    0.83999997    2.75000000
   13.17111111  161.64199829    0.83999997    2.73000002
   13.17222214  176.25700378    0.83999997    2.73000002
   13.17500019  157.19900513    0.83999997    2.73000002
   13.17805576  168.52699280    0.83999997    2.73000002
   13.18138885  179.82800293    0.83999997    2.73000002
   13.18472195  168.38299561    0.81999999    2.73000002
   13.18777752  175.22399902    0.81999999    2.73000002
   13.19111156  170.14700317    0.81999999    2.73000002
   13.19444466  165.14199829    0.83999997    2.75000000
   13.19750023  166.83799744    0.83999997    2.75000000
   13.20083332  169.63499451    0.83999997    2.75000000
   13.20666695  169.63499451    0.81999999    2.75000000
   13.21083355  159.84800720    0.83999997    2.75000000
   13.21416664  162.00599670    0.81999999    2.75000000
   13.21722221  164.87500000    0.92000002    2.73000002
   13.22055531  174.66600037    0.88000000    2.75000000
   13.22361088  162.67700195    0.88000000    2.75000000
   13.22694397  172.83799744    0.88000000    2.75000000
   13.23027706  162.95399475    0.92000002    2.75000000
   13.23333359  171.04100037    0.81999999    2.75000000
   13.23666668  169.07699585    0.81999999    2.75000000
   13.23888874  164.69299316    0.81999999    2.73000002
   13.24027824  168.18899536    0.81999999    2.73000002
   13.24333382  167.59700012    0.81999999    2.75000000
   13.24944496  167.59700012    0.81999999    2.75000000
   13.25361156  172.69599915    0.81999999    2.75000000
   13.25694466  174.44999695    0.83999997    2.73000002
   13.26000023  168.45899963    0.83999997    2.75000000
   13.26333332  165.81700134    0.83999997    2.75000000
   13.26666641  168.86000061    0.83999997    2.73000002
   13.26972198  166.01400757    0.83999997    2.75000000
   13.27222157  158.93299866    0.86000001    2.75000000
   13.27361107  169.04200745    0.86000001    2.75000000
   13.27666664  163.79499817    0.86000001    2.75000000
   13.27999973  169.54499817    0.88000000    2.75000000
   13.28333378  164.11500549    0.88000000    2.75000000
   13.28638935  178.40499878    0.88000000    2.75000000
   13.29250050  178.40499878    0.89999998    2.75000000
   13.29638958  158.32800293    0.89999998    2.73000002
   13.29972267  162.17700195    0.92000002    2.75000000
   13.30305576  160.98699951    0.92000002    2.75000000
   13.30555534  165.54800415    0.94000000    2.75000000
   13.30666733  164.14500427    0.94000000    2.75000000
   13.30972195  160.94700623    0.94000000    2.73000002
   13.31305599  177.94299316    0.98000002    2.73000002
   13.31638908  177.35600281    1.01999998    2.75000000
   13.31944466  186.78799438    1.01999998    2.75000000
   13.32277775  169.57400513    0.95999998    2.75000000
   13.32611084  166.91000366    0.95999998    2.73000002
   13.32916641  175.74299622    0.98000002    2.73000002
   13.33527756  175.74299622    0.98000002    2.75000000
   13.33944416  160.68699646    0.95999998    2.75000000
   13.34249973  154.92700195    0.88000000    2.75000000
   13.34583282  174.50100708    0.86000001    2.75000000
   13.34916592  175.54100037    0.83999997    2.76999998
   13.35222244  170.53999329    0.81999999    2.76999998
   13.35555553  171.81599426    0.80000001    2.75000000
   13.35861111  174.22799683    0.80000001    2.75000000
   13.36194515  159.11099243    0.80000001    2.76999998
   13.36527824  167.10800171    0.79000002    2.76999998
   13.36833382  167.30900574    0.80000001    2.76999998
   13.37166691  173.35400391    0.79000002    2.76999998
   13.37222195  158.24000549    0.79000002    2.76999998
   13.37805557  158.24000549    0.80000001    2.76999998
   13.38222218  171.75799561    0.80000001    2.78999996
   13.38555527  168.33000183    0.80000001    2.78999996
   13.38861084  175.20500183    0.80000001    2.76999998
   13.39194393  169.86599731    0.80000001    2.78999996
   13.39527798  165.69299316    0.81999999    2.76999998
   13.39833355  165.23300171    0.81999999    2.75000000
   13.40166664  161.69500732    0.81999999    2.76999998
   13.40499973  165.76600647    0.83999997    2.76999998
   13.40555477  158.50700378    0.83999997    2.76999998
   13.40861034  155.34700012    0.81999999    2.78999996
   13.41194439  160.66999817    0.83999997    2.76999998
   13.41499996  166.81100464    0.83999997    2.76999998
   13.42083359  166.81100464    0.88000000    2.76999998
   13.42500019  160.37199402    0.88000000    2.76999998
   13.42833328  159.30000305    0.88000000    2.76999998
   13.43138885  167.94700623    0.88000000    2.76999998
   13.43472195  164.77499390    0.88000000    2.78999996
   13.43805599  172.84700012    0.88000000    2.76999998
   13.43888855  171.24800110    0.88000000    2.76999998
   13.44166660  175.55999756    0.89999998    2.76999998
   13.44499969  166.66600037    0.88000000    2.76999998
   13.44805527  159.22200012    0.88000000    2.76999998
   13.45138836  171.72799683    0.88000000    2.76999998
   13.45444393  170.26899719    0.88000000    2.76999998
   13.45777798  171.65199280    0.89999998    2.76999998
   13.46361065  171.65199280    0.89999998    2.76999998
   13.46777725  189.64100647    0.88000000    2.76999998
   13.47111034  158.73300171    0.86000001    2.76999998
   13.47222137  196.88400269    0.86000001    2.76999998
   13.47472191  163.19999695    0.86000001    2.78999996
   13.47805500  188.03300476    0.86000001    2.78999996
   13.48111057  177.42799377    0.86000001    2.78999996
   13.48444462  175.80299377    0.86000001    2.76999998
   13.48750019  179.42199707    0.86000001    2.76999998
   13.49083328  176.78399658    0.86000001    2.76999998
   13.49416733  182.24499512    0.86000001    2.76999998
   13.49722290  179.89199829    0.83999997    2.78999996
   13.50055599  162.65499878    0.81999999    2.76999998
   13.50666714  162.65499878    0.80000001    2.78999996
   13.51083374  162.29499817    0.79000002    2.78999996
   13.51388931  168.37500000    0.79000002    2.76999998
   13.51722240  166.17199707    0.79000002    2.78999996
   13.52027798  168.62199402    0.79000002    2.78999996
   13.52361107  165.08900452    0.79000002    2.76999998
   13.52694416  158.70500183    0.79000002    2.78999996
   13.52999973  170.36900330    0.76999998    2.78999996
   13.53333378  171.56300354    0.76999998    2.78999996
   13.53666687  170.14999390    0.76999998    2.78999996
   13.53888893  164.59199524    0.75000000    2.78999996
   13.54027843  158.75100708    0.75000000    2.78999996
   13.54361153  167.12800598    0.75000000    2.78999996
   13.54944515  167.12800598    0.75000000    2.78999996
   13.55361176  163.00199890    0.76999998    2.78999996
   13.55666733  170.97000122    0.73000002    2.78999996
   13.56000042  190.78900146    0.70999998    2.78999996
   13.56333351  213.60099792    0.73000002    2.78999996
   13.56666660  194.09100342    0.73000002    2.78999996
   13.56972218  159.62300110    0.73000002    2.78999996
   13.57222176  205.84700012    0.70999998    2.78999996
   13.57333374  187.10600281    0.70999998    2.78999996
   13.57666683  184.91700745    0.70999998    2.78999996
   13.57972240  179.79499817    0.75000000    2.78999996
   13.58305550  166.56799316    0.75000000    2.78999996
   13.58611107  173.90400696    0.75000000    2.78999996
   13.59222221  173.90400696    0.73000002    2.78999996
   13.59638882  170.97200012    0.75000000    2.78999996
   13.59972191  169.75199890    0.73000002    2.78999996
   13.60277843  169.22599792    0.73000002    2.78999996
   13.60555553  166.02600098    0.73000002    2.80999994
   13.60638905  166.26800537    0.73000002    2.80999994
   13.60972214  161.52400208    0.75000000    2.78999996
   13.61277771  158.22799683    0.75000000    2.80999994
   13.61611176  164.57800293    0.75000000    2.78999996
   13.61916637  161.59899902    0.75000000    2.78999996
   13.62250042  171.04100037    0.73000002    2.78999996
   13.62583351  168.11199951    0.75000000    2.78999996
   13.62888908  169.69099426    0.73000002    2.78999996
   13.63500023  169.69099426    0.73000002    2.78999996
   13.63916683  159.11500549    0.73000002    2.80999994
   13.64249992  168.35699463    0.73000002    2.78999996
   13.64583302  159.50900269    0.75000000    2.78999996
   13.64888859  163.04899597    0.75000000    2.80999994
   13.65222168  154.54400635    0.75000000    2.78999996
   13.65527725  161.91400146    0.75000000    2.78999996
   13.65861034  164.08000183    0.73000002    2.78999996
   13.66194439  163.03999329    0.75000000    2.78999996
   13.66499996  165.42999268    0.73000002    2.80999994
   13.66833401  160.83599854    0.73000002    2.80999994
   13.67166710  173.11599731    0.73000002    2.78999996
   13.67222214  157.91600037    0.73000002    2.78999996
   13.67805576  157.91600037    0.75000000    2.80999994
   13.68222237  162.25300598    0.79000002    2.78999996
   13.68527794  154.31199646    0.80000001    2.78999996
   13.68861103  165.11999512    0.80000001    2.78999996
   13.69166660  164.38499451    0.80000001    2.80999994
   13.69499969  158.28700256    0.80000001    2.80999994
   13.69833374  173.79299927    0.79000002    2.78999996
   13.70138836  158.82699585    0.79000002    2.80999994
   13.70472240  165.19200134    0.83999997    2.80999994
   13.70555496  159.56799316    0.83999997    2.80999994
   13.70833302  171.86700439    0.83999997    2.80999994
   13.71166611  167.96699524    0.81999999    2.78999996
   13.71472168  160.70500183    0.83999997    2.78999996
   13.72083282  160.70500183    0.88000000    2.80999994
   13.72499943  161.54899597    0.88000000    2.78999996
   13.72805500  159.12600708    0.88000000    2.78999996
   13.73138809  154.41000366    0.88000000    2.78999996
   13.73472214  159.17399597    0.88000000    2.78999996
   13.73777771  157.01899719    0.88000000    2.78999996
   13.73888874  158.64100647    0.88000000    2.76999998
   13.74138927  158.47799683    0.88000000    2.78999996
   13.74472237  151.53500366    0.88000000    2.78999996
   13.74777794  164.71200562    0.88000000    2.78999996
   13.75111103  171.99899292    0.89999998    2.78999996
   13.75444412  167.61099243    0.89999998    2.80999994
   13.75777817  165.92999268    0.92000002    2.78999996
   13.76361084  165.92999268    0.88000000    2.78999996
   13.76777744  156.97000122    0.83999997    2.78999996
   13.77111053  159.68299866    0.80000001    2.80999994
   13.77222157  150.80200195    0.76999998    2.80999994
   13.77472210  149.62399292    0.70999998    2.82999992
   13.77805519  162.04400635    0.64999998    2.82999992
   13.78111076  156.79800415    0.64999998    2.80999994
   13.78444481  156.59199524    0.63000000    2.80999994
   13.78777790  163.91900635    0.63000000    2.82999992
   13.79083347  156.95199585    0.61000001    2.80999994
   13.81250000  156.95199585    0.58999997    2.82999992
   13.81666660  218.10200500    0.58999997    2.80999994
   13.81999969  203.31700134    0.58999997    2.82999992
   13.82305527  176.97700500    0.58999997    2.82999992
   13.82638836  205.31199646    0.61000001    2.82999992
   13.82972240  172.74299622    0.61000001    2.82999992
   13.83277798  204.46800232    0.61000001    2.80999994
   13.83611107  198.79400635    0.63000000    2.82999992
   13.83916664  191.75799561    0.64999998    2.82999992
   13.84249973  196.75700378    0.64999998    2.82999992
   13.84361076  209.60499573    0.67000002    2.80999994
   13.84611034  225.42599487    0.67000002    2.80999994
   13.84944439  209.34199524    0.69000000    2.82999992
   13.85527802  209.34199524    0.76999998    2.82999992
   13.85944462  186.85400391    0.76999998    2.82999992
   13.86250019  188.95599365    0.80000001    2.80999994
   13.86583328  209.91999817    0.86000001    2.80999994
   13.86916637  197.46299744    0.88000000    2.80999994
   13.87222195  185.46499634    0.88000000    2.80999994
   13.87555599  203.58399963    1.00000000    2.78999996
   13.87666702  196.23599243    1.00000000    2.78999996
   13.87916660  205.78199768    1.01999998    2.80999994
   13.88222218  199.21800232    1.01999998    2.80999994
   13.88555527  219.77400208    1.03999996    2.78999996
   13.88888836  194.72700500    1.01999998    2.78999996
   13.89194393  214.63400269    1.01999998    2.80999994
   13.89805508  214.63400269    0.92000002    2.78999996
   13.90222168  209.89599609    0.92000002    2.80999994
   13.90555477  200.80400085    0.92000002    2.80999994
   13.90861034  229.96499634    0.89999998    2.80999994
   13.91027737  213.28300476    0.88000000    2.80999994
   13.91222191  217.03700256    0.83999997    2.80999994
   13.91555500  250.06700134    0.81999999    2.82999992
   13.91861153  238.28399658    0.80000001    2.82999992
   13.92194462  219.89599609    0.83999997    2.82999992
   13.92527771  212.38400269    0.81999999    2.80999994
   13.92833328  258.54501343    0.80000001    2.80999994
   13.93166733  256.96099854    0.76999998    2.80999994
   13.93500042  253.68499756    0.75000000    2.82999992
   13.94083309  253.68499756    0.75000000    2.82999992
   13.94499969  261.84799194    0.73000002    2.80999994
   13.94833374  288.06298828    0.73000002    2.80999994
   13.95166683  238.06599426    0.70999998    2.82999992
   13.95472240  285.00000000    0.70999998    2.82999992
   13.95805550  267.15200806    0.70999998    2.82999992
   13.96111107  238.75199890    0.70999998    2.82999992
   13.96444416  243.97700500    0.70999998    2.82999992
   13.96777725  296.73800659    0.70999998    2.82999992
   13.97083282  268.52099609    0.67000002    2.80999994
   13.97416592  240.18699646    0.67000002    2.80999994
   13.97694397  259.18899536    0.69000000    2.82999992
   13.97777748  266.59600830    0.69000000    2.82999992
   13.98388958  266.59600830    0.70999998    2.80999994
   13.98777771  278.07400513    0.73000002    2.80999994
   13.99111176  244.51600647    0.73000002    2.80999994
   13.99444485  287.28399658    0.73000002    2.82999992
   13.99750042  272.70401001    0.73000002    2.82999992
   14.00083351  244.56700134    0.76999998    2.84999990
   14.00416660  278.81500244    0.79000002    2.84999990
   14.00722218  271.48800659    0.79000002    2.82999992
   14.01027775  272.57101440    0.79000002    2.82999992
   14.01083374  267.47698975    0.79000002    2.82999992
   14.01416683  303.77700806    0.95999998    2.80999994
   14.01611137  295.41598511    0.94000000    2.82999992
   14.01749992  280.53298950    0.92000002    2.82999992
   14.01888847  242.27099609    0.92000002    2.82999992
   14.01888847  271.48800659    0.79000002    2.82999992
   14.01916599  267.47698975    0.79000002    2.82999992
   14.01916599  303.77700806    0.95999998    2.80999994
   14.01916599  278.07400513    0.73000002    2.80999994
   14.01944447  244.51600647    0.73000002    2.80999994
   14.01944447  287.28399658    0.73000002    2.82999992
   14.01944447  272.70401001    0.73000002    2.82999992
   14.01972198  244.56700134    0.76999998    2.84999990
   14.01972198  278.81500244    0.79000002    2.84999990
   14.02027798  258.01199341    0.92000002    2.82999992
   14.02361107  258.94799805    0.95999998    2.82999992
   14.02666664  246.61700439    0.98000002    2.82999992
   14.02999973  271.55999756    1.00000000    2.80999994
   14.03333378  277.42001343    0.89999998    2.82999992
   14.03972244  277.42001343    0.89999998    2.80999994
   14.04388905  255.14100647    0.89999998    2.80999994
   14.04694462  246.52299500    0.81999999    2.82999992
   14.05027771  230.94700623    0.73000002    2.82999992
   14.05277824  242.52000427    0.73000002    2.82999992
   14.05416679  266.16699219    0.73000002    2.82999992
   14.05722237  245.87399292    0.73000002    2.84999990
   14.06055546  238.07499695    0.70999998    2.82999992
   14.06388950  239.36099243    0.70999998    2.82999992
   14.06694412  233.68600464    0.70999998    2.84999990
   14.07027817  212.26800537    0.70999998    2.84999990
   14.07333374  227.26899719    0.70999998    2.84999990
   14.07666683  213.99899292    0.69000000    2.82999992
   14.08249950  213.99899292    0.69000000    2.84999990
   14.08666611  211.34399414    0.69000000    2.84999990
   14.09000015  246.92300415    0.67000002    2.80999994
   14.09305477  218.46600342    0.64999998    2.84999990
   14.09638882  200.06900024    0.64999998    2.84999990
   14.09972191  235.02000427    0.64999998    2.82999992
   14.10277843  223.75799561    0.67000002    2.84999990
   14.10611153  191.02600098    0.67000002    2.82999992
   14.10916710  206.69799805    0.64999998    2.84999990
   14.11250019  199.21899414    0.64999998    2.84999990
   14.11583328  205.58500671    0.67000002    2.82999992
   14.11888885  200.62800598    0.67000002    2.84999990
   14.11944485  185.80200195    0.67000002    2.84999990
   14.12527752  185.80200195    0.67000002    2.84999990
   14.12944412  190.77999878    0.69000000    2.82999992
   14.13277817  197.58000183    0.69000000    2.84999990
   14.13611126  203.89799500    0.69000000    2.84999990
   14.13916683  214.74800110    0.69000000    2.84999990
   14.14249992  196.50999451    0.69000000    2.84999990
   14.14583302  168.52999878    0.70999998    2.84999990
   14.14888859  192.92999268    0.70999998    2.86999989
   14.15222168  159.78300476    0.70999998    2.84999990
   14.15277767  185.41799927    0.70999998    2.82999992
   14.15583324  212.39999390    0.70999998    2.84999990
   14.15916634  209.32299805    0.70999998    2.84999990
   14.16222191  193.66400146    0.70999998    2.84999990
   14.16833401  193.66400146    0.70999998    2.82999992
   14.17222214  180.49299622    0.73000002    2.84999990
   14.17555618  187.11399841    0.70999998    2.82999992
   14.17888927  172.94999695    0.70999998    2.82999992
   14.18194485  180.25500488    0.70999998    2.84999990
   14.18527794  169.25700378    0.70999998    2.84999990
   14.18611145  163.41799927    0.73000002    2.84999990
   14.18888855  167.71800232    0.73000002    2.84999990
   14.19222260  171.80099487    0.69000000    2.84999990
   14.19527817  183.33700562    0.69000000    2.84999990
   14.19861126  166.72900391    0.70999998    2.84999990
   14.20166683  155.58500671    0.69000000    2.84999990
   14.20499992  161.17399597    0.69000000    2.84999990
   14.21111107  161.17399597    0.67000002    2.84999990
   14.21527767  165.93699646    0.69000000    2.84999990
   14.21833324  157.93800354    0.67000002    2.84999990
   14.21944427  166.14500427    0.67000002    2.82999992
   14.22194386  164.13099670    0.67000002    2.82999992
   14.22527695  160.42399597    0.67000002    2.84999990
   14.22833252  162.35600281    0.67000002    2.84999990
   14.23166656  158.52000427    0.69000000    2.84999990
   14.23472214  158.90600586    0.67000002    2.84999990
   14.23805618  162.44700623    0.67000002    2.84999990
   14.24138927  158.15800476    0.69000000    2.84999990
   14.24444485  150.53300476    0.69000000    2.84999990
   14.24777794  159.41999817    0.69000000    2.84999990
   14.25388908  159.41999817    0.70999998    2.84999990
   14.25805569  169.33700562    0.70999998    2.84999990
   14.26138878  164.51199341    0.73000002    2.84999990
   14.26444435  160.35000610    0.75000000    2.84999990
   14.26777744  157.83000183    0.75000000    2.84999990
   14.27111053  161.68299866    0.80000001    2.84999990
   14.27416611  158.93899536    0.81999999    2.82999992
   14.27750015  165.46299744    0.80000001    2.84999990
   14.28083324  159.27499390    0.80000001    2.84999990
   14.28388977  163.76199341    0.80000001    2.84999990
   14.28611183  169.08299255    0.83999997    2.82999992
   14.28750038  159.08799744    0.83999997    2.84999990
   14.29083347  159.80900574    0.81999999    2.82999992
   14.29666710  159.80900574    0.81999999    2.84999990
   14.30083370  159.32099915    0.79000002    2.84999990
   14.30416679  161.65400696    0.79000002    2.84999990
   14.30722237  170.41600037    0.79000002    2.84999990
   14.31055546  164.03799438    0.76999998    2.84999990
   14.31388950  166.34700012    0.76999998    2.82999992
   14.31694412  160.37600708    0.73000002    2.84999990
   14.31944466  164.69700623    0.73000002    2.84999990
   14.32055569  168.85899353    0.73000002    2.84999990
   14.32388878  168.66499329    0.70999998    2.84999990
   14.32694435  166.71099854    0.70999998    2.84999990
   14.33027744  163.93899536    0.69000000    2.84999990
   14.33333302  168.27699280    0.64999998    2.84999990
   14.33972168  168.27699280    0.67000002    2.86999989
   14.34388828  160.37699890    0.64999998    2.86999989
   14.34694386  160.69999695    0.64999998    2.86999989
   14.35027790  164.13900757    0.64999998    2.86999989
   14.35277843  156.75399780    0.63000000    2.84999990
   14.35388947  162.75999451    0.63000000    2.86999989
   14.35722256  160.91999817    0.63000000    2.84999990
   14.36027813  162.55700684    0.63000000    2.86999989
   14.36361122  162.01400757    0.63000000    2.86999989
   14.36694431  162.97399902    0.63000000    2.84999990
   14.36999989  161.77099609    0.64999998    2.86999989
   14.37333393  159.33399963    0.63000000    2.86999989
   14.37638855  161.82299805    0.63000000    2.86999989
   14.38249969  161.82299805    0.63000000    2.86999989
   14.38666630  159.10099792    0.61000001    2.86999989
   14.38972187  163.91400146    0.64999998    2.86999989
   14.39305496  164.75700378    0.64999998    2.86999989
   14.39638901  167.74099731    0.67000002    2.84999990
   14.39944458  164.80400085    0.69000000    2.86999989
   14.40277767  173.83299255    0.69000000    2.86999989
   14.40611076  171.46600342    0.67000002    2.86999989
   14.40916634  164.33799744    0.67000002    2.84999990
   14.41249943  163.38000488    0.67000002    2.84999990
   14.41555500  169.48300171    0.69000000    2.86999989
   14.41888905  160.78199768    0.67000002    2.84999990
   14.41944504  156.89100647    0.67000002    2.84999990
   14.42527771  156.89100647    0.67000002    2.86999989
   14.42944431  165.01300049    0.64999998    2.86999989
   14.43277836  175.05599976    0.64999998    2.84999990
   14.43583298  167.37600708    0.64999998    2.84999990
   14.43916702  167.36799622    0.67000002    2.86999989
   14.44222260  161.25399780    0.64999998    2.86999989
   14.44555569  177.59500122    0.64999998    2.86999989
   14.44888878  170.09100342    0.64999998    2.86999989
   14.45194435  164.50900269    0.64999998    2.86999989
   14.45277786  172.85499573    0.64999998    2.86999989
   14.45555496  166.33799744    0.64999998    2.86999989
   14.45888901  165.91999817    0.64999998    2.86999989
   14.46194458  169.79400635    0.64999998    2.86999989
   14.46805477  169.79400635    0.61000001    2.84999990
   14.47222137  160.45399475    0.61000001    2.86999989
   14.47555542  174.38499451    0.58999997    2.86999989
   14.47861099  161.16700745    0.58999997    2.86999989
   14.48194408  170.28199768    0.58999997    2.86999989
   14.48527813  159.12699890    0.58999997    2.86999989
   14.48611164  166.18600464    0.58999997    2.86999989
   14.48888874  172.52900696    0.56999999    2.86999989
   14.49222279  164.44500732    0.56999999    2.86999989
   14.49527836  165.58399963    0.58999997    2.86999989
   14.49861145  160.37699890    0.56999999    2.86999989
   14.50194454  176.63499451    0.56999999    2.86999989
   14.50500011  164.67900085    0.56999999    2.86999989
   14.51111126  164.67900085    0.55000001    2.89000010
   14.51500034  160.67900085    0.55000001    2.86999989
   14.51833344  174.37899780    0.55000001    2.86999989
   14.51944447  173.33099365    0.55000001    2.86999989
   14.52194405  163.51800537    0.55000001    2.89000010
   14.52527714  170.77299500    0.55000001    2.86999989
   14.52833271  161.44799805    0.55000001    2.86999989
   14.53166676  175.47099304    0.55000001    2.89000010
   14.53500080  167.50399780    0.55000001    2.89000010
   14.53805637  173.53900146    0.55000001    2.86999989
   14.54138947  170.00500488    0.55000001    2.89000010
   14.54472256  163.45199585    0.55000001    2.86999989
   14.54777813  165.24299622    0.55000001    2.86999989
   14.55388927  165.24299622    0.55000001    2.86999989
   14.55805588  163.80099487    0.56999999    2.86999989
   14.56111145  165.93699646    0.56999999    2.86999989
   14.56444454  160.42300415    0.56999999    2.89000010
   14.56777763  156.72900391    0.56999999    2.86999989
   14.57083321  164.78599548    0.56999999    2.86999989
   14.57416630  161.56300354    0.56999999    2.86999989
   14.57722187  169.55499268    0.56999999    2.86999989
   14.58055592  171.86300659    0.56999999    2.86999989
   14.58388901  166.72900391    0.56999999    2.86999989
   14.58638859  178.16099548    0.56999999    2.86999989
   14.58749962  167.92399597    0.56999999    2.86999989
   14.59083271  159.34300232    0.55000001    2.86999989
   14.59666634  159.34300232    0.56999999    2.89000010
   14.60083389  182.06900024    0.56999999    2.89000010
   14.60416698  176.84100342    0.56999999    2.89000010
   14.60722256  180.17599487    0.56999999    2.86999989
   14.61055565  186.65100098    0.56999999    2.86999989
   14.61388969  177.12699890    0.58999997    2.89000010
   14.61694431  177.55099487    0.58999997    2.86999989
   14.61944485  183.35800171    0.58999997    2.86999989
   14.62055588  176.20899963    0.58999997    2.89000010
   14.62388897  174.82600403    0.61000001    2.86999989
   14.62694454  176.05499268    0.63000000    2.89000010
   14.63027763  171.84199524    0.61000001    2.89000010
   14.63361073  170.92300415    0.63000000    2.86999989
   14.63944435  170.92300415    0.67000002    2.86999989
   14.64361095  192.38600159    0.75000000    2.89000010
   14.64694405  175.64500427    0.76999998    2.86999989
   14.64999962  177.88499451    0.79000002    2.86999989
   14.65277767  179.19000244    0.79000002    2.86999989
   14.65361118  175.83799744    0.76999998    2.89000010
   14.65694427  176.23399353    0.76999998    2.89000010
   14.65999985  197.91999817    0.76999998    2.86999989
   14.66333294  261.85998535    0.76999998    2.86999989
   14.66666698  250.52099609    0.76999998    2.86999989
   14.66972256  330.17599487    0.75000000    2.86999989
   14.67194462  388.41101074    0.75000000    2.86999989
   14.67305565  325.36999512    0.76999998    2.89000010
   14.67444515  366.50399780    0.76999998    2.89000010
   14.67583370  361.77600098    0.76999998    2.89000010
   14.67722225  277.93301392    0.76999998    2.86999989
   14.67861176  314.54400635    0.76999998    2.86999989
   14.68000031  365.40399170    0.76999998    2.86999989
   14.68138885  373.41699219    0.76999998    2.89000010
   14.68277836  305.88400269    0.76999998    2.89000010
   14.68416691  308.07101440    0.76999998    2.89000010
   14.68555546  304.30499268    0.76999998    2.89000010
   14.68694496  331.17098999    0.79000002    2.86999989
   14.68833351  258.35900879    0.80000001    2.86999989
   14.68972206  267.35400391    0.76999998    2.86999989
   14.69111156  275.49499512    0.76999998    2.86999989
   14.69250011  226.52999878    0.76999998    2.86999989
   14.69277763  175.83799744    0.76999998    2.89000010
   14.69277763  176.23399353    0.76999998    2.89000010
   14.69277763  197.91999817    0.76999998    2.86999989
   14.69305515  261.85998535    0.76999998    2.86999989
   14.69305515  250.52099609    0.76999998    2.86999989
   14.69305515  330.17599487    0.75000000    2.86999989
   14.69333363  192.38600159    0.75000000    2.89000010
   14.69333363  175.64500427    0.76999998    2.86999989
   14.69333363  177.88499451    0.79000002    2.86999989
   14.69416714  255.13600159    0.76999998    2.86999989
   14.69722271  199.13999939    0.76999998    2.89000010
   14.70055580  224.33099365    0.76999998    2.89000010
   14.70361137  211.83200073    0.79000002    2.86999989
   14.70694447  191.82000732    0.75000000    2.89000010
   14.71333313  191.82000732    0.75000000    2.89000010
   14.71749973  189.66299438    0.75000000    2.86999989
   14.72083282  163.51100159    0.75000000    2.89000010
   14.72388840  177.38099670    0.75000000    2.86999989
   14.72638798  190.59899902    0.75000000    2.86999989
   14.72777748  193.75000000    0.73000002    2.86999989
   14.73083305  198.71099854    0.73000002    2.86999989
   14.73416710  192.61500549    0.73000002    2.86999989
   14.73750019  185.60099792    0.73000002    2.86999989
   14.74055576  196.01499939    0.73000002    2.89000010
   14.74388885  192.64700317    0.70999998    2.89000010
   14.74722290  196.38400269    0.70999998    2.86999989
   14.75027752  185.39900208    0.73000002    2.86999989
   14.75611115  185.39900208    0.75000000    2.89000010
   14.76027775  172.93200684    0.79000002    2.86999989
   14.76361084  189.72500610    0.79000002    2.86999989
   14.76694393  186.84100342    0.79000002    2.86999989
   14.76999950  167.39799500    0.79000002    2.86999989
   14.77333355  175.42900085    0.76999998    2.86999989
   14.77638817  183.35899353    0.76999998    2.86999989
   14.77972221  179.58599854    0.76999998    2.86999989
   14.88361073   -1.00000000   -1.00000000   -1.00000000
   14.98277760   -1.00000000   -1.00000000   -1.00000000
   15.12805557   -1.00000000   -1.00000000   -1.00000000
   15.16222191  160.51100159    0.56999999    2.91000009
   15.16555500  167.54600525    0.56999999    2.91000009
   15.16888905  174.09500122    0.56999999    2.91000009
   15.17194462  176.46800232    0.56999999    2.89000010
   15.17527771  165.02099609    0.58999997    2.91000009
   15.17833328  168.92500305    0.63000000    2.89000010
   15.18249989  168.92500305    0.64999998    2.89000010
   15.18666649  163.70700073    0.67000002    2.89000010
   15.19000053  171.69900513    0.67000002    2.91000009
   15.19305515  170.35800171    0.69000000    2.89000010
   15.19555569  160.89999390    0.69000000    2.86999989
   15.19694424  171.08999634    0.70999998    2.91000009
   15.19999981  178.50300598    0.70999998    2.89000010
   15.20333290  179.41000366    0.70999998    2.91000009
   15.20666695  182.44999695    0.73000002    2.91000009
   15.20972157  176.49899292    0.73000002    2.91000009
   15.21305561  174.03300476    0.75000000    2.89000010
   15.21638870  176.96000671    0.75000000    2.89000010
   15.21944427  172.90600586    0.75000000    2.89000010
   15.22555542  172.90600586    0.75000000    2.91000009
   15.22944355  165.10099792    0.75000000    2.89000010
   15.23277760  167.64599609    0.75000000    2.91000009
   15.23611164  156.81399536    0.73000002    2.91000009
   15.23916721  167.51199341    0.73000002    2.89000010
   15.24250031  185.63900757    0.75000000    2.89000010
   15.24583340  180.46299744    0.75000000    2.91000009
   15.24888897  171.46699524    0.75000000    2.91000009
   15.25222206  170.27900696    0.73000002    2.89000010
   15.25527763  164.55200195    0.75000000    2.91000009
   15.25861073  161.54299927    0.75000000    2.91000009
   15.26194477  169.42100525    0.76999998    2.89000010
   15.26249981  155.69999695    0.76999998    2.89000010
   15.26833344  155.69999695    0.73000002    2.89000010
   15.27250004  166.09300232    0.70999998    2.91000009
   15.27555561  171.37199402    0.70999998    2.91000009
   15.27888870  171.54499817    0.70999998    2.91000009
   15.28222179  187.24099731    0.70999998    2.89000010
   15.28527832  180.22500610    0.70999998    2.89000010
   15.28861141  167.33000183    0.70999998    2.91000009
   15.29166698  180.88099670    0.70999998    2.89000010
   15.29500008  175.28999329    0.69000000    2.91000009
   15.29583359  189.94599915    0.69000000    2.89000010
   15.29861164  194.87500000    0.67000002    2.89000010
   15.30194473  199.89900208    0.67000002    2.93000007
   15.30527782  168.00300598    0.67000002    2.91000009
   15.31111145  168.00300598    0.64999998    2.91000009
   15.31527805  169.28100586    0.64999998    2.91000009
   15.31861115  184.54699707    0.67000002    2.89000010
   15.32166672  198.27099609    0.64999998    2.91000009
   15.32499981  204.96200562    0.69000000    2.89000010
   15.32833290  210.90499878    0.64999998    2.89000010
   15.32916641  197.47099304    0.64999998    2.89000010
   15.33166695  227.49899292    0.64999998    2.91000009
   15.33500004  228.78300476    0.64999998    2.91000009
   15.33833313  194.28900146    0.67000002    2.91000009
   15.34138870  189.72799683    0.67000002    2.91000009
   15.34472179  215.30099487    0.69000000    2.91000009
   15.34777737  210.43699646    0.67000002    2.93000007
   15.35388947  210.43699646    0.69000000    2.91000009
   15.35805607  194.15400696    0.70999998    2.91000009
   15.36138916  223.32899475    0.69000000    2.91000009
   15.36250019  197.49000549    0.69000000    2.91000009
   15.36500072  209.22300720    0.69000000    2.91000009
   15.36833382  180.61199951    0.70999998    2.91000009
   15.37166691  179.91799927    0.69000000    2.91000009
   15.37472248  204.21000671    0.69000000    2.91000009
   15.37805557  225.93200684    0.69000000    2.93000007
   15.38138866  187.02799988    0.67000002    2.93000007
   15.38444424  210.73500061    0.67000002    2.93000007
   15.38777733  207.23800659    0.67000002    2.91000009
   15.39083290  181.25000000    0.67000002    2.91000009
   15.39694405  181.25000000    0.69000000    2.91000009
   15.40083313  193.38600159    0.69000000    2.91000009
   15.40416622  194.14999390    0.67000002    2.93000007
   15.40749931  198.07899475    0.64999998    2.93000007
   15.41055489  191.90899658    0.64999998    2.93000007
   15.41388893  187.10699463    0.64999998    2.93000007
   15.41722298  207.48399353    0.64999998    2.93000007
   15.42027855  183.89900208    0.69000000    2.91000009
   15.42361164  182.91499329    0.69000000    2.93000007
   15.42666721  189.24499512    0.70999998    2.91000009
   15.42916679  174.38900757    0.70999998    2.91000009
   15.43027782  186.48199463    0.70999998    2.91000009
   15.43361092  191.50500488    0.69000000    2.93000007
   15.43972206  191.50500488    0.69000000    2.91000009
   15.44388866  187.04100037    0.69000000    2.91000009
   15.44694424  187.17900085    0.70999998    2.91000009
   15.45027733  190.44500732    0.70999998    2.89000010
   15.45361137  185.24899292    0.73000002    2.93000007
   15.45666695  183.42500305    0.76999998    2.89000010
   15.46000004  186.56900024    0.76999998    2.91000009
   15.46249962  181.79200745    0.79000002    2.91000009
   15.46361065  187.50799561    0.79000002    2.89000010
   15.46694374  186.25599670    0.80000001    2.89000010
   15.47027779  179.35000610    0.80000001    2.91000009
   15.47333336  175.32000732    0.80000001    2.91000009
   15.47666645  182.71800232    0.81999999    2.93000007
   15.48249912  182.71800232    0.86000001    2.91000009
   15.48666668  166.51300049    0.86000001    2.91000009
   15.49000072  183.42500305    0.86000001    2.91000009
   15.49305534  165.12699890    0.86000001    2.93000007
   15.49583340  173.94099426    0.89999998    2.91000009
   15.49666691  184.58099365    0.88000000    2.89000010
   15.50000000  189.02600098    0.89999998    2.91000009
   15.50333309  175.83399963    0.92000002    2.91000009
   15.50638866  165.09500122    0.95999998    2.91000009
   15.50972176  167.62600708    0.94000000    2.91000009
   15.51277733  163.46600342    0.94000000    2.91000009
   15.51611137  174.04800415    0.94000000    2.91000009
   15.51944447  160.51899719    0.95999998    2.91000009
   15.52527714  160.51899719    0.86000001    2.91000009
   15.52944374  178.16299438    0.86000001    2.93000007
   15.53277779  169.18600464    0.86000001    2.91000009
   15.53583336  162.05700684    0.83999997    2.93000007
   15.53916740  173.16799927    0.83999997    2.93000007
   15.54250050  165.59399414    0.81999999    2.93000007
   15.54555607  164.56399536    0.80000001    2.91000009
   15.54888916  179.30000305    0.80000001    2.91000009
   15.55222225  169.11300659    0.80000001    2.89000010
   15.55527782  158.87899780    0.80000001    2.91000009
   15.55861092  169.16099548    0.80000001    2.91000009
   15.56166649  167.47300720    0.81999999    2.91000009
   15.56250000  165.08299255    0.83999997    2.91000009
   15.56833363  165.08299255    0.83999997    2.91000009
   15.57222176  170.47300720    0.95999998    2.91000009
   15.57583332  162.13900757    0.98000002    2.93000007
   15.57888889  171.86900330    0.98000002    2.93000007
   15.58222198  171.59199524    1.07000005    2.91000009
   15.58527756  169.56599426    1.11000001    2.89000010
   15.58861065  164.26100159    1.13000000    2.91000009
   15.59194374  175.56199646    1.19000006    2.91000009
   15.59499931  175.99800110    1.21000004    2.91000009
   15.59583282  168.14900208    1.21000004    2.91000009
   15.59861088  165.63299561    1.19000006    2.89000010
   15.60194492  179.38900757    1.16999996    2.89000010
   15.60527802  164.28900146    1.14999998    2.91000009
   15.61111164  164.28900146    1.03999996    2.91000009
   15.61527824  179.67199707    0.98000002    2.89000010
   15.61833382  168.28700256    0.95999998    2.91000009
   15.62166691  170.43200684    0.88000000    2.91000009
   15.62500000  169.80799866    0.88000000    2.91000009
   15.62805557  165.86000061    0.88000000    2.91000009
   15.62916660  172.92900085    0.88000000    2.91000009
   15.63166714  170.81100464    0.81999999    2.91000009
   15.63500023  163.14500427    0.80000001    2.91000009
   15.63833332  165.65600586    0.79000002    2.91000009
   15.64138889  180.82499695    0.75000000    2.91000009
   15.64472198  166.17700195    0.73000002    2.91000009
   15.64805508  164.45300293    0.73000002    2.91000009
   15.65388870  164.45300293    0.73000002    2.93000007
   15.65805531  172.63800049    0.70999998    2.93000007
   15.66138840  173.92799377    0.67000002    2.93000007
   15.66249943  173.57600403    0.67000002    2.93000007
   15.66472149  176.22200012    0.64999998    2.93000007
   15.66805553  174.31500244    0.64999998    2.93000007
   15.67138958  162.28399658    0.64999998    2.91000009
   15.67444515  170.40100098    0.64999998    2.91000009
   15.67777824  162.19900513    0.69000000    2.91000009
   15.68111134  172.91299438    0.73000002    2.93000007
   15.68416691  162.37399292    0.75000000    2.91000009
   15.68750000  170.81399536    0.88000000    2.93000007
   15.69083309  162.63099670    0.88000000    2.91000009
   15.69666672  162.63099670    0.88000000    2.91000009
   15.70083332  156.69400024    0.92000002    2.89000010
   15.70416641  172.96400452    0.94000000    2.91000009
   15.70722198  164.51899719    0.94000000    2.91000009
   15.71055508  169.93200684    0.95999998    2.91000009
   15.71388912  168.45300293    0.95999998    2.89000010
   15.71694374  167.00900269    0.98000002    2.91000009
   15.72027779  162.20500183    0.98000002    2.91000009
   15.72361088  169.31700134    0.95999998    2.89000010
   15.72666645  171.78399658    0.94000000    2.91000009
   15.72916603  161.00599670    0.92000002    2.91000009
   15.73027706  164.59300232    0.92000002    2.91000009
   15.73361111  172.45100403    0.92000002    2.93000007
   15.73972225  172.45100403    0.89999998    2.91000009
   15.74361134  166.46400452    0.86000001    2.91000009
   15.74694443  158.75500488    0.81999999    2.93000007
   15.75027752  162.43899536    0.81999999    2.91000009
   15.75333309  165.48399353    0.80000001    2.93000007
   15.75666714  163.69799805    0.80000001    2.93000007
   15.76000023  175.63200378    0.80000001    2.91000009
   15.76249981  162.74400330    0.81999999    2.94000006
   15.76333332  165.60000610    0.81999999    2.91000009
   15.76666641  171.18899536    0.81999999    2.93000007
   15.76999950  161.14599609    0.81999999    2.91000009
   15.77305508  174.42599487    0.80000001    2.91000009
   15.77638817  168.26699829    0.80000001    2.91000009
   15.78249931  168.26699829    0.76999998    2.91000009
   15.78666687  164.87300110    0.75000000    2.93000007
   15.78972244  158.57200623    0.75000000    2.93000007
   15.79305553  163.37100220    0.73000002    2.93000007
   15.79583359  167.23599243    0.70999998    2.91000009
   15.79666710  166.44799805    0.70999998    2.91000009
   15.80000019  159.45199585    0.70999998    2.93000007
   15.80333328  168.77900696    0.70999998    2.94000006
   15.80638885  163.37800598    0.73000002    2.94000006
   15.80972195  158.45700073    0.73000002    2.93000007
   15.81305599  167.95799255    0.70999998    2.91000009
   15.81611156  169.43600464    0.70999998    2.91000009
   15.81944466  166.82899475    0.69000000    2.93000007
   15.82527733  166.82899475    0.70999998    2.93000007
   15.82944393  160.55599976    0.70999998    2.93000007
   15.83277798  173.19099426    0.75000000    2.93000007
   15.83583260  168.94299316    0.75000000    2.93000007
   15.83916664  162.62399292    0.73000002    2.91000009
   15.84222221  165.93200684    0.80000001    2.93000007
   15.84555531  170.25900269    0.80000001    2.93000007
   15.84888840  171.05099487    0.81999999    2.91000009
   15.85194492  172.71000671    0.81999999    2.91000009
   15.85527802  170.57299805    0.81999999    2.91000009
   15.85861111  167.24200439    0.79000002    2.93000007
   15.86166668  165.17799377    0.79000002    2.93000007
   15.86250019  170.71400452    0.79000002    2.93000007
   15.86805534  170.71400452    0.79000002    2.93000007
   15.87222195  159.81900024    0.79000002    2.93000007
   15.87555599  171.42799377    0.79000002    2.91000009
   15.87861156  169.84700012    0.76999998    2.91000009
   15.88194466  159.96800232    0.76999998    2.93000007
   15.88527775  187.46299744    0.76999998    2.93000007
   15.88833332  156.11000061    0.79000002    2.91000009
   15.89166641  170.51100159    0.80000001    2.93000007
   15.89472198  175.01899719    0.81999999    2.91000009
   15.89583302  177.46099854    0.81999999    2.91000009
   15.89861107  195.54299927    0.83999997    2.89000010
   15.90166664  185.37899780    0.86000001    2.91000009
   15.90499973  203.46699524    0.81999999    2.93000007
   15.91083336  203.46699524    0.81999999    2.91000009
   15.91499996  242.64700317    0.81999999    2.91000009
   15.91833401  224.61000061    0.81999999    2.93000007
   15.92166710  228.91299438    0.79000002    2.93000007
   15.92472267  197.65800476    0.79000002    2.91000009
   15.92805576  240.89799500    0.76999998    2.91000009
   15.92916679  224.78799438    0.76999998    2.91000009
   15.93166733  215.57400513    0.79000002    2.93000007
   15.93472195  200.60400391    0.76999998    2.93000007
   15.93805599  191.82699585    0.79000002    2.91000009
   15.94111156  203.80999756    0.79000002    2.93000007
   15.94444466  213.81599426    0.79000002    2.93000007
   15.94777775  238.44700623    0.79000002    2.93000007
   15.95388889  238.44700623    0.76999998    2.93000007
   15.95805550  351.09799194    0.76999998    2.93000007
   15.96000004  327.16000366    0.76999998    2.93000007
   15.96138859  307.06100464    0.76999998    2.91000009
   15.96277714  280.39498901    0.76999998    2.91000009
   15.96416664  303.69799805    0.76999998    2.91000009
   15.96555519  297.78799438    0.76999998    2.91000009
   15.96694374  298.20001221    0.76999998    2.91000009
   15.96833324  301.64999390    0.75000000    2.91000009
   15.96972179  270.85998535    0.75000000    2.91000009
   15.97111034  286.05801392    0.70999998    2.93000007
   15.97249985  252.88099670    0.70999998    2.93000007
   15.97388840  236.80799866    0.70999998    2.93000007
   15.97388840  200.60400391    0.76999998    2.93000007
   15.97388840  191.82699585    0.79000002    2.91000009
   15.97416592  203.80999756    0.79000002    2.93000007
   15.97416592  213.81599426    0.79000002    2.93000007
   15.97416592  238.44700623    0.79000002    2.93000007
   15.97444439  351.09799194    0.76999998    2.93000007
   15.97444439  197.65800476    0.79000002    2.91000009
   15.97472191  240.89799500    0.76999998    2.91000009
   15.97472191  215.57400513    0.79000002    2.93000007
   15.97527695  256.63101196    0.69000000    2.93000007
   15.97861099  207.63999939    0.69000000    2.93000007
   15.98166656  236.82000732    0.70999998    2.93000007
   15.98500061  250.88299561    0.76999998    2.93000007
   15.98805618  238.72399902    0.79000002    2.93000007
   15.99472237  238.72399902    0.79000002    2.91000009
   15.99861145  207.88600159    0.83999997    2.91000009
   16.00194359  200.27600098    0.81999999    2.93000007
   16.00527763  187.83099365    0.80000001    2.91000009
   16.00777817  182.81300354    0.80000001    2.91000009
   16.00888824  182.56500244    0.80000001    2.93000007
   16.01222229  174.83299255    0.79000002    2.93000007
   16.01527786  189.36599731    0.76999998    2.93000007
   16.01861000  193.02600098    0.79000002    2.91000009
   16.02194405  196.10400391    0.79000002    2.93000007
   16.02499962  185.31100464    0.76999998    2.93000007
   16.02833366  176.51400757    0.76999998    2.93000007
   16.03166580  179.15899658    0.70999998    2.91000009
   16.03750038  179.15899658    0.75000000    2.93000007
   16.04166603  173.43099976    0.75000000    2.91000009
   16.04472160  166.32200623    0.73000002    2.93000007
   16.04805565  182.53599548    0.75000000    2.91000009
   16.05138779  163.32699585    0.75000000    2.93000007
   16.05444336  182.30700684    0.75000000    2.94000006
   16.05777740  179.33099365    0.73000002    2.93000007
   16.06110954  194.68600464    0.76999998    2.91000009
   16.06416512  186.56900024    0.79000002    2.93000007
   16.06750107  188.88099670    0.79000002    2.93000007
   16.07083511  192.33200073    0.80000001    2.93000007
   16.07389069  197.66099548    0.80000001    2.93000007
   16.07444572  217.22799683    0.80000001    2.93000007
   16.08027840  217.22799683    0.81999999    2.91000009
   16.08444595  195.61500549    0.86000001    2.93000007
   16.08777809  179.65100098    0.83999997    2.93000007
   16.09083366  191.73500061    0.86000001    2.91000009
   16.09416771  198.30200195    0.83999997    2.91000009
   16.09749985  183.68499756    0.83999997    2.93000007
   16.10055542  199.76800537    0.83999997    2.93000007
   16.10388947  190.70399475    0.81999999    2.91000009
   16.10694504  204.84899902    0.81999999    2.91000009
   16.10777855  197.89999390    0.81999999    2.93000007
   16.11083412  187.99299622    0.81999999    2.93000007
   16.11388969  199.19799805    0.81999999    2.93000007
   16.11722183  198.25599670    0.80000001    2.91000009
   16.12305641  198.25599670    0.76999998    2.93000007
   16.12722206  174.35000610    0.76999998    2.91000009
   16.13055611  194.29200745    0.76999998    2.94000006
   16.13388824  200.97500610    0.76999998    2.94000006
   16.13694382  189.96400452    0.76999998    2.94000006
   16.14027786  175.62800598    0.75000000    2.93000007
   16.14111137  173.25000000    0.75000000    2.93000007
   16.14388847  190.13800049    0.75000000    2.93000007
   16.14694405  196.00300598    0.75000000    2.93000007
   16.15027809  177.50300598    0.75000000    2.93000007
   16.15361023  179.60299683    0.73000002    2.93000007
   16.15666580  184.53900146    0.73000002    2.94000006
   16.15999985  181.77799988    0.70999998    2.94000006
   16.18027687   92.17340088    0.69000000    2.93000007
   16.18083191  111.59899902    0.69000000    2.93000007
   16.18416595  176.40100098    0.67000002    2.93000007
   16.18750000  183.77099609    0.67000002    2.91000009
   16.19055557  176.06799316    0.67000002    2.93000007
   16.19388771  192.96400452    0.63000000    2.93000007
   16.19694328  183.60600281    0.63000000    2.93000007
   16.20027924  178.92300415    0.63000000    2.93000007
   16.20361137  192.34399414    0.63000000    2.94000006
   16.20888901  192.34399414    0.61000001    2.94000006
   16.21305656  173.54299927    0.58999997    2.93000007
   16.21361160  183.92700195    0.58999997    2.93000007
   16.21666718  184.50300598    0.58999997    2.93000007
   16.22000122  176.83599854    0.58999997    2.91000009
   16.22333336  178.86099243    0.58999997    2.91000009
   16.22638893  172.75599670    0.67000002    2.93000007
   16.22972298  169.87600708    0.67000002    2.96000004
   16.23305511  173.29299927    0.67000002    2.93000007
   16.23611069  176.08500671    0.69000000    2.94000006
   16.23944473  178.25100708    0.69000000    2.94000006
   16.24277878  162.48699951    0.70999998    2.94000006
   16.24583435  172.66299438    0.73000002    2.93000007
   16.24694443  163.87899780    0.73000002    2.93000007
   16.25166702  163.87899780    0.76999998    2.91000009
   16.25583267  171.18400574    0.76999998    2.93000007
   16.25916672  174.86300659    0.79000002    2.91000009
   16.26222229  180.54499817    0.79000002    2.91000009
   16.26555634  170.92700195    0.80000001    2.91000009
   16.26888847  177.25100708    0.83999997    2.91000009
   16.27194405  183.29600525    0.88000000    2.93000007
   16.27527809  168.23100281    0.86000001    2.94000006
   16.27833366  178.40299988    0.86000001    2.94000006
   16.28027725  181.86999512    0.86000001    2.94000006
   16.28194427  180.46299744    0.86000001    2.94000006
   16.28527641  186.26300049    0.83999997    2.93000007
   16.28861046  181.93800354    0.83999997    2.93000007
   16.29444313  181.93800354    0.80000001    2.91000009
   16.29861069  182.29299927    0.80000001    2.94000006
   16.30194283  183.42599487    0.79000002    2.93000007
   16.30499840  179.38699341    0.79000002    2.93000007
   16.30833244  187.30400085    0.79000002    2.93000007
   16.31166649  181.71499634    0.79000002    2.93000007
   16.31361008  170.89999390    0.81999999    2.93000007
   16.31527710  182.51899719    0.83999997    2.93000007
   16.31833458  176.88200378    0.83999997    2.91000009
   16.32166672  178.27799988    0.81999999    2.93000007
   16.32472229  183.00599670    0.81999999    2.93000007
   16.32805634  182.08500671    0.81999999    2.91000009
   16.33139038  175.02999878    0.80000001    2.93000007
   16.33750153  175.02999878    0.79000002    2.93000007
   16.34138870  182.85699463    0.79000002    2.93000007
   16.34472275  180.01199341    0.81999999    2.93000007
   16.34694481  162.35200500    0.81999999    2.93000007
   16.34833336  164.40600586    0.81999999    2.93000007
   16.35166740  163.62800598    0.81999999    2.91000009
   16.35499954  164.35499573    0.86000001    2.93000007
   16.35805511  169.82699585    0.83999997    2.94000006
   16.36138916  178.07499695    0.83999997    2.94000006
   16.36472321  165.77900696    0.81999999    2.93000007
   16.36777878  162.70899963    0.80000001    2.91000009
   16.37111092  164.33599854    0.79000002    2.93000007
   16.37444496  168.91099548    0.76999998    2.94000006
   16.38027763  168.91099548    0.75000000    2.93000007
   16.38444519  161.96699524    0.75000000    2.94000006
   16.38750076  174.02099609    0.75000000    2.93000007
   16.39083290  167.52000427    0.76999998    2.93000007
   16.39416695  178.07699585    0.76999998    2.94000006
   16.39722252  175.86500549    0.76999998    2.93000007
   16.40055466  173.04899597    0.76999998    2.93000007
   16.40388870  169.05000305    0.76999998    2.93000007
   16.40694427  172.52200317    0.76999998    2.91000009
   16.41027832  174.52200317    0.75000000    2.93000007
   16.41361046  185.07699585    0.75000000    2.94000006
   16.41388893  177.36700439    0.75000000    2.94000006
   16.41722107  183.17199707    0.73000002    2.94000006
   16.42305565  183.17199707    0.73000002    2.94000006
   16.42722130  171.50000000    0.88000000    2.93000007
   16.43055534  175.54100037    0.89999998    2.93000007
   16.43361092  165.47599792    0.89999998    2.93000007
   16.43694305  169.43499756    0.92000002    2.93000007
   16.43999863  177.59899902    0.94000000    2.91000009
   16.44333267  162.78999329    0.92000002    2.93000007
   16.44666672  176.65600586    0.92000002    2.91000009
   16.44722176  164.97399902    0.92000002    2.91000009
   16.45027924  167.36399841    0.95999998    2.93000007
   16.45361137  165.00599670    0.95999998    2.93000007
   16.45694542  168.38200378    0.95999998    2.93000007
   16.46000099  159.42900085    0.98000002    2.93000007
   16.46583366  159.42900085    0.98000002    2.93000007
   16.47000122  167.42300415    0.98000002    2.93000007
   16.47333336  164.28999329    1.00000000    2.93000007
   16.47638893  161.80700684    0.98000002    2.91000009
   16.47972298  163.39100647    1.00000000    2.94000006
   16.48055649  168.99000549    0.98000002    2.93000007
   16.48333359  161.47700500    0.98000002    2.93000007
   16.48666763  166.83000183    1.00000000    2.93000007
   16.48999977  162.98699951    1.01999998    2.93000007
   16.49305534  168.91999817    1.03999996    2.91000009
   16.49638939  161.85600281    1.05999994    2.91000009
   16.49944496  162.99200439    1.03999996    2.93000007
   16.50277710  173.21200562    1.03999996    2.93000007
   16.50888824  173.21200562    1.03999996    2.93000007
   16.51277733  175.87699890    1.03999996    2.93000007
   16.51388931  166.17399597    1.01999998    2.93000007
   16.51638794  173.49200439    1.00000000    2.93000007
   16.51972198  168.50700378    1.00000000    2.93000007
   16.52305603  162.74699402    1.01999998    2.93000007
   16.52611160  165.90100098    1.01999998    2.93000007
   16.52944374  172.80999756    1.01999998    2.91000009
   16.53249931  165.03199768    1.00000000    2.93000007
   16.53583336  172.42900085    0.94000000    2.93000007
   16.53916550  168.09700012    0.94000000    2.93000007
   16.54222107  166.41999817    0.94000000    2.93000007
   16.54555511  163.16600037    0.94000000    2.93000007
   16.54722214  167.65899658    0.88000000    2.93000007
   16.55166626  167.65899658    0.88000000    2.93000007
   16.55583191  165.05099487    0.83999997    2.93000007
   16.55888748  161.73500061    0.83999997    2.93000007
   16.56222153  166.23500061    0.80000001    2.94000006
   16.56555557  172.97200012    0.80000001    2.94000006
   16.56861115  166.68200684    0.79000002    2.93000007
   16.57194519  166.24000549    0.79000002    2.93000007
   16.57527924  175.74200439    0.75000000    2.94000006
   16.57833481  166.57400513    0.73000002    2.93000007
   16.58055687  162.83999634    0.75000000    2.93000007
   16.58194542  169.22599792    0.75000000    2.93000007
   16.58527756  165.82600403    0.73000002    2.93000007
   16.58861160  161.01600647    0.75000000    2.93000007
   16.59444427  161.01600647    0.64999998    2.93000007
   16.59861183  161.02099609    0.64999998    2.93000007
   16.60194397  157.55599976    0.64999998    2.94000006
   16.60499954  163.04200745    0.63000000    2.93000007
   16.60833359  166.54600525    0.58999997    2.93000007
   16.61138916  163.43600464    0.55000001    2.93000007
   16.61388969  166.90199280    0.55000001    2.93000007
   16.61499977  170.19500732    0.55000001    2.94000006
   16.61833382  166.47000122    0.52999997    2.94000006
   16.62166595  167.53300476    0.52999997    2.94000006
   16.62472153  171.22900391    0.52999997    2.94000006
   16.62805557  156.86199951    0.52999997    2.93000007
   16.63111115  165.77699280    0.56999999    2.94000006
   16.63722229  165.77699280    0.58999997    2.94000006
   16.64138794  169.47000122    0.63000000    2.93000007
   16.64472198  170.43899536    0.69000000    2.93000007
   16.64722252  161.55700684    0.69000000    2.93000007
   16.64833260  162.58999634    0.70999998    2.94000006
   16.65166664  164.20899963    0.70999998    2.94000006
   16.65499878  167.45799255    0.70999998    2.93000007
   16.65805435  161.04100037    0.70999998    2.93000007
   16.66138840  165.61300659    0.70999998    2.93000007
   16.66444397  165.86000061    0.70999998    2.94000006
   16.66777802  163.76300049    0.70999998    2.94000006
   16.67111015  166.11399841    0.70999998    2.94000006
   16.67416573  166.85499573    0.69000000    2.94000006
   16.68027687  166.85499573    0.67000002    2.93000007
   16.68416595  165.52299500    0.67000002    2.94000006
   16.68750000  164.30900574    0.63000000    2.94000006
   16.69083214  161.97200012    0.63000000    2.94000006
   16.69388771  158.85200500    0.58999997    2.94000006
   16.69722176  162.75399780    0.56999999    2.94000006
   16.70055580  166.25000000    0.55000001    2.94000006
   16.70361137  165.80400085    0.41999999    2.93000007
   16.70694542  169.01199341    0.41999999    2.94000006
   16.71000099  169.72200012    0.41999999    2.94000006
   16.71333504  170.90100098    0.41999999    2.94000006
   16.71527863  162.81799316    0.40000001    2.94000006
   16.71694565  165.48100281    0.40000001    2.94000006
   16.72305679  165.48100281    0.41999999    2.94000006
   16.72722244  164.72900391    0.41999999    2.96000004
   16.73027802  167.61700439    0.40000001    2.94000006
   16.73361206  168.66999817    0.38000000    2.94000006
   16.73694420  164.82600403    0.38000000    2.94000006
   16.73999977  165.66299438    0.38000000    2.94000006
   16.74333382  167.10400391    0.36000001    2.94000006
   16.74638939  161.46000671    0.38000000    2.94000006
   16.74861145  168.75700378    0.38000000    2.94000006
   16.75000000  163.96099854    0.38000000    2.94000006
   16.75333405  162.57499695    0.38000000    2.94000006
   16.75666618  162.65600586    0.40000001    2.96000004
   16.75972176  160.97599792    0.38000000    2.94000006
   16.76583290  160.97599792    0.38000000    2.94000006
   16.77000046  164.02900696    0.40000001    2.94000006
   16.77333260  163.44900513    0.40000001    2.96000004
   16.77638817  158.57000732    0.40000001    2.94000006
   16.77972221  166.04400635    0.40000001    2.93000007
   16.78194427  173.18499756    0.40000001    2.94000006
   16.78333282  169.79899597    0.38000000    2.94000006
   16.78666687  163.01800537    0.40000001    2.94000006
   16.78972244  160.69700623    0.40000001    2.94000006
   16.79305458  167.58099365    0.40000001    2.94000006
   16.79638863  162.72999573    0.40000001    2.94000006
   16.79944420  163.46899414    0.40000001    2.96000004
   16.80277634  155.69799805    0.40000001    2.94000006
   16.80861092  155.69799805    0.40000001    2.94000006
   16.81277657  161.73800659    0.41999999    2.96000004
   16.81527710  163.34599304    0.41999999    2.94000006
   16.81638718  165.34100342    0.41999999    2.93000007
   16.81972313  165.63900757    0.44000000    2.94000006
   16.82277870  165.19299316    0.44000000    2.94000006
   16.82611275  167.05200195    0.44000000    2.94000006
   16.82944489  163.64399719    0.47999999    2.94000006
   16.83250046  163.86000061    0.47999999    2.93000007
   16.83583450  160.53900146    0.46000001    2.93000007
   16.83916664  156.95500183    0.40000001    2.94000006
   16.84222221  159.64199829    0.40000001    2.94000006
   16.84555626  161.72999573    0.40000001    2.94000006
   16.85166740  161.72999573    0.38000000    2.94000006
   16.85555649  165.35099792    0.40000001    2.96000004
   16.85888863  164.25799561    0.40000001    2.96000004
   16.86222267  169.74200439    0.40000001    2.96000004
   16.86527824  165.88000488    0.44000000    2.94000006
   16.86861038  161.77600098    0.46000001    2.94000006
   16.87194443  160.07499695    0.47999999    2.94000006
   16.87500000  166.85400391    0.46000001    2.94000006
   16.87833405  163.85800171    0.46000001    2.94000006
   16.88138962  157.98300171    0.46000001    2.94000006
   16.88249969  163.00199890    0.46000001    2.94000006
   16.88500023  158.64399719    0.47999999    2.94000006
   16.88833237  156.42100525    0.47999999    2.94000006
   16.89444351  156.42100525    0.51999998    2.93000007
   16.89861107  160.63800049    0.51999998    2.94000006
   16.90166664  158.28599548    0.51999998    2.94000006
   16.90499878  156.73599243    0.51999998    2.94000006
   16.90833282  154.66799927    0.51999998    2.94000006
   16.91138840  156.33000183    0.51999998    2.94000006
   16.91472244  160.11199951    0.51999998    2.94000006
   16.91583252  158.56900024    0.51999998    2.94000006
   16.91833305  168.89900208    0.51999998    2.94000006
   16.92166519  165.02999878    0.51999998    2.94000006
   16.92499924  169.68699646    0.52999997    2.94000006
   16.92805481  158.34700012    0.55000001    2.94000006
   16.93138885  161.90299988    0.67000002    2.93000007
   16.93722153  161.90299988    0.88000000    2.93000007
   16.94138718  157.92100525    0.92000002    2.93000007
   16.94444275  157.33200073    0.88000000    2.94000006
   16.94777679  160.33900452    0.83999997    2.94000006
   16.94944382  156.57200623    0.83999997    2.94000006
   16.95138931  158.31799316    0.86000001    2.94000006
   16.95472336  159.50999451    0.79000002    2.93000007
   16.95777893  161.63099670    0.75000000    2.93000007
   16.96111107  154.03100586    0.75000000    2.93000007
   16.96444511  159.20399475    0.76999998    2.94000006
   16.96750069  162.07600403    0.70999998    2.93000007
   16.97083473  156.46499634    0.69000000    2.93000007
   16.97416687  153.36199951    0.70999998    2.94000006
   16.98000145  153.36199951    0.67000002    2.93000007
   16.98416710  158.62100220    0.64999998    2.93000007
   16.98750114  153.32699585    0.64999998    2.94000006
   16.99055672  156.77600098    0.64999998    2.93000007
   16.99388885  161.76400757    0.67000002    2.93000007
   16.99722290  159.46200562    0.61000001    2.93000007
   17.00027847  163.27099609    0.61000001    2.93000007
   17.00361061  158.85299683    0.61000001    2.94000006
   17.00666618  151.33599854    0.52999997    2.93000007
   17.01000023  157.77600098    0.52999997    2.93000007
   17.01333427  156.14900208    0.51999998    2.93000007
   17.01611137  156.92399597    0.51999998    2.93000007
   17.01694489  153.57000732    0.51999998    2.94000006
   17.02277756  153.57000732    0.55000001    2.93000007
   17.02694511  400.75399780    0.58999997    2.93000007
   17.02916718  428.92898560    0.58999997    2.93000007
   17.03027725  382.11099243    0.58999997    2.94000006
   17.03166580  424.67498779    0.63000000    2.93000007
   17.03305435  445.02600098    0.63000000    2.94000006
   17.03444481  281.43200684    0.64999998    2.94000006
   17.03583336  375.22900391    0.64999998    2.94000006
   17.03722191  362.67300415    0.63000000    2.94000006
   17.03861046  327.33499146    0.63000000    2.94000006
   17.03999901  356.07901001    0.61000001    2.94000006
   17.04138756  334.01901245    0.58999997    2.93000007
   17.04277802  314.81399536    0.55000001    2.93000007
   17.04416656  320.96301270    0.55000001    2.93000007
   17.04555511  349.47100830    0.50000000    2.94000006
   17.04694366  302.17498779    0.50000000    2.94000006
   17.04833221  351.14999390    0.50000000    2.94000006
   17.04972076  343.72698975    0.50000000    2.94000006
   17.05111122  381.43701172    0.50000000    2.94000006
   17.05249977  338.23199463    0.51999998    2.94000006
   17.05388832  401.80899048    0.51999998    2.94000006
   17.05527687  333.28298950    0.47999999    2.94000006
   17.05666542  275.51501465    0.50000000    2.94000006
   17.05805397  310.89300537    0.50000000    2.94000006
   17.05944443  342.32501221    0.51999998    2.94000006
   17.06083298  298.01599121    0.51999998    2.94000006
   17.06222153  323.65798950    0.55000001    2.94000006
   17.06361008  267.72698975    0.55000001    2.94000006
   17.06499863  256.63500977    0.56999999    2.94000006
   17.06638718  333.47000122    0.56999999    2.93000007
   17.06777954  355.16299438    0.56999999    2.93000007
   17.06916809  348.67199707    0.55000001    2.94000006
   17.07055664  276.19299316    0.55000001    2.93000007
   17.07194519  285.82299805    0.55000001    2.94000006
   17.07333374  349.22198486    0.55000001    2.94000006
   17.07472229  328.42199707    0.55000001    2.93000007
   17.07611275  321.79098511    0.51999998    2.94000006
   17.07750130  283.79901123    0.51999998    2.94000006
   17.07888985  354.98098755    0.50000000    2.93000007
   17.08027840  315.86401367    0.50000000    2.94000006
   17.08166695  352.31298828    0.51999998    2.94000006
   17.08305550  298.65399170    0.51999998    2.94000006
   17.08444595  271.86300659    0.51999998    2.94000006
   17.08583450  296.80398560    0.51999998    2.94000006
   17.08722305  267.31500244    0.51999998    2.94000006
   17.08861160  282.05499268    0.51999998    2.94000006
   17.09000015  281.25000000    0.50000000    2.94000006
   17.09138870  319.04901123    0.50000000    2.94000006
   17.09277916  307.60800171    0.47999999    2.94000006
   17.09416771  265.99899292    0.47999999    2.94000006
   17.09555626  329.73400879    0.46000001    2.94000006
   17.09694481  281.13500977    0.46000001    2.94000006
   17.09833336  260.43099976    0.46000001    2.93000007
   17.09972191  275.75299072    0.52999997    2.94000006
   17.10111237  240.99600220    0.52999997    2.94000006
   17.10138893  158.85299683    0.61000001    2.94000006
   17.10138893  151.33599854    0.52999997    2.93000007
   17.10138893  157.77600098    0.52999997    2.93000007
   17.10166740  156.14900208    0.51999998    2.93000007
   17.10166740  153.57000732    0.51999998    2.94000006
   17.10166740  400.75399780    0.58999997    2.93000007
   17.10194397  161.76400757    0.67000002    2.93000007
   17.10194397  159.46200562    0.61000001    2.93000007
   17.10194397  163.27099609    0.61000001    2.93000007
   17.10250092  282.10299683    0.52999997    2.94000006
   17.10583305  272.27200317    0.55000001    2.94000006
   17.10916710  265.88198853    0.55000001    2.94000006
   17.11222267  285.57501221    0.51999998    2.94000006
   17.11555672  287.33801270    0.51999998    2.94000006
   17.12194443  287.33801270    0.47999999    2.93000007
   17.12611198  232.22900391    0.47999999    2.94000006
   17.12944412  240.59800720    0.47999999    2.94000006
   17.13249969  240.28300476    0.52999997    2.94000006
   17.13500023  235.19700623    0.52999997    2.94000006
   17.13638878  208.48899841    0.58999997    2.94000006
   17.13944435  237.22099304    0.58999997    2.94000006
   17.14277840  219.11999512    0.56999999    2.93000007
   17.14611053  236.39999390    0.51999998    2.94000006
   17.14916611  189.28100586    0.51999998    2.94000006
   17.15250015  226.44099426    0.51999998    2.94000006
   17.15583229  203.77299500    0.50000000    2.94000006
   17.15888786  242.84500122    0.50000000    2.94000006
   17.16472244  242.84500122    0.51999998    2.94000006
   17.16888809  212.18099976    0.58999997    2.93000007
   17.17222214  227.70300293    0.58999997    2.94000006
   17.17555428  227.54400635    0.63000000    2.94000006
   17.17860985  200.37199402    0.63000000    2.94000006
   17.19833183  238.01199341    0.51999998    2.94000006
   17.20166779  216.83399963    0.51999998    2.94000006
   17.20222282  220.34599304    0.51999998    2.93000007
   17.20777893  220.34599304    0.50000000    2.94000006
   17.21194458  215.57099915    0.46000001    2.94000006
   17.21527863  212.28199768    0.44000000    2.93000007
   17.21861076  201.69599915    0.46000001    2.93000007
   17.22166634  212.76100159    0.46000001    2.94000006
   17.22500038  208.55099487    0.50000000    2.94000006
   17.22805595  194.88299561    0.47999999    2.94000006
   17.23139000  208.50700378    0.47999999    2.94000006
   17.23472214  185.64700317    0.47999999    2.94000006
   17.23555565  205.10899353    0.47999999    2.94000006
   17.23805618  167.26100159    0.47999999    2.94000006
   17.24138832  199.56500244    0.50000000    2.94000006
   17.24472237  214.34100342    0.50000000    2.94000006
   17.25083351  214.34100342    0.50000000    2.94000006
   17.25499916  183.85000610    0.52999997    2.94000006
   17.25805473  180.50900269    0.52999997    2.94000006
   17.26138878  201.18499756    0.55000001    2.94000006
   17.26472282  190.37199402    0.56999999    2.93000007
   17.26777840  164.24400330    0.55000001    2.93000007
   17.26888847  142.52200317    0.55000001    2.93000007
   17.27166557  165.72900391    0.52999997    2.94000006
   17.27472115  191.51800537    0.52999997    2.94000006
   17.27805519  181.49000549    0.56999999    2.94000006
   17.28138924  180.10899353    0.58999997    2.93000007
   17.28444481  180.85699463    0.64999998    2.93000007
   17.28777695  189.43600464    0.64999998    2.94000006
   17.29361153  189.43600464    0.63000000    2.93000007
   17.29777718  180.74099731    0.75000000    2.93000007
   17.30111122  185.28199768    0.94000000    2.94000006
   17.30222130  181.40199280    0.94000000    2.94000006
   17.30444336  196.51499939    0.88000000    2.93000007
   17.30777740  174.41499329    0.70999998    2.94000006
   17.31110954  187.66299438    0.61000001    2.93000007
   17.31416512  175.62699890    0.61000001    2.94000006
   17.31750107  186.71200562    0.61000001    2.94000006
   17.32055664  207.05099487    0.56999999    2.94000006
   17.32389069  181.48800659    0.58999997    2.93000007
   17.32722282  194.63900757    0.58999997    2.94000006
   17.33027840  182.58099365    0.58999997    2.94000006
   17.33638954  182.58099365    0.67000002    2.93000007
   17.34055710  155.30299377    0.61000001    2.94000006
   17.34388924  170.85699463    0.58999997    2.94000006
   17.34694481  182.89700317    0.58999997    2.94000006
   17.35027885  180.79499817    0.58999997    2.94000006
   17.35361099  172.63900757    0.61000001    2.93000007
   17.35666656  188.18499756    0.58999997    2.94000006
   17.36000061  187.61500549    0.64999998    2.93000007
   17.36305618  180.19900513    0.64999998    2.93000007
   17.36638832  168.92999268    0.67000002    2.94000006
   17.36888885  169.55200195    0.73000002    2.94000006
   17.37000084  161.66499329    0.76999998    2.93000007
   17.37333298  162.11799622    0.76999998    2.93000007
   17.37916756  162.11799622    0.70999998    2.94000006
   17.38333321  162.06700134    0.70999998    2.93000007
   17.38666725  167.52600098    0.69000000    2.94000006
   17.38999939  169.89500427    0.69000000    2.94000006
   17.39305496  168.32499695    0.69000000    2.94000006
   17.39638901  167.90100098    0.63000000    2.93000007
   17.39972115  163.36500549    0.63000000    2.93000007
   17.40222168  163.99499512    0.55000001    2.94000006
   17.40305519  156.83700562    0.55000001    2.94000006
   17.40638924  179.78599548    0.51999998    2.94000006
   17.40972137  174.90800476    0.50000000    2.93000007
   17.41277695  163.34899902    0.50000000    2.93000007
   17.41611099  165.65699768    0.50000000    2.94000006
   17.42222214  165.65699768    0.51999998    2.94000006
   17.42638779  169.61000061    0.51999998    2.94000006
   17.42944336  157.07200623    0.51999998    2.93000007
   17.43277740  159.96499634    0.50000000    2.94000006
   17.43555450  165.55700684    0.50000000    2.93000007
   17.43638802  161.82600403    0.50000000    2.94000006
   17.43972206  164.44599915    0.50000000    2.93000007
   17.44305420  165.79899597    0.50000000    2.93000007
   17.44610977  166.18099976    0.51999998    2.94000006
   17.44944382  158.84300232    0.52999997    2.93000007
   17.45250130  171.97799683    0.51999998    2.94000006
   17.45583344  165.37600708    0.51999998    2.94000006
   17.45916748  164.46000671    0.51999998    2.94000006
   17.46500015  164.46000671    0.51999998    2.94000006
   17.46916771  166.91000366    0.51999998    2.94000006
   17.47222328  163.61300659    0.47999999    2.93000007
   17.47555542  179.33799744    0.50000000    2.93000007
   17.47888947  194.77999878    0.50000000    2.94000006
   17.48194504  197.68400574    0.47999999    2.94000006
   17.48527718  183.67399597    0.50000000    2.94000006
   17.48861122  194.60600281    0.50000000    2.94000006
   17.49166679  198.89999390    0.50000000    2.94000006
   17.49500084  183.38699341    0.51999998    2.94000006
   17.49833298  199.44700623    0.55000001    2.94000006
   17.50138855  210.52699280    0.55000001    2.94000006
   17.50222206  194.50300598    0.55000001    2.94000006
   17.50777817  194.50300598    0.56999999    2.94000006
   17.51194382  198.60299683    0.58999997    2.93000007
   17.51527786  193.13200378    0.58999997    2.94000006
   17.51833344  200.66299438    0.58999997    2.94000006
   17.52166557  198.96200562    0.61000001    2.94000006
   17.52499962  187.24200439    0.61000001    2.94000006
   17.52805519  199.34599304    0.61000001    2.94000006
   17.53138924  199.58900452    0.61000001    2.93000007
   17.53472137  191.40899658    0.61000001    2.94000006
   17.53555489  187.40100098    0.61000001    2.94000006
   17.53805542  199.94900513    0.58999997    2.94000006
   17.54138756  189.50399780    0.56999999    2.94000006
   17.54472160  221.90899658    0.56999999    2.94000006
   17.55055428  221.90899658    0.55000001    2.94000006
   17.55472183  215.12399292    0.52999997    2.93000007
   17.55805397  189.75100708    0.55000001    2.94000006
   17.56138802  180.00100708    0.52999997    2.94000006
   17.56444359  186.38600159    0.52999997    2.94000006
   17.56777954  211.24899292    0.51999998    2.94000006
   17.56888962  194.97500610    0.51999998    2.94000006
   17.57111168  190.50999451    0.50000000    2.93000007
   17.57444572  177.88699341    0.51999998    2.94000006
   17.57777786  191.83000183    0.50000000    2.94000006
   17.58083344  189.79600525    0.51999998    2.94000006
   17.58416748  193.71000671    0.51999998    2.94000006
   17.58750153  180.23899841    0.51999998    2.94000006
   17.59361267  180.23899841    0.50000000    2.94000006
   17.59777832  186.23399353    0.51999998    2.93000007
   17.60083389  190.84700012    0.51999998    2.93000007
   17.60222244  185.69200134    0.51999998    2.93000007
   17.60444450  200.33799744    0.52999997    2.94000006
   17.60777855  200.00799561    0.58999997    2.93000007
   17.61111069  199.28500366    0.63000000    2.94000006
   17.61416626  186.26699829    0.64999998    2.94000006
   17.61750031  202.51199341    0.67000002    2.93000007
   17.62083435  183.71200562    0.70999998    2.94000006
   17.62388992  202.09899902    0.75000000    2.93000007
   17.62722206  185.13099670    0.75000000    2.94000006
   17.63027763  188.08099365    0.75000000    2.93000007
   17.63638878  188.08099365    0.76999998    2.93000007
   17.64055634  189.25700378    0.81999999    2.93000007
   17.64388847  186.80099487    0.81999999    2.93000007
   17.64694405  189.08500671    0.81999999    2.93000007
   17.65027809  205.63699341    0.80000001    2.93000007
   17.65333366  202.91700745    0.86000001    2.93000007
   17.65666580  192.24000549    0.86000001    2.93000007
   17.65999985  200.22000122    0.92000002    2.93000007
   17.66305542  185.48800659    0.92000002    2.91000009
   17.66638756  185.90899658    0.88000000    2.93000007
   17.66888809  190.04800415    0.86000001    2.93000007
   17.67000008  176.70500183    0.86000001    2.93000007
   17.67333221  195.21000671    0.81999999    2.93000007
   17.67916679  195.21000671    0.81999999    2.93000007
   17.68333244  196.17100525    0.81999999    2.93000007
   17.68666649  195.39900208    0.81999999    2.93000007
   17.68972206  191.62399292    0.81999999    2.93000007
   17.69305420  176.91900635    0.81999999    2.93000007
   17.69638824  197.06900024    0.79000002    2.93000007
   17.69944382  178.99299622    0.76999998    2.93000007
   17.70222282  190.39900208    0.76999998    2.93000007
   17.70305634  185.20399475    0.76999998    2.93000007
   17.70639038  182.49800110    0.75000000    2.93000007
   17.70972252  183.81700134    0.73000002    2.93000007
   17.71277809  184.70700073    0.73000002    2.93000007
   17.71611214  191.55900574    0.73000002    2.93000007
   17.72194481  191.55900574    0.69000000    2.93000007
   17.72611237  180.97599792    0.58999997    2.93000007
   17.72944450  188.72500610    0.58999997    2.94000006
   17.73277855  192.50300598    0.58999997    2.93000007
   17.73555565  189.45599365    0.58999997    2.93000007
   17.73611069  187.09300232    0.56999999    2.93000007
   17.73944473  184.14799500    0.52999997    2.93000007
   17.74277878  175.53999329    0.55000001    2.93000007
   17.74583435  182.98300171    0.55000001    2.93000007
   17.74916649  204.88299561    0.55000001    2.93000007
   17.75250053  183.24000549    0.55000001    2.93000007
   17.75555611  177.40299988    0.55000001    2.94000006
   17.75888824  183.30299377    0.55000001    2.94000006
   17.76499939  183.30299377    0.51999998    2.93000007
   17.76916695  192.17300415    0.52999997    2.93000007
   17.77222252  204.84700012    0.51999998    2.93000007
   17.77555466  189.72200012    0.52999997    2.94000006
   17.77861023  189.63099670    0.55000001    2.93000007
   17.78194427  203.19099426    0.61000001    2.93000007
   17.78527641  189.11399841    0.61000001    2.94000006
   17.78833199  198.72900391    0.58999997    2.93000007
   17.79166603  192.66900635    0.63000000    2.93000007
   17.79500008  190.33999634    0.63000000    2.93000007
   17.79805565  187.37399292    0.63000000    2.94000006
   17.80138779  193.24800110    0.64999998    2.93000007
   17.80222130  185.88400269    0.64999998    2.93000007
   17.80777740  185.88400269    0.64999998    2.94000006
   17.81194305  174.09300232    0.64999998    2.93000007
   17.81499863  177.38299561    0.67000002    2.93000007
   17.81833458  181.69700623    0.67000002    2.93000007
   17.82166672  178.56700134    0.67000002    2.93000007
   17.82472229  177.79600525    0.69000000    2.93000007
   17.82805634  187.09500122    0.67000002    2.93000007
   17.83139038  181.66099548    0.70999998    2.93000007
   17.83444595  174.90600586    0.70999998    2.93000007
   17.83555603  185.61599731    0.70999998    2.93000007
   17.83805656  174.44599915    0.69000000    2.93000007
   17.84138870  187.70300293    0.69000000    2.93000007
   17.84472275  192.44400024    0.75000000    2.93000007
   17.85055542  192.44400024    0.76999998    2.93000007
   17.85472298  177.08500671    0.86000001    2.93000007
   17.85805511  171.00500488    1.28999996    2.91000009
   17.86111069  164.78399658    1.30999994    2.93000007
   17.86444473  177.41499329    1.30999994    2.93000007
   17.86777878  172.00199890    1.33000004    2.91000009
   17.86888885  174.21600342    1.33000004    2.91000009
   17.87138939  171.07899475    1.41999996    2.91000009
   17.87444496  179.97200012    1.38000000    2.91000009
   17.87777710  177.14100647    1.25000000    2.91000009
   17.88083267  178.18899536    1.25000000    2.91000009
   17.88416672  179.25500488    1.25000000    2.91000009
   17.88750076  172.71299744    1.23000002    2.91000009
   17.89333344  172.71299744    1.23000002    2.91000009
   17.89749908  171.30400085    1.07000005    2.91000009
   17.90083313  185.08000183    1.03999996    2.91000009
   17.90222168  176.30200195    1.01999998    2.91000009
   17.90444374  174.69200134    1.01999998    2.93000007
   17.90749931  168.32200623    0.98000002    2.91000009
   17.91083336  179.38499451    0.95999998    2.93000007
   17.91388893  193.12800598    0.89999998    2.91000009
   17.91722107  176.72000122    0.88000000    2.93000007
   17.92055511  173.42700195    0.89999998    2.93000007
   17.92361069  202.61099243    0.94000000    2.93000007
   17.92694473  176.52900696    0.92000002    2.93000007
   17.93027687  179.15499878    0.92000002    2.93000007
   17.93638802  179.15499878    0.98000002    2.91000009
   17.94055557  173.81500244    1.01999998    2.91000009
   17.94361115  172.20599365    1.01999998    2.91000009
   17.94694328  176.03500366    0.94000000    2.91000009
   17.95027924  175.57600403    0.88000000    2.93000007
   17.95333481  193.35000610    0.86000001    2.91000009
   17.95666695  187.04899597    0.79000002    2.93000007
   17.96000099  190.77999878    0.79000002    2.93000007
   17.96305656  186.22500610    0.88000000    2.93000007
   17.96638870  202.96600342    0.89999998    2.91000009
   17.96888924  185.13400269    0.88000000    2.91000009
   17.97000122  178.64999390    0.86000001    2.93000007
   17.97305679  168.20300293    0.88000000    2.93000007
   17.97916794  168.20300293    0.88000000    2.93000007
   17.98333359  169.95199585    0.86000001    2.93000007
   17.98666763  198.12899780    0.86000001    2.93000007
   17.98972321  213.60699463    0.86000001    2.93000007
   17.99305534  185.86099243    0.83999997    2.91000009
   17.99611092  183.83000183    0.80000001    2.93000007
   17.99944496  192.71000671    0.76999998    2.93000007
   18.00222206  186.84100342    0.75000000    2.93000007
   18.00333405  217.38800049    0.75000000    2.93000007
   18.00638962  225.53199768    0.73000002    2.93000007
   18.00972176  267.20098877    0.69000000    2.93000007
   18.01305580  226.73100281    0.69000000    2.93000007
   18.01611137  254.39100647    0.64999998    2.93000007
   18.02194405  254.39100647    0.69000000    2.93000007
   18.02611160  226.47900391    0.69000000    2.93000007
   18.02944374  222.59599304    0.69000000    2.93000007
   18.03249931  248.44400024    0.69000000    2.93000007
   18.03555489  238.10099792    0.64999998    2.93000007
   18.03638840  237.34599304    0.64999998    2.93000007
   18.03944397  231.63400269    0.64999998    2.93000007
   18.04277802  208.87100220    0.67000002    2.93000007
   18.04583359  224.18400574    0.67000002    2.93000007
   18.04916573  226.17300415    0.67000002    2.93000007
   18.05249977  229.51499939    0.69000000    2.93000007
   18.05555534  256.85101318    0.67000002    2.93000007
   18.05888748  232.78700256    0.70999998    2.93000007
   18.06499863  232.78700256    0.73000002    2.93000007
   18.06888962  205.35800171    0.73000002    2.93000007
   18.07222366  241.87699890    0.76999998    2.93000007
   18.07555580  178.61300659    0.76999998    2.93000007
   18.07861137  220.87500000    0.75000000    2.93000007
   18.08194542  203.97399902    0.75000000    2.93000007
   18.08500099  198.89900208    0.76999998    2.93000007
   18.08833313  203.45799255    0.76999998    2.93000007
   18.09166718  209.83999634    0.76999998    2.93000007
   18.09472275  176.98100281    0.76999998    2.93000007
   18.09805679  186.97300720    0.79000002    2.93000007
   18.10138893  222.28700256    0.79000002    2.93000007
   18.10222244  222.65800476    0.79000002    2.93000007
   18.10777855  222.65800476    0.83999997    2.93000007
   18.11166763  188.40600586    0.83999997    2.93000007
   18.11499977  209.39799500    0.86000001    2.91000009
   18.11833382  201.68400574    0.92000002    2.91000009
   18.12138939  231.27000427    0.92000002    2.91000009
   18.12472153  226.80000305    0.92000002    2.91000009
   18.12805557  204.36199951    0.92000002    2.91000009
   18.13111115  207.39599609    0.89999998    2.91000009
   18.13444519  200.10499573    0.89999998    2.93000007
   18.13555527  201.66299438    0.89999998    2.93000007
   18.13805580  207.10600281    0.89999998    2.93000007
   18.14111137  203.28599548    0.89999998    2.93000007
   18.14444351  209.42399597    0.88000000    2.91000009
   18.15055466  209.42399597    0.83999997    2.91000009
   18.15472221  197.87500000    0.83999997    2.93000007
   18.15805435  186.72599792    0.83999997    2.93000007
   18.16110992  191.17100525    0.83999997    2.91000009
   18.16444397  195.94799805    0.83999997    2.91000009
   18.16777802  190.81700134    0.81999999    2.91000009
   18.16888809  187.40899658    0.81999999    2.91000009
   18.17138863  180.96000671    0.81999999    2.93000007
   18.17444420  196.04299927    0.81999999    2.91000009
   18.17777634  188.80299377    0.83999997    2.91000009
   18.18083191  211.54600525    0.81999999    2.91000009
   18.18416595  220.80599976    0.81999999    2.91000009
   18.18750000  206.04299927    0.80000001    2.91000009
   18.19333267  206.04299927    0.80000001    2.91000009
   18.21389008  271.07101440    0.83999997    2.93000007
   18.21444511  283.94900513    0.86000001    2.91000009
   18.21777916  316.50900269    0.83999997    2.91000009
   18.21972275  317.73498535    0.83999997    2.91000009
   18.22111130  309.48400879    0.83999997    2.91000009
   18.22249985  298.52301025    0.86000001    2.91000009
   18.22389030  291.66299438    0.86000001    2.91000009
   18.22527885  288.87600708    0.86000001    2.91000009
   18.22666740  280.12298584    0.88000000    2.91000009
   18.22805595  289.20199585    0.88000000    2.91000009
   18.22944450  283.22399902    0.92000002    2.93000007
   18.23083305  278.72500610    0.92000002    2.93000007
   18.23222351  284.36099243    0.92000002    2.91000009
   18.23361206  278.67401123    0.92000002    2.91000009
   18.23500061  284.90399170    0.92000002    2.93000007
   18.23638916  266.77398682    0.94000000    2.91000009
   18.23777771  295.38299561    0.95999998    2.93000007
   18.23916626  272.86599731    0.95999998    2.89000010
   18.24055672  275.48800659    0.95999998    2.89000010
   18.24194527  274.06698608    0.98000002    2.91000009
   18.24333382  272.07101440    0.98000002    2.91000009
   18.24472237  295.97000122    1.05999994    2.91000009
   18.24611092  300.06399536    1.05999994    2.91000009
   18.24749947  256.21701050    1.01999998    2.91000009
   18.24888992  294.45800781    1.00000000    2.93000007
   18.25027847  280.21798706    1.00000000    2.91000009
   18.25166702  272.70098877    1.00000000    2.93000007
   18.25305557  286.11199951    1.00000000    2.91000009
   18.25444412  285.94900513    1.00000000    2.91000009
   18.25583267  260.70700073    1.00000000    2.91000009
   18.25722313  278.52398682    0.98000002    2.91000009
   18.25861168  288.55999756    0.98000002    2.91000009
   18.26000023  286.14300537    1.00000000    2.91000009
   18.26138878  267.54000854    1.00000000    2.91000009
   18.26277733  192.58799744    1.00000000    2.91000009
   18.26277733  196.04299927    0.81999999    2.91000009
   18.26277733  188.80299377    0.83999997    2.91000009
   18.26305580  211.54600525    0.81999999    2.91000009
   18.26305580  220.80599976    0.81999999    2.91000009
   18.26305580  206.04299927    0.80000001    2.91000009
   18.26333427  271.07101440    0.83999997    2.93000007
   18.26333427  316.50900269    0.83999997    2.91000009
   18.26333427  190.81700134    0.81999999    2.91000009
   18.26361084  180.96000671    0.81999999    2.93000007
   18.26416588  247.63699341    1.01999998    2.91000009
   18.26722145  252.56500244    1.03999996    2.91000009
   18.27055550  260.10400391    1.05999994    2.91000009
   18.27361107  256.67199707    1.03999996    2.93000007
   18.27694511  266.05999756    1.05999994    2.91000009
   18.28361130  266.05999756    1.07000005    2.91000009
   18.28750038  230.43099976    1.11000001    2.93000007
   18.29083252  243.99899292    1.16999996    2.89000010
   18.29416656  264.28399658    1.19000006    2.91000009
   18.29666710  252.98899841    1.23000002    2.91000009
   18.29777718  246.74099731    1.23000002    2.91000009
   18.30111122  243.16099548    1.23000002    2.89000010
   18.30416679  249.46299744    1.33000004    2.91000009
   18.30749893  234.26699829    1.33000004    2.91000009
   18.31083298  213.86099243    1.33000004    2.91000009
   18.31388855  228.68099976    1.48000002    2.91000009
   18.31722260  226.53999329    1.53999996    2.91000009
   18.32055664  235.63099670    1.51999998    2.89000010
   18.32638931  235.63099670    1.51999998    2.89000010
   18.33055687  228.27200317    1.50000000    2.89000010
   18.33361244  239.49499512    1.50000000    2.89000010
   18.33694458  208.60200500    1.50000000    2.89000010
   18.34027863  253.27499390    1.53999996    2.89000010
   18.34333420  251.80099487    1.58000004    2.89000010
   18.34666824  222.20899963    1.55999994    2.91000009
   18.34972191  227.28300476    1.55999994    2.89000010
   18.35305595  214.47200012    1.55999994    2.89000010
   18.35639000  233.08299255    1.50000000    2.91000009
   18.35944557  222.95500183    1.48000002    2.91000009
   18.36277771  251.93299866    1.51999998    2.89000010
   18.36333466  246.13200378    1.51999998    2.89000010
   18.36916733  246.13200378    1.78999996    2.89000010
   18.37333298  219.24600220    2.03999996    2.89000010
   18.37722206  220.77200317    2.09999990    2.89000010
   18.38055611  224.76100159    2.09999990    2.89000010
   18.38361168  216.72599792    2.40000010    2.89000010
   18.38694382  215.35200500    2.21000004    2.86999989
   18.38999939  219.83000183    2.15000010    2.86999989
   18.39333344  228.19999695    2.15000010    2.86999989
   18.39666748  229.39599609    1.94000006    2.89000010
   18.39722252  233.58900452    1.94000006    2.89000010
   18.40027809  230.37699890    1.86000001    2.89000010
   18.40361023  224.20599365    1.75000000    2.89000010
   18.40666580  224.86799622    1.75000000    2.89000010
   18.41194344  224.86799622    1.48000002    2.91000009
   18.41611099  236.20399475    1.36000001    2.91000009
   18.41944313  232.92399597    1.44000006    2.89000010
   18.42249870  226.92599487    1.41999996    2.89000010
   18.42583275  216.72300720    1.38000000    2.89000010
   18.42916679  215.40600586    1.39999998    2.89000010
   18.43000031  216.69900513    1.41999996    2.89000010
   18.43277740  219.65800476    1.44000006    2.89000010
   18.43583298  230.52699280    1.50000000    2.89000010
   18.43916512  222.67799377    1.58000004    2.89000010
   18.44222069  227.31700134    1.60000002    2.89000010
   18.44555473  218.77099609    1.61000001    2.89000010
   18.44888878  205.32299805    1.51999998    2.91000009
   18.45499992  205.32299805    1.44000006    2.89000010
   18.45888901  230.99200439    1.46000004    2.91000009
   18.46222305  228.37899780    1.46000004    2.91000009
   18.46333504  217.36700439    1.46000004    2.91000009
   18.46583366  230.69099426    1.39999998    2.89000010
   18.46888924  214.77699280    1.39999998    2.89000010
   18.47222328  202.40100098    1.39999998    2.89000010
   18.47527885  196.14700317    1.30999994    2.91000009
   18.47861099  205.77999878    1.50000000    2.89000010
   18.48194504  200.00100708    1.63000000    2.89000010
   18.48500061  213.72399902    1.64999998    2.89000010
   18.48833275  217.69599915    1.63000000    2.89000010
   18.49166679  206.50100708    1.63000000    2.91000009
   18.49777794  206.50100708    1.61000001    2.89000010
   18.50194359  210.44700623    1.50000000    2.89000010
   18.50499916  205.13099670    1.53999996    2.89000010
   18.50833321  208.77200317    1.53999996    2.89000010
   18.51166725  213.52999878    1.25000000    2.91000009
   18.51472282  197.14399719    1.11000001    2.91000009
   18.51805496  197.87500000    1.09000003    2.89000010
   18.52111053  217.95599365    1.07000005    2.91000009
   18.52444458  282.75000000    0.95999998    2.91000009
   18.52777672  206.00300598    0.94000000    2.91000009
   18.53000069  245.96099854    0.92000002    2.91000009
   18.53138924  234.75900269    0.92000002    2.91000009
   18.53444481  242.07800293    0.89999998    2.91000009
   18.54055595  242.07800293    0.83999997    2.91000009
   18.54472160  266.56399536    0.88000000    2.91000009
   18.54777718  253.12100220    0.88000000    2.91000009
   18.55111122  234.27799988    0.92000002    2.91000009
   18.55444336  256.92401123    0.88000000    2.91000009
   18.55749893  244.30599976    0.94000000    2.93000007
   18.56083298  244.87399292    0.89999998    2.91000009
   18.56333351  220.35899353    0.88000000    2.91000009
   18.56444359  239.18800354    0.92000002    2.91000009
   18.56750107  225.35000610    0.89999998    2.91000009
   18.57083511  233.48100281    0.88000000    2.91000009
   18.57416725  219.04499817    0.83999997    2.91000009
   18.57722282  235.78599548    0.86000001    2.91000009
   18.58333397  235.78599548    0.88000000    2.91000009
   18.58750153  228.82499695    0.92000002    2.91000009
   18.59083366  248.79299927    0.98000002    2.91000009
   18.59388924  217.43299866    0.92000002    2.91000009
   18.59666824  211.69799805    0.89999998    2.91000009
   18.59777832  222.89399719    0.92000002    2.91000009
   18.60083389  234.68899536    0.92000002    2.91000009
   18.60416794  210.59399414    1.05999994    2.91000009
   18.60722351  267.32400513    1.19000006    2.91000009
   18.61055565  263.86700439    1.19000006    2.89000010
   18.61388969  238.71899414    1.16999996    2.91000009
   18.61694527  210.83599854    1.14999998    2.89000010
   18.62027740  224.42199707    1.01999998    2.89000010
   18.62638855  224.42199707    0.92000002    2.91000009
   18.63027763  212.39199829    0.94000000    2.91000009
   18.63361168  210.00700378    0.95999998    2.91000009
   18.63694382  225.29400635    0.95999998    2.91000009
   18.63999939  204.63999939    1.11000001    2.89000010
   18.64333344  208.75199890    1.13000000    2.91000009
   18.64638901  211.54499817    1.14999998    2.89000010
   18.64972115  243.01600647    1.23000002    2.89000010
   18.65305519  229.06900024    1.39999998    2.89000010
   18.65611076  202.01100159    1.39999998    2.89000010
   18.65944481  258.85101318    1.39999998    2.89000010
   18.66277695  193.24000549    1.39999998    2.89000010
   18.66333389  237.09599304    1.39999998    2.89000010
   18.66916656  237.09599304    1.53999996    2.89000010
   18.67333221  198.58999634    1.64999998    2.89000010
   18.67638779  184.43899536    1.73000002    2.86999989
   18.67972183  180.01199341    1.75000000    2.89000010
   18.68277740  191.18400574    1.53999996    2.89000010
   18.68610954  197.61399841    1.60000002    2.89000010
   18.68944359  181.25900269    1.63000000    2.86999989
   18.69277763  196.98199463    1.63000000    2.89000010
   18.69583321  185.00500488    1.44000006    2.89000010
   18.69666672  193.43499756    1.44000006    2.89000010
   18.69972038  186.60899353    1.64999998    2.86999989
   18.70277786  194.48199463    1.60000002    2.89000010
   18.70611191  184.15899658    1.44000006    2.89000010
   18.71194458  184.15899658    1.44000006    2.89000010
   18.71611214  178.18800354    1.39999998    2.89000010
   18.71916771  164.89500427    1.44000006    2.89000010
   18.72249985  177.72799683    1.34000003    2.89000010
   18.72583389  179.97599792    1.50000000    2.89000010
   18.72888947  182.67100525    1.38000000    2.89000010
   18.73000145  182.36500549    1.39999998    2.89000010
   18.73277855  183.02200317    1.44000006    2.89000010
   18.73583412  187.29899597    1.58000004    2.89000010
   18.73916626  184.90299988    1.55999994    2.86999989
   18.74250031  188.56300354    1.55999994    2.89000010
   18.74555588  179.13699341    1.55999994    2.89000010
   18.74888992  183.56500244    1.51999998    2.89000010
   18.75472260  183.56500244    1.36000001    2.86999989
   18.75888824  188.17799377    1.33000004    2.89000010
   18.76222229  201.83500671    1.21000004    2.89000010
   18.76333427  183.19200134    1.21000004    2.89000010
   18.76583290  178.17900085    1.23000002    2.89000010
   18.76888847  201.71400452    1.44000006    2.89000010
   18.77222252  185.71099854    1.55999994    2.89000010
   18.77555466  195.29699707    1.53999996    2.89000010
   18.77861023  184.98500061    1.53999996    2.89000010
   18.78194427  189.14100647    1.48000002    2.89000010
   18.78499985  185.57499695    1.48000002    2.89000010
   18.78833199  182.22000122    1.36000001    2.89000010
   18.79166603  186.27799988    1.01999998    2.89000010
   18.79749870  186.27799988    0.73000002    2.89000010
   18.80166626  183.13200378    0.75000000    2.89000010
   18.80499840  184.96200562    0.76999998    2.89000010
   18.80833244  188.45599365    0.79000002    2.89000010
   18.81138802  185.37100220    0.79000002    2.91000009
   18.81472206  183.11399841    0.76999998    2.91000009
   18.81777954  178.55000305    0.81999999    2.89000010
   18.82111168  181.86099243    0.89999998    2.89000010
   18.82444572  176.91499329    0.86000001    2.89000010
   18.82750130  188.40199280    0.80000001    2.89000010
   18.83000183  179.50100708    0.81999999    2.91000009
   18.83139038  174.94999695    0.81999999    2.91000009
   18.83444595  183.64500427    0.76999998    2.89000010
   18.84055710  183.64500427    0.86000001    2.89000010
   18.84472275  186.08799744    0.89999998    2.89000010
   18.84777832  184.80000305    0.89999998    2.89000010
   18.85111237  185.83599854    1.41999996    2.86999989
   18.85444450  180.89599609    1.46000004    2.86999989
   18.85750008  189.96299744    1.48000002    2.89000010
   18.86083412  173.03100586    2.03999996    2.86999989
   18.86333466  178.94400024    2.51999998    2.86999989
   18.86444473  176.41600037    2.51999998    2.86999989
   18.86750031  180.89700317    2.78999996    2.86999989
   18.87083435  177.38699341    3.34999990    2.84999990
   18.87416649  185.57200623    3.43000007    2.84999990
   18.87722206  189.03199768    3.21000004    2.84999990
   18.88333321  189.03199768    2.84999990    2.84999990
   18.88750076  181.21400452    2.64000010    2.86999989
   18.89055634  183.26300049    2.19000006    2.84999990
   18.89388847  184.44400024    2.15000010    2.86999989
   18.89666748  187.46699524    2.32999992    2.86999989
   18.89777756  185.56399536    2.30999994    2.84999990
   18.90083313  180.65699768    2.28999996    2.84999990
   18.90416718  168.76899719    2.48000002    2.84999990
   18.90749931  178.09800720    2.51999998    2.82999992
   18.91055489  173.83200073    2.42000008    2.84999990
   18.91388893  180.66799927    2.42000008    2.84999990
   18.91694450  175.16499329    2.75000000    2.86999989
   18.92027664  176.48800659    2.48000002    2.84999990
   18.92611122  176.48800659    1.96000004    2.86999989
   18.93027687  174.50999451    1.98000002    2.86999989
   18.93361092  179.61500549    2.03999996    2.86999989
   18.93666649  180.98199463    1.69000006    2.86999989
   18.93999863  184.92999268    1.60000002    2.86999989
   18.94333267  188.61000061    1.48000002    2.86999989
   18.94638824  176.02900696    1.48000002    2.86999989
   18.94972038  172.17599487    1.44000006    2.86999989
   18.95277786  172.43200684    1.36000001    2.86999989
   18.95611191  178.54499817    1.36000001    2.86999989
   18.95944595  185.24400330    1.28999996    2.86999989
   18.96250153  171.84100342    1.26999998    2.86999989
   18.96333504  167.92700195    1.26999998    2.86999989
   18.96888924  167.92700195    1.26999998    2.86999989
   18.97305679  182.30499268    1.26999998    2.86999989
   18.97638893  179.58299255    1.33000004    2.86999989
   18.97972298  175.41299438    1.26999998    2.86999989
   18.98277855  177.93499756    1.16999996    2.86999989
   18.98611069  175.77900696    1.13000000    2.89000010
   18.98916626  170.05599976    1.11000001    2.89000010
   18.99250031  166.84399414    1.11000001    2.86999989
   18.99583435  170.73899841    1.14999998    2.86999989
   18.99666786  183.69500732    1.14999998    2.86999989
   18.99944496  177.65100098    1.11000001    2.86999989
   19.00250053  181.06599426    1.25000000    2.86999989
   19.00583267  176.26899719    1.36000001    2.86999989
   19.01194382  176.26899719    1.16999996    2.86999989
   19.01611137  176.89199829    1.05999994    2.86999989
   19.01916695  172.02499390    1.03999996    2.86999989
   19.02277756  179.96099854    1.03999996    2.86999989
   19.02583313  180.52099609    1.03999996    2.86999989
   19.02916718  181.65199280    1.11000001    2.86999989
   19.03000069  181.73100281    1.11000001    2.86999989
   19.03277779  171.00399780    1.19000006    2.86999989
   19.03583336  180.77200317    1.13000000    2.86999989
   19.03916550  182.25700378    1.13000000    2.86999989
   19.04249954  167.28599548    1.07000005    2.89000010
   19.04555511  181.10899353    1.05999994    2.86999989
   19.04888916  182.11700439    1.01999998    2.86999989
   19.05472183  182.11700439    0.98000002    2.86999989
   19.05888748  172.21899414    0.89999998    2.89000010
   19.06194305  181.99299622    0.86000001    2.86999989
   19.06333351  168.58299255    0.98000002    2.86999989
   19.06583214  170.96699524    1.05999994    2.86999989
   19.06888962  172.60099792    0.88000000    2.89000010
   19.07222366  185.10699463    0.88000000    2.89000010
   19.07555580  181.81199646    0.89999998    2.89000010
   19.07861137  180.55400085    0.94000000    2.89000010
   19.08194542  184.78500366    0.94000000    2.89000010
   19.08527756  177.10600281    0.80000001    2.86999989
   19.08833313  183.23100281    0.83999997    2.89000010
   19.09166718  185.48399353    0.95999998    2.86999989
   19.09749985  185.48399353    0.98000002    2.89000010
   19.10166740  181.88499451    0.94000000    2.86999989
   19.10499954  178.93699646    0.89999998    2.86999989
   19.10805511  176.85200500    0.89999998    2.89000010
   19.11138916  176.76699829    0.88000000    2.86999989
   19.11472321  176.19599915    0.88000000    2.86999989
   19.11777878  177.39700317    0.89999998    2.89000010
   19.12111092  179.25199890    0.89999998    2.86999989
   19.12416649  175.60899353    0.88000000    2.86999989
   19.12750053  182.55599976    0.88000000    2.89000010
   19.13000107  175.49099731    0.88000000    2.89000010
   19.13111115  182.10600281    0.92000002    2.86999989
   19.13416672  163.58099365    0.92000002    2.86999989
   19.14027786  163.58099365    0.88000000    2.86999989
   19.14444351  182.67399597    0.88000000    2.86999989
   19.14777756  180.31500244    0.86000001    2.89000010
   19.15111160  173.96499634    0.86000001    2.86999989
   19.15416718  186.14999390    0.86000001    2.86999989
   19.15749931  181.53399658    0.86000001    2.86999989
   19.16055489  181.97900391    0.86000001    2.86999989
   19.16333389  179.30700684    0.86000001    2.86999989
   19.16444397  179.48699951    0.88000000    2.86999989
   19.16777802  174.24699402    0.86000001    2.86999989
   19.17083359  179.07299805    0.86000001    2.86999989
   19.17416573  180.50300598    0.83999997    2.86999989
   19.17722130  176.88099670    0.83999997    2.86999989
   19.18333244  176.88099670    0.89999998    2.86999989
   19.18722153  176.52200317    0.92000002    2.86999989
   19.19055557  166.56799316    0.94000000    2.86999989
   19.19388771  173.61900330    0.92000002    2.84999990
   19.19666672  168.47999573    0.89999998    2.86999989
   19.19749832  174.08299255    0.89999998    2.86999989
   19.20083427  175.87600708    1.00000000    2.86999989
   19.20388985  164.04800415    1.03999996    2.86999989
   19.20722389  172.37399292    1.07000005    2.86999989
   19.21027946  178.36500549    1.11000001    2.86999989
   19.21361160  170.81500244    1.19000006    2.84999990
   19.23472214  170.81500244    1.07000005    2.86999989
   19.23888969  190.10899353    1.16999996    2.86999989
   19.24194527  174.89700317    1.19000006    2.84999990
   19.24527740  183.94299316    1.25000000    2.84999990
   19.24861145  171.62399292    1.28999996    2.84999990
   19.25166702  182.49400330    1.39999998    2.84999990
   19.25499916  181.71400452    1.41999996    2.84999990
   19.25833321  170.93400574    1.44000006    2.84999990
   19.26138878  177.31100464    1.48000002    2.84999990
   19.26472282  173.34500122    1.48000002    2.84999990
   19.26555634  164.63800049    1.48000002    2.84999990
   19.26805496  177.09500122    1.51999998    2.84999990
   19.27138901  180.30900574    1.53999996    2.84999990
   19.27750015  180.30900574    1.46000004    2.84999990
   19.28166580  173.94000244    1.41999996    2.84999990
   19.28472137  177.56199646    1.38000000    2.84999990
   19.28805542  172.15499878    1.38000000    2.84999990
   19.29138756  173.49400330    1.34000003    2.84999990
   19.29444313  180.31900024    1.28999996    2.84999990
   19.29777718  166.93299866    1.28999996    2.84999990
   19.29888916  170.13699341    1.25000000    2.84999990
   19.30138779  172.61000061    1.25000000    2.84999990
   19.30444336  174.13800049    1.23000002    2.86999989
   19.30777740  177.23300171    1.34000003    2.84999990
   19.31083298  168.55900574    1.26999998    2.84999990
   19.31416512  167.37500000    1.30999994    2.84999990
   19.32027817  167.37500000    1.30999994    2.84999990
   19.32444572  172.56700134    1.16999996    2.84999990
   19.32777786  166.43299866    1.16999996    2.84999990
   19.33083344  171.04299927    1.13000000    2.84999990
   19.33250046  158.26800537    1.13000000    2.84999990
   19.33444595  171.55700684    1.05999994    2.86999989
   19.33777809  167.33900452    1.05999994    2.84999990
   19.34083366  174.13099670    1.05999994    2.86999989
   19.34416771  165.46899414    1.05999994    2.86999989
   19.34749985  164.46000671    1.05999994    2.86999989
   19.35055542  170.32499695    1.09000003    2.86999989
   19.35388947  162.85299683    1.11000001    2.86999989
   19.35722351  168.64300537    1.11000001    2.86999989
   19.36305618  168.64300537    1.21000004    2.84999990
   19.36722183  178.16200256    1.21000004    2.84999990
   19.37055588  173.25399780    1.21000004    2.84999990
   19.37361145  172.44900513    1.23000002    2.84999990
   19.37694550  174.00700378    1.25000000    2.84999990
   19.38027763  170.09399414    1.21000004    2.84999990
   19.38333321  168.60499573    1.21000004    2.84999990
   19.38666725  176.52600098    1.21000004    2.84999990
   19.38999939  176.57600403    1.19000006    2.84999990
   19.39305496  171.84599304    1.19000006    2.84999990
   19.39638901  182.61700439    1.19000006    2.84999990
   19.39916611  174.72300720    1.16999996    2.84999990
   19.39999962  175.34399414    1.14999998    2.84999990
   19.40611076  175.34399414    1.16999996    2.84999990
   19.40999985  173.39500427    1.16999996    2.84999990
   19.41333389  175.88099670    1.16999996    2.84999990
   19.41666603  173.88400269    1.16999996    2.84999990
   19.41972160  178.50300598    1.16999996    2.84999990
   19.42305565  173.62300110    1.16999996    2.84999990
   19.42638779  167.77799988    1.16999996    2.84999990
   19.42944336  172.77400208    1.13000000    2.84999990
   19.43249893  176.82099915    1.14999998    2.84999990
   19.43305397  164.08599854    1.14999998    2.84999990
   19.43638802  169.51699829    1.13000000    2.86999989
   19.43972206  172.51100159    1.13000000    2.84999990
   19.44277763  164.88900757    1.13000000    2.84999990
   19.44888878  164.88900757    1.11000001    2.84999990
   19.45305634  163.93699646    1.11000001    2.84999990
   19.45611191  162.21600342    1.11000001    2.84999990
   19.45944595  165.03399658    1.07000005    2.84999990
   19.46277809  174.40600586    1.09000003    2.84999990
   19.46583366  169.30299377    1.09000003    2.84999990
   19.46638870  162.09899902    1.09000003    2.84999990
   19.46972275  162.35499573    1.11000001    2.84999990
   19.47305679  168.62100220    1.11000001    2.84999990
   19.47611237  171.25000000    1.11000001    2.84999990
   19.47944450  165.00500488    1.13000000    2.82999992
   19.48250008  168.66099548    1.16999996    2.82999992
   19.48583412  156.32800293    1.16999996    2.84999990
   19.49166679  156.32800293    1.19000006    2.82999992
   19.49583435  167.06199646    1.21000004    2.84999990
   19.49916649  169.44999695    1.21000004    2.84999990
   19.49944496  171.36399841    1.21000004    2.82999992
   19.50277710  169.35200500    1.21000004    2.84999990
   19.50611115  171.43699646    1.21000004    2.82999992
   19.50916672  173.34100342    1.21000004    2.82999992
   19.51250076  168.28700256    1.28999996    2.82999992
   19.51555634  166.58299255    1.23000002    2.82999992
   19.51888847  169.61000061    1.23000002    2.82999992
   19.52222252  166.70399475    1.21000004    2.82999992
   19.52527809  166.51899719    1.19000006    2.82999992
   19.52861023  164.11900330    1.16999996    2.84999990
   19.53444481  164.11900330    1.16999996    2.84999990
   19.53861046  173.79899597    1.16999996    2.82999992
   19.54194450  165.64199829    1.16999996    2.82999992
   19.54500008  167.61799622    1.13000000    2.82999992
   19.54833221  169.95799255    1.16999996    2.82999992
   19.55166626  162.59100342    1.16999996    2.82999992
   19.55499840  169.89799500    1.19000006    2.82999992
   19.55805397  165.01499939    1.16999996    2.82999992
   19.56138802  154.44500732    1.14999998    2.84999990
   19.56444359  160.57800293    1.14999998    2.84999990
   19.56583214  163.18200684    1.13000000    2.82999992
   19.56805611  158.94599915    1.16999996    2.82999992
   19.57139015  159.16099548    1.21000004    2.82999992
   19.57750130  159.16099548    1.19000006    2.82999992
   19.58139038  161.71099854    1.23000002    2.82999992
   19.58472252  156.50799561    1.26999998    2.82999992
   19.58805656  160.36799622    1.21000004    2.82999992
   19.59111214  158.84100342    1.21000004    2.82999992
   19.59444427  158.69099426    1.21000004    2.82999992
   19.59777832  157.83599854    1.11000001    2.82999992
   19.59916687  156.85000610    1.11000001    2.82999992
   19.60111237  161.07299805    1.11000001    2.82999992
   19.60444450  159.21200562    1.07000005    2.82999992
   19.60777855  160.65199280    1.07000005    2.80999994
   19.61083412  158.28199768    1.07000005    2.82999992
   19.61416626  160.23399353    1.05999994    2.82999992
   19.62027740  160.23399353    1.11000001    2.80999994
   19.62444496  159.24099731    1.14999998    2.80999994
   19.62750053  164.37100220    1.13000000    2.80999994
   19.63083267  164.02799988    1.13000000    2.82999992
   19.63277817  158.88800049    1.13000000    2.82999992
   19.63444519  159.13299561    1.14999998    2.82999992
   19.63777733  164.52000427    1.14999998    2.82999992
   19.64083290  159.91700745    1.16999996    2.82999992
   19.64416695  160.59599304    1.21000004    2.82999992
   19.64749908  152.65699768    1.23000002    2.82999992
   19.65055466  154.82499695    1.19000006    2.82999992
   19.65388870  154.86399841    1.13000000    2.82999992
   19.65722275  160.33799744    1.13000000    2.82999992
   19.66305542  160.33799744    1.14999998    2.82999992
   19.66722107  158.29600525    1.21000004    2.80999994
   19.67055511  158.02000427    1.23000002    2.80999994
   19.67361069  156.46200562    1.23000002    2.82999992
   19.67694473  152.20199585    1.30999994    2.82999992
   19.68000031  157.73699951    1.51999998    2.80999994
   19.68333244  159.47799683    1.63000000    2.80999994
   19.68666649  158.91400146    1.69000006    2.80999994
   19.68972206  162.24400330    2.01999998    2.78999996
   19.69305420  161.98199463    2.03999996    2.78999996
   19.69638824  163.95300293    2.05999994    2.78999996
   19.69944382  157.34199524    2.11999989    2.78999996
   19.70000076  160.65400696    2.36999989    2.76999998
   19.70583344  160.65400696    3.30999994    2.75000000
   19.71000099  159.85600281    3.09999990    2.76999998
   19.71333504  160.49400330    3.01999998    2.75000000
   19.71638870  166.17199707    2.98000002    2.75000000
   19.71972275  153.14399719    3.00000000    2.75000000
   19.72305679  155.53500366    2.64000010    2.76999998
   19.72611237  152.59599304    2.66000009    2.76999998
   19.72944450  154.73899841    2.51999998    2.75000000
   19.73277855  152.25999451    2.46000004    2.78999996
   19.73305511  152.14399719    2.46000004    2.78999996
   19.73638916  152.09899902    2.46000004    2.76999998
   19.73944473  148.49899292    2.39000010    2.76999998
   19.74277878  154.30200195    2.32999992    2.76999998
   19.74888992  154.30200195    2.21000004    2.78999996
   19.75277710  156.05799866    2.13000011    2.76999998
   19.75611115  151.88099670    2.07999992    2.78999996
   19.75944519  157.15400696    1.96000004    2.78999996
   19.76250076  147.89700317    1.91999996    2.78999996
   19.76583290  160.29600525    1.91999996    2.78999996
   19.76638794  164.08399963    1.91999996    2.78999996
   19.76972198  154.98899841    1.83000004    2.78999996
   19.77277756  160.24600220    1.75000000    2.78999996
   19.77611160  162.95500183    1.73000002    2.78999996
   19.77916718  159.20599365    1.64999998    2.78999996
   19.78249931  161.36799622    1.76999998    2.80999994
   19.78583336  164.22099304    1.73000002    2.78999996
   19.79166603  164.22099304    1.64999998    2.80999994
   19.79583359  158.62600708    1.71000004    2.78999996
   19.79888916  158.08200073    1.61000001    2.80999994
   19.79972076  165.96200562    1.60000002    2.78999996
   19.80277634  157.35800171    1.60000002    2.78999996
   19.80583191  163.36700439    1.60000002    2.78999996
   19.80916595  163.02999878    1.58000004    2.80999994
   19.81250000  160.22500610    1.58000004    2.78999996
   19.81555557  157.99499512    1.55999994    2.78999996
   19.81888962  159.48899841    1.55999994    2.78999996
   19.82194519  151.73199463    1.58000004    2.78999996
   19.82527924  153.44099426    1.58000004    2.78999996
   19.82861137  160.69000244    1.53999996    2.78999996
   19.83444595  160.69000244    1.50000000    2.78999996
   19.83861160  165.22700500    1.55999994    2.78999996
   19.84194565  162.49099731    1.60000002    2.78999996
   19.84500122  166.29600525    1.60000002    2.78999996
   19.84833336  157.56100464    1.58000004    2.78999996
   19.85138893  164.02999878    1.51999998    2.80999994
   19.85472298  155.86799622    1.51999998    2.78999996
   19.85805511  164.53700256    1.53999996    2.78999996
   19.86111069  163.18800354    1.51999998    2.78999996
   19.86444473  163.14599609    1.51999998    2.78999996
   19.86638832  162.24699402    1.53999996    2.78999996
   19.86833382  157.48899841    1.53999996    2.78999996
   19.87138939  165.66799927    1.55999994    2.78999996
   19.87722206  165.66799927    1.58000004    2.78999996
   19.88138962  157.45899963    1.58000004    2.78999996
   19.88472176  154.54200745    1.55999994    2.78999996
   19.88805580  162.62500000    1.55999994    2.78999996
   19.89111137  163.14100647    1.53999996    2.78999996
   19.89444351  160.68400574    1.51999998    2.78999996
   19.89749908  161.94599915    1.51999998    2.78999996
   19.89972115  156.84599304    1.50000000    2.78999996
   19.90138817  159.06900024    1.50000000    2.78999996
   19.90444374  158.25500488    1.48000002    2.78999996
   19.90777779  156.33500671    1.48000002    2.78999996
   19.91083336  153.53900146    1.48000002    2.78999996
   19.91416550  162.12899780    1.48000002    2.76999998
   19.92027664  162.12899780    1.48000002    2.78999996
   19.92416573  156.44599915    1.48000002    2.78999996
   19.92749977  153.94099426    1.48000002    2.78999996
   19.93083191  147.13800049    1.48000002    2.76999998
   19.93305397  153.40299988    1.46000004    2.76999998
   19.93444443  148.16900635    1.48000002    2.78999996
   19.93750000  157.20300293    1.48000002    2.76999998
   19.94083214  158.76499939    1.50000000    2.76999998
   19.94388771  160.78500366    1.50000000    2.78999996
   19.94722176  148.81100464    1.48000002    2.76999998
   19.95055580  159.68200684    1.48000002    2.76999998
   19.95361137  159.48399353    1.48000002    2.78999996
   19.95694542  147.06199646    1.48000002    2.78999996
   19.96305656  147.06199646    1.48000002    2.76999998
   19.96722221  158.11399841    1.48000002    2.76999998
   19.97027779  153.51600647    1.48000002    2.76999998
   19.97361183  158.21000671    1.46000004    2.76999998
   19.97666740  153.05499268    1.46000004    2.76999998
   19.98000145  161.63200378    1.46000004    2.78999996
   19.98333359  160.16600037    1.44000006    2.76999998
   19.98638916  162.02099609    1.46000004    2.76999998
   19.98972321  156.33999634    1.48000002    2.76999998
   19.99305534  163.82899475    1.48000002    2.76999998
   19.99611092  162.37899780    1.48000002    2.78999996
   19.99944496  156.85600281    1.46000004    2.78999996
   20.00000000  162.28399658    1.46000004    2.78999996
   20.00583267  162.28399658    1.46000004    2.78999996
   20.01000023  166.58799744    1.41999996    2.76999998
   20.01333427  161.08500671    1.39999998    2.78999996
   20.01638794  159.65100098    1.39999998    2.76999998
   20.01972198  160.22900391    1.39999998    2.76999998
   20.02277756  161.88200378    1.41999996    2.76999998
   20.02611160  161.14799500    1.41999996    2.78999996
   20.02944374  164.33700562    1.41999996    2.76999998
   20.03249931  163.94299316    1.41999996    2.78999996
   20.03333282  161.37600708    1.41999996    2.76999998
   20.03610992  161.41299438    1.41999996    2.76999998
   20.03944397  163.61500549    1.46000004    2.76999998
   20.04277802  162.71899414    1.44000006    2.76999998
   20.04861069  162.71899414    1.46000004    2.76999998
   20.05277634  155.45799255    1.46000004    2.76999998
   20.05611038  155.92300415    1.46000004    2.76999998
   20.05916595  160.93299866    1.46000004    2.76999998
   20.06250000  157.52400208    1.46000004    2.76999998
   20.06583214  160.28199768    1.44000006    2.76999998
   20.06666756  162.19400024    1.44000006    2.76999998
   20.06916809  152.92799377    1.46000004    2.76999998
   20.07250023  153.38600159    1.48000002    2.76999998
   20.07583427  153.43200684    1.46000004    2.75000000
   20.07888985  152.70199585    1.48000002    2.76999998
   20.08222389  156.57000732    1.50000000    2.75000000
   20.08555603  154.06300354    1.51999998    2.75000000
   20.09138870  154.06300354    1.53999996    2.76999998
   20.09555626  156.66799927    1.51999998    2.76999998
   20.09889030  159.39100647    1.53999996    2.75000000
   20.10000038  157.60299683    1.55999994    2.76999998
   20.10250092  151.55499268    1.53999996    2.76999998
   20.10583305  153.32400513    1.53999996    2.76999998
   20.10916710  155.23399353    1.53999996    2.76999998
   20.11222267  149.32499695    1.55999994    2.75000000
   20.11555672  156.97500610    1.58000004    2.76999998
   20.11888885  166.24699402    1.58000004    2.75000000
   20.12194443  160.54800415    1.58000004    2.75000000
   20.12527847  159.14300537    1.58000004    2.75000000
   20.12833405  155.92900085    1.58000004    2.75000000
   20.13444519  155.92900085    1.58000004    2.75000000
   20.13861084  157.16999817    1.61000001    2.75000000
   20.14166641  156.07099915    1.63000000    2.75000000
   20.14500046  149.77499390    1.64999998    2.75000000
   20.14805603  155.56900024    1.64999998    2.73000002
   20.15138817  153.31500244    1.66999996    2.75000000
   20.15472221  152.86900330    1.66999996    2.75000000
   20.15777779  150.52400208    1.69000006    2.75000000
   20.16110992  148.51899719    1.69000006    2.75000000
   20.16444397  153.34500122    1.66999996    2.75000000
   20.16666603  151.78399658    1.69000006    2.75000000
   20.16777802  155.13699341    1.69000006    2.75000000
   20.17111015  157.72999573    1.66999996    2.75000000
   20.17722130  157.72999573    1.69000006    2.75000000
   20.18138885  160.63800049    1.69000006    2.75000000
   20.18444443  159.77699280    1.71000004    2.75000000
   20.18777657  150.42500305    1.73000002    2.75000000
   20.19111061  155.51600647    1.73000002    2.75000000
   20.19416618  160.09800720    1.73000002    2.75000000
   20.19749832  158.06599426    1.71000004    2.75000000
   20.20000076  160.03900146    1.66999996    2.73000002
   20.20111275  162.61700439    1.66999996    2.73000002
   20.20472336  154.52600098    1.66999996    2.75000000
   20.20777893  152.23100281    1.66999996    2.75000000
   20.21111107  159.72000122    1.66999996    2.75000000
   20.21444511  160.96699524    1.64999998    2.75000000
   20.22000122  160.96699524    1.69000006    2.75000000
   20.22416687  159.21899414    1.69000006    2.73000002
   20.22750092  159.37300110    1.71000004    2.73000002
   20.23055649  165.72099304    1.75000000    2.73000002
   20.24833298  162.32099915    1.75000000    2.73000002
   20.25055504  162.88299561    1.75000000    2.73000002
   20.25388908  159.14999390    1.75000000    2.73000002
   20.25722313  159.08799744    1.76999998    2.73000002
   20.26305580  159.08799744    1.76999998    2.73000002
   20.26722145  154.30400085    1.78999996    2.73000002
   20.27055550  153.98199463    1.80999994    2.73000002
   20.27361107  150.68600464    1.85000002    2.73000002
   20.27694511  154.61900330    1.78999996    2.73000002
   20.28000069  156.65299988    1.80999994    2.73000002
   20.28138924  153.59599304    1.83000004    2.73000002
   20.28388786  155.11000061    1.83000004    2.73000002
   20.28722191  158.84199524    1.83000004    2.73000002
   20.29027748  159.85299683    1.86000001    2.73000002
   20.29361153  167.08599854    1.85000002    2.73000002
   20.29694366  155.58200073    1.85000002    2.73000002
   20.29999924  155.92599487    1.85000002    2.71000004
   20.30583191  155.92599487    1.86000001    2.73000002
   20.30999947  162.65400696    1.88000000    2.73000002
   20.31333351  158.23800659    1.89999998    2.73000002
   20.31472206  154.63200378    1.89999998    2.73000002
   20.31694603  160.56300354    1.89999998    2.71000004
   20.32027817  156.72200012    1.89999998    2.73000002
   20.32333374  166.97099304    1.89999998    2.71000004
   20.32666779  164.75799561    1.89999998    2.71000004
   20.33000183  163.97700500    1.89999998    2.73000002
   20.33305550  157.02600098    1.89999998    2.73000002
   20.33638954  156.18699646    1.89999998    2.71000004
   20.33972359  152.19599915    1.88000000    2.71000004
   20.34277916  153.52799988    2.01999998    2.71000004
   20.34889030  153.52799988    2.19000006    2.71000004
   20.35277748  157.65600586    2.03999996    2.71000004
   20.35611153  153.99200439    2.03999996    2.71000004
   20.35944557  159.97799683    2.03999996    2.71000004
   20.36250114  159.88099670    2.26999998    2.71000004
   20.36583328  161.55700684    2.34999990    2.69000006
   20.36916733  158.08299255    2.30999994    2.71000004
   20.37222290  156.02499390    1.88000000    2.71000004
   20.37555504  169.48500061    1.86000001    2.71000004
   20.37861061  170.16799927    1.85000002    2.71000004
   20.38138962  158.79600525    1.86000001    2.71000004
   20.38222313  156.65899658    1.88000000    2.71000004
   20.38555527  166.65699768    1.85000002    2.71000004
   20.39166641  166.65699768    1.86000001    2.71000004
   20.39583397  161.52999878    1.94000006    2.71000004
   20.39888954  158.63000488    2.03999996    2.71000004
   20.40222168  165.07600403    2.01999998    2.71000004
   20.40555573  162.38999939    2.01999998    2.71000004
   20.40861130  168.49400330    2.05999994    2.71000004
   20.41194344  168.81799316    2.03999996    2.71000004
   20.41472244  165.71600342    2.03999996    2.69000006
   20.41555595  162.88999939    2.03999996    2.69000006
   20.41888809  167.80000305    2.07999992    2.71000004
   20.42222214  160.33399963    2.00000000    2.71000004
   20.42527771  170.17599487    1.98000002    2.71000004
   20.42860985  160.13000488    1.96000004    2.71000004
   20.43444443  160.13000488    1.94000006    2.69000006
   20.43861008  162.74899292    1.94000006    2.69000006
   20.44194412  175.64399719    1.94000006    2.69000006
   20.44499969  167.71699524    1.96000004    2.69000006
   20.44805527  165.82499695    1.96000004    2.69000006
   20.44861031  163.74000549    1.96000004    2.69000006
   20.45194435  161.45799255    1.94000006    2.71000004
   20.45499992  164.28599548    1.96000004    2.69000006
   20.45833397  165.19099426    1.96000004    2.71000004
   20.46166801  165.64700317    1.98000002    2.69000006
   20.46472359  166.65600586    1.98000002    2.69000006
   20.46805573  172.35499573    1.98000002    2.71000004
   20.47111130  168.76800537    1.98000002    2.71000004
   20.47722244  168.76800537    1.96000004    2.69000006
   20.48139000  189.11999512    1.96000004    2.69000006
   20.48194504  185.88099670    1.96000004    2.69000006
   20.48527718  179.69500732    1.98000002    2.69000006
   20.48833275  209.58700562    2.01999998    2.69000006
