    HOUR (UT)   FLARE FACTOR    SKY TESTER    SUN TESTER
   12.13972187   -1.00000000   -1.00000000   -1.00000000
   12.16722298  158.26100159    0.38000000    0.40000001
   12.17083359  140.40499878    0.38000000    0.38000000
   12.17416668  145.08000183    0.36000001    0.38000000
   12.17750072  151.88099670    0.38000000    0.38000000
   12.18055630  161.07499695    0.38000000    0.38000000
   12.18750000  161.07499695    0.36000001    0.38000000
   12.19166660  167.39599609    1.09000003    2.23000002
   12.19499969  148.00399780    1.07000005    2.23000002
   12.19805527  160.57800293    1.09000003    2.25000000
   12.20055580  148.15400696    1.03999996    2.25000000
   12.20194435  155.74400330    1.03999996    2.25000000
   12.20499992  165.41499329    0.98000002    2.23000002
   12.20833302  150.26100159    0.94000000    2.25000000
   12.21166611  173.88000488    0.89999998    2.25000000
   12.21472168  156.45899963    0.89999998    2.25000000
   12.21805477  143.51400757    0.88000000    2.25000000
   12.22138882  154.32299805    0.81999999    2.25000000
   12.22444439  164.29899597    0.80000001    2.26999998
   12.23027706  164.29899597    0.79000002    2.26999998
   12.23444462  148.72700500    0.79000002    2.26999998
   12.23777771  167.94000244    0.76999998    2.25000000
   12.24111176  146.14500427    0.79000002    2.26999998
   12.24416733  161.68200684    0.92000002    2.28999996
   12.24750042  148.88800049    0.98000002    2.26999998
   12.25055599  155.15299988    1.03999996    2.26999998
   12.25388908  149.74699402    1.11000001    2.26999998
   12.25722218  147.89900208    1.09000003    2.26999998
   12.26027775  145.81799316    1.14999998    2.26999998
   12.26361084  149.86900330    1.11000001    2.26999998
   12.26694393  154.41799927    1.13000000    2.28999996
   12.26722240  151.50599670    1.13000000    2.30999994
   12.27333355  151.50599670    1.07000005    2.28999996
   12.27722168  158.05900574    1.11000001    2.26999998
   12.28055573  138.02299500    1.13000000    2.26999998
   12.28388977  146.48399353    1.11000001    2.28999996
   12.28694534  146.20300293    1.13000000    2.26999998
   12.29027843  137.36500549    1.14999998    2.28999996
   12.29361153  154.48399353    1.16999996    2.28999996
   12.29666710  142.91200256    1.16999996    2.30999994
   12.30000019  148.21299744    1.14999998    2.28999996
   12.30055618  138.18600464    1.14999998    2.28999996
   12.30361176  137.69900513    1.14999998    2.30999994
   12.30694485  151.88200378    1.14999998    2.30999994
   12.31000042  150.75799561    1.16999996    2.30999994
   12.31611156  150.75799561    2.57999992    2.28999996
   12.32027817  136.23699951    2.67000008    2.30999994
   12.32333374  146.02299500    2.57999992    2.30999994
   12.32666683  144.07800293    2.51999998    2.28999996
   12.32999992  145.81900024    2.44000006    2.28999996
   12.33305550  139.19500732    2.48000002    2.26999998
   12.33388901  139.20500183    2.51999998    2.26999998
   12.33666611  197.16099548    2.26999998    2.26999998
   12.34000015  142.53999329    2.48000002    2.07999992
   12.34305477  145.34599304    4.07999992    2.32999992
   12.34638882  143.95899963    2.76999998    2.23000002
   12.34972191  140.93499756    2.32999992    2.25000000
   12.35277843  138.56399536    2.28999996    2.30999994
   12.35888958  138.56399536    2.36999989    2.32999992
   12.36305618  148.25700378    1.96000004    2.26999998
   12.36638927  148.52699280    1.61000001    2.30999994
   12.36750031  146.85299683    1.66999996    2.30999994
   12.36972237  145.99200439    1.78999996    2.28999996
   12.37305546  147.11500549    2.05999994    2.30999994
   12.37611103  150.35099792    2.23000002    2.30999994
   12.37944412  143.64100647    2.21000004    2.30999994
   12.38277817  145.44200134    2.21000004    2.30999994
   12.38583279  141.72399902    2.39000010    2.30999994
   12.38916683  144.44500732    1.98000002    2.30999994
   12.39249992  145.38999939    1.98000002    2.32999992
   12.39555550  141.78500366    2.03999996    2.32999992
   12.40166664  141.78500366    1.83000004    2.32999992
   12.40583324  135.72099304    1.73000002    2.32999992
   12.40916634  147.16799927    1.69000006    2.32999992
   12.41249943  139.36999512    1.73000002    2.32999992
   12.41555500  139.99400330    1.80999994    2.26999998
   12.41888905  136.61999512    1.78999996    2.28999996
   12.42194462  135.57299805    1.78999996    2.28999996
   12.42527771  139.75900269    1.30999994    2.34999990
   12.42861176  133.25500488    1.33000004    2.36999989
   12.43166733  141.21000671    1.34000003    2.36999989
   12.43416691  144.19999695    1.41999996    2.36999989
   12.43527794  143.87100220    1.41999996    2.36999989
   12.43861103  142.47700500    1.41999996    2.36999989
   12.44472218  142.47700500    1.28999996    2.36999989
   12.44861126  144.25599670    1.16999996    2.34999990
   12.45194435  143.41799927    1.11000001    2.36999989
   12.45527744  144.92900085    1.11000001    2.36999989
   12.45833302  138.02000427    1.03999996    2.34999990
   12.46166611  142.07400513    0.83999997    2.34999990
   12.46500015  152.91299438    0.73000002    2.39000010
   12.46749973  146.34199524    0.67000002    2.39000010
   12.46833324  140.92900085    0.67000002    2.39000010
   12.47166634  152.40400696    0.63000000    2.39000010
   12.47472191  141.73500061    0.58999997    2.39000010
   12.47805500  141.36199951    0.55000001    2.39000010
   12.48138809  147.28399658    0.52999997    2.39000010
   12.48750019  147.28399658    0.52999997    2.39000010
   12.49166679  134.71899414    0.55000001    2.39000010
   12.49472237  132.36199951    0.76999998    2.39000010
   12.49805546  137.33500671    0.80000001    2.39000010
   12.50083351  133.21800232    0.80000001    2.39000010
   12.50166702  139.16999817    0.81999999    2.39000010
   12.50500011  144.79299927    0.98000002    2.39000010
   12.50805569  140.78799438    1.01999998    2.40000010
   12.51138878  145.90699768    1.26999998    2.39000010
   12.51472187  146.01300049    1.25000000    2.40000010
   12.51777744  140.20799255    1.28999996    2.39000010
   12.52111053  164.69700623    1.28999996    2.39000010
   12.52444458  140.73800659    1.38000000    2.36999989
   12.53027725  140.73800659    1.03999996    2.40000010
   12.53444481  138.12300110    1.03999996    2.40000010
   12.53777790  134.45300293    0.92000002    2.40000010
   12.54083347  147.38800049    0.76999998    2.40000010
   12.54416752  134.89900208    0.89999998    2.39000010
   12.54750061  143.67199707    1.39999998    2.36999989
   12.55055618  136.89799500    1.88000000    2.39000010
   12.55388927  142.29499817    1.61000001    2.40000010
   12.55694485  147.87899780    1.13000000    2.40000010
   12.56027794  152.01899719    1.11000001    2.40000010
   12.56361103  141.14100647    1.11000001    2.40000010
   12.56666660  145.79400635    0.98000002    2.40000010
   12.56750011  143.27900696    1.03999996    2.39000010
   12.57305527  143.27900696    1.03999996    2.42000008
   12.57722187  135.55000305    1.03999996    2.40000010
   12.58055592  134.78900146    1.21000004    2.42000008
   12.58361053  136.03100586    1.19000006    2.40000010
   12.58694458  138.91400146    0.88000000    2.42000008
   12.59027767  139.99200439    0.69000000    2.42000008
   12.59333324  139.92599487    0.67000002    2.42000008
   12.59666634  135.09899902    0.73000002    2.42000008
   12.60000038  130.78900146    0.73000002    2.42000008
   12.60083389  144.03799438    0.73000002    2.42000008
   12.60333347  132.13999939    0.75000000    2.42000008
   12.60666752  145.47799683    0.67000002    2.42000008
   12.61000061  140.61900330    0.67000002    2.42000008
   12.61611176  140.61900330    0.67000002    2.42000008
   12.61999989  136.22099304    0.67000002    2.44000006
   12.62333393  132.30700684    0.67000002    2.44000006
   12.62666702  137.28500366    0.67000002    2.42000008
   12.62972260  143.31500244    0.64999998    2.42000008
   12.63305569  136.24099731    0.61000001    2.44000006
   12.63416672  136.03799438    0.61000001    2.44000006
   12.63666630  135.90499878    0.55000001    2.42000008
   12.64000034  133.00900269    0.51999998    2.44000006
   12.64333344  131.13600159    0.51999998    2.44000006
   12.64638901  138.85400391    0.50000000    2.44000006
   12.64972210  139.67900085    0.50000000    2.44000006
   12.65277767  133.74099731    0.50000000    2.44000006
   12.65888882  133.74099731    0.52999997    2.44000006
   12.66305542  136.67500305    0.47999999    2.46000004
   12.66611099  128.69799805    0.47999999    2.44000006
   12.66750050  132.92799377    0.47999999    2.46000004
   12.66972256  131.26899719    0.47999999    2.44000006
   12.67305565  128.20500183    0.47999999    2.44000006
   12.67638874  127.43800354    0.47999999    2.44000006
   12.67944431  127.47200012    0.47999999    2.46000004
   12.68277836  120.53099823    0.46000001    2.46000004
   12.68583298  124.92800140    0.46000001    2.46000004
   12.68916702  126.71800232    0.46000001    2.46000004
   12.69250011  129.33599854    0.46000001    2.44000006
   12.69555569  132.77799988    0.46000001    2.46000004
   12.70166683  132.77799988    0.46000001    2.46000004
   12.70583344  133.40499878    0.46000001    2.46000004
   12.70916653  136.17500305    0.44000000    2.46000004
   12.71222210  132.00199890    0.46000001    2.46000004
   12.71555519  133.85099792    0.46000001    2.46000004
   12.71861076  126.02899933    0.44000000    2.46000004
   12.72194386  130.73599243    0.46000001    2.46000004
   12.72527695  131.64900208    0.44000000    2.46000004
   12.72833252  127.51300049    0.46000001    2.46000004
   12.73166656  127.55400085    0.46000001    2.46000004
   12.73416710  133.41400146    0.46000001    2.46000004
   12.73527813  123.51999664    0.44000000    2.46000004
   12.73861122  124.47100067    0.44000000    2.46000004
   12.74444485  124.47100067    0.44000000    2.48000002
   12.74861145  126.54199982    0.44000000    2.46000004
   12.75194454  127.44200134    0.44000000    2.46000004
   12.75500011  121.86900330    0.44000000    2.48000002
   12.75833321  126.92500305    0.44000000    2.46000004
   12.76166630  121.84899902    0.44000000    2.48000002
   12.76472187  123.49900055    0.44000000    2.48000002
   12.76749992  121.67199707    0.44000000    2.46000004
   12.76833344  117.98000336    0.44000000    2.46000004
   12.77166653  120.69300079    0.44000000    2.46000004
   12.77499962  124.23400116    0.44000000    2.48000002
   12.77805519  121.08399963    0.44000000    2.48000002
   12.78138828  128.46800232    0.44000000    2.48000002
   12.78750038  128.46800232    0.44000000    2.48000002
   12.79138947  121.19999695    0.41999999    2.48000002
   12.79472256  123.58899689    0.41999999    2.48000002
   12.79805565  125.92700195    0.41999999    2.48000002
   12.80083370  120.83100128    0.44000000    2.48000002
   12.80166721  127.52999878    0.41999999    2.48000002
   12.80500031  126.06199646    0.44000000    2.48000002
   12.80833340  124.77999878    0.44000000    2.50000000
   12.81138897  119.88999939    0.41999999    2.48000002
   12.81472206  114.39600372    0.41999999    2.50000000
   12.81777763  118.47699738    0.41999999    2.48000002
   12.82111073  116.56600189    0.41999999    2.48000002
   12.82444477  122.40499878    0.44000000    2.48000002
   12.83027744  122.40499878    0.41999999    2.50000000
   12.83444405  118.67400360    0.41999999    2.48000002
   12.83749962  119.09700012    0.41999999    2.50000000
   12.84083271  118.07199860    0.41999999    2.50000000
   12.84416676  115.58999634    0.41999999    2.50000000
   12.84722233  127.07399750    0.44000000    2.48000002
   12.85055637  121.36599731    0.44000000    2.48000002
   12.85388947  124.38300323    0.41999999    2.50000000
   12.85694504  118.46600342    0.41999999    2.50000000
   12.86027813  119.67400360    0.41999999    2.50000000
   12.86361122  115.97200012    0.41999999    2.50000000
   12.86666679  111.61799622    0.41999999    2.50000000
   12.86750031  121.16300201    0.41999999    2.50000000
   12.87305546  121.16300201    0.41999999    2.50000000
   12.87722206  121.31300354    0.41999999    2.50000000
   12.88055611  123.60500336    0.41999999    2.50000000
   12.88361073  120.52999878    0.41999999    2.51999998
   12.88694477  118.92400360    0.41999999    2.51999998
   12.89000034  121.82099915    0.41999999    2.51999998
   12.89333344  127.01399994    0.41999999    2.51999998
   12.89666653  120.20600128    0.41999999    2.50000000
   12.89972210  117.65299988    0.41999999    2.51999998
   12.90083313  117.42900085    0.41999999    2.51999998
   12.90333271  112.01999664    0.41999999    2.51999998
   12.90666676  119.94599915    0.41999999    2.50000000
   12.90999985  115.12000275    0.41999999    2.51999998
   12.91583252  115.12000275    0.41999999    2.51999998
   12.92000008  118.98100281    0.41999999    2.51999998
   12.92333412  116.72599792    0.41999999    2.51999998
   12.92638874  117.51100159    0.41999999    2.50000000
   12.92972279  118.38099670    0.41999999    2.51999998
   12.93305588  115.29100037    0.41999999    2.51999998
   12.93416691  121.81700134    0.41999999    2.51999998
   12.93638897  122.53299713    0.41999999    2.51999998
   12.93972206  119.68199921    0.41999999    2.51999998
   12.94305515  113.30599976    0.41999999    2.51999998
   12.94611073  116.42900085    0.41999999    2.51999998
   12.94944477  116.42800140    0.41999999    2.51999998
   12.95277786  111.08499908    0.41999999    2.51999998
   12.95888901  111.08499908    0.41999999    2.51999998
   12.96277714  116.17500305    0.41999999    2.51999998
   12.96611118  115.24099731    0.41999999    2.51999998
   12.96749973  119.96199799    0.41999999    2.53999996
   12.96972179  117.97699738    0.41999999    2.53999996
   12.97305489  114.66799927    0.41999999    2.51999998
   12.97638798  112.63400269    0.41999999    2.51999998
   12.97944355  114.63400269    0.41999999    2.53999996
   12.98277760  114.82499695    0.41999999    2.51999998
   12.98611164  111.15100098    0.41999999    2.53999996
   12.98916721  111.20400238    0.41999999    2.53999996
   12.99250031  112.81600189    0.41999999    2.53999996
   12.99555588  111.87400055    0.41999999    2.55999994
   13.00166702  111.87400055    0.41999999    2.53999996
   13.00583363  111.97100067    0.41999999    2.53999996
   13.00888920  113.40799713    0.41999999    2.53999996
   13.01222229  113.96600342    0.41999999    2.53999996
   13.01555538  107.51000214    0.41999999    2.55999994
   13.01861095  110.53900146    0.41999999    2.53999996
   13.02194405  112.51799774    0.41999999    2.53999996
   13.02499962  110.08799744    0.41999999    2.53999996
   13.02833271  111.44200134    0.41999999    2.53999996
   13.03166676  111.68199921    0.41999999    2.53999996
   13.03416729  111.56099701    0.41999999    2.53999996
   13.03500080  113.86900330    0.41999999    2.53999996
   13.03833389  112.80699921    0.41999999    2.53999996
   13.04444504  112.80699921    0.41999999    2.53999996
   13.04861164  110.21499634    0.41999999    2.55999994
   13.05194473  106.97699738    0.41999999    2.55999994
   13.05500031  106.50700378    0.40000001    2.53999996
   13.05833340  106.87100220    0.40000001    2.55999994
   13.06138897  104.11399841    0.40000001    2.55999994
   13.06472206  105.89099884    0.40000001    2.55999994
   13.06750011  103.63300323    0.40000001    2.55999994
   13.06861115  106.09999847    0.40000001    2.55999994
   13.07166672  107.80500031    0.40000001    2.53999996
   13.07499981  105.44000244    0.40000001    2.55999994
   13.07805538  107.04199982    0.40000001    2.53999996
   13.08138847  107.44000244    0.40000001    2.55999994
   13.08722210  107.44000244    0.40000001    2.55999994
   13.09138870  104.91600037    0.40000001    2.55999994
   13.09472179  101.78299713    0.40000001    2.55999994
   13.09777737  102.57599640    0.40000001    2.55999994
   13.10083389  101.14299774    0.40000001    2.55999994
   13.10138893  109.77500153    0.40000001    2.55999994
   13.10472298  107.55599976    0.40000001    2.55999994
   13.10805607  102.77300262    0.40000001    2.55999994
   13.11111164  105.13700104    0.40000001    2.55999994
   13.11444473  105.75800323    0.40000001    2.57999992
   13.11777782  106.14399719    0.40000001    2.55999994
   13.12083340  108.76000214    0.40000001    2.55999994
   13.12416649  104.93199921    0.40000001    2.55999994
   13.13027763  104.93199921    0.40000001    2.55999994
   13.13416672  107.22200012    0.40000001    2.55999994
   13.13749981  109.18299866    0.40000001    2.55999994
   13.14083290  108.83799744    0.40000001    2.55999994
   13.14388847  103.01399994    0.40000001    2.55999994
   13.14722252  110.04199982    0.40000001    2.55999994
   13.15055561  103.64099884    0.40000001    2.55999994
   13.15361118  103.52999878    0.40000001    2.55999994
   13.15694427  107.56199646    0.40000001    2.57999992
   13.15999985  105.21099854    0.40000001    2.57999992
   13.16333294  107.97799683    0.40000001    2.57999992
   13.16666698  102.98999786    0.40000001    2.55999994
   13.16750050  102.29900360    0.40000001    2.55999994
   13.18805599  102.29900360    0.40000001    2.57999992
   13.19222260  145.69200134    0.40000001    2.57999992
   13.19555569  141.52299500    0.40000001    2.57999992
   13.19888878  142.81100464    0.40000001    2.57999992
   13.20083332  144.72999573    0.40000001    2.57999992
   13.20249939  148.63000488    0.40000001    2.57999992
   13.20555496  143.36999512    0.40000001    2.61999989
   13.20888901  146.06900024    0.40000001    2.59999990
   13.21194458  156.41499329    0.40000001    2.59999990
   13.21527767  150.85899353    0.38000000    2.57999992
   13.21861076  145.29899597    0.40000001    2.57999992
   13.22166634  148.80599976    0.38000000    2.57999992
   13.22499943  151.92300415    0.38000000    2.57999992
   13.23083305  151.92300415    0.38000000    2.59999990
   13.23500061  155.62800598    0.38000000    2.57999992
   13.23833370  150.74800110    0.38000000    2.57999992
   13.24166679  153.73300171    0.38000000    2.59999990
   13.24472237  147.27900696    0.38000000    2.57999992
   13.24805546  155.53399658    0.38000000    2.59999990
   13.25111103  156.06100464    0.36000001    2.57999992
   13.25444412  154.08299255    0.36000001    2.57999992
   13.25777817  158.01100159    0.38000000    2.59999990
   13.26083374  145.67399597    0.36000001    2.59999990
   13.26416683  148.82600403    0.38000000    2.59999990
   13.26749992  145.16400146    0.38000000    2.59999990
   13.26777744  146.22900391    0.38000000    2.57999992
   13.27388859  146.22900391    0.38000000    2.59999990
   13.27777767  157.75199890    0.38000000    2.59999990
   13.28111076  144.93699646    0.36000001    2.57999992
   13.28444481  139.27900696    0.36000001    2.59999990
   13.28750038  150.86700439    0.36000001    2.59999990
   13.29083347  137.48599243    0.36000001    2.59999990
   13.29416752  146.23800659    0.38000000    2.59999990
   13.29722309  142.75000000    0.36000001    2.59999990
   13.30055618  143.55700684    0.38000000    2.59999990
   13.30111122  141.80700684    0.38000000    2.59999990
   13.30416679  144.90499878    0.36000001    2.59999990
   13.30749989  142.29600525    0.36000001    2.59999990
   13.31055546  145.17799377    0.36000001    2.61999989
   13.31666660  145.17799377    0.38000000    2.59999990
   13.32083321  146.34899902    0.38000000    2.59999990
   13.32388878  150.27099609    0.36000001    2.59999990
   13.32722187  155.72200012    0.36000001    2.59999990
   13.33055592  144.77200317    0.36000001    2.59999990
   13.33361053  141.43200684    0.38000000    2.59999990
   13.33444405  149.97799683    0.38000000    2.59999990
   13.33722210  145.41099548    0.36000001    2.61999989
   13.34055519  146.54699707    0.36000001    2.59999990
   13.34361076  150.08099365    0.36000001    2.61999989
   13.34694386  155.80799866    0.36000001    2.59999990
   13.35027790  143.73800659    0.36000001    2.61999989
   13.35361195  148.40400696    0.36000001    2.59999990
   13.35944462  148.40400696    0.36000001    2.61999989
   13.36361122  138.79600525    0.34000000    2.59999990
   13.36694431  146.02000427    0.34000000    2.61999989
   13.36777782  143.91299438    0.34000000    2.61999989
   13.37027836  148.08599854    0.34000000    2.61999989
   13.37361145  145.99800110    0.34000000    2.61999989
   13.37666702  148.47200012    0.36000001    2.61999989
   13.38000011  147.70399475    0.34000000    2.61999989
   13.38333321  138.32000732    0.36000001    2.61999989
   13.38638878  148.33200073    0.36000001    2.61999989
   13.38972187  149.70199585    0.36000001    2.61999989
   13.39305496  146.31399536    0.36000001    2.61999989
   13.39611053  148.20399475    0.36000001    2.61999989
   13.40222168  148.20399475    0.36000001    2.61999989
   13.40638828  145.18200684    0.36000001    2.61999989
   13.40972137  146.25399780    0.36000001    2.61999989
   13.41277695  148.40499878    0.36000001    2.61999989
   13.41611099  142.08999634    0.36000001    2.61999989
   13.41944504  145.64799500    0.38000000    2.61999989
   13.42250061  146.20799255    0.38000000    2.61999989
   13.42583370  141.48300171    0.38000000    2.64000010
   13.42888927  145.78500366    0.38000000    2.61999989
   13.43222237  137.96499634    0.38000000    2.64000010
   13.43472195  137.23199463    0.36000001    2.61999989
   13.43583298  140.37300110    0.36000001    2.61999989
   13.43916702  147.44599915    0.36000001    2.64000010
   13.44527817  147.44599915    0.36000001    2.61999989
   13.44916630  136.83700562    0.36000001    2.64000010
   13.45249939  137.12899780    0.36000001    2.64000010
   13.45583344  142.14500427    0.36000001    2.61999989
   13.45888901  132.60699463    0.36000001    2.61999989
   13.46222210  136.29299927    0.36000001    2.64000010
   13.46527767  146.80299377    0.38000000    2.64000010
   13.46805477  145.85200500    0.36000001    2.61999989
   13.46888828  142.83299255    0.38000000    2.64000010
   13.47222137  141.71699524    0.38000000    2.61999989
   13.47527695  139.04499817    0.38000000    2.61999989
   13.47861099  139.54200745    0.36000001    2.64000010
   13.48194408  145.34100342    0.36000001    2.61999989
   13.48805618  145.34100342    0.36000001    2.64000010
   13.49222279  145.73500061    0.36000001    2.64000010
   13.49527836  139.65699768    0.38000000    2.64000010
   13.49861145  146.74699402    0.38000000    2.61999989
   13.50138855  131.92599487    0.38000000    2.61999989
   13.50222206  134.78700256    0.36000001    2.64000010
   13.50555515  139.64999390    0.36000001    2.64000010
   13.50861073  137.76400757    0.38000000    2.64000010
   13.51194477  139.47000122    0.36000001    2.64000010
   13.51527786  137.46400452    0.36000001    2.64000010
   13.51833344  136.47200012    0.36000001    2.64000010
   13.52166653  144.20599365    0.36000001    2.61999989
   13.52499962  140.44299316    0.36000001    2.61999989
   13.53083324  140.44299316    0.38000000    2.64000010
   13.53500080  139.79400635    0.38000000    2.66000009
   13.53805637  133.67300415    0.36000001    2.64000010
   13.54138947  134.71699524    0.36000001    2.66000009
   13.54472256  130.76499939    0.38000000    2.64000010
   13.54777813  129.95500183    0.38000000    2.61999989
   13.55111122  143.64100647    0.36000001    2.64000010
   13.55444431  133.81599426    0.36000001    2.64000010
   13.55749989  134.24600220    0.38000000    2.61999989
   13.56083393  137.72300720    0.36000001    2.64000010
   13.56388950  138.85699463    0.36000001    2.64000010
   13.56722260  138.83999634    0.38000000    2.61999989
   13.56805515  144.53100586    0.38000000    2.61999989
   13.57361126  144.53100586    0.38000000    2.64000010
   13.57777786  142.10899353    0.38000000    2.64000010
   13.58111095  142.63000488    0.38000000    2.64000010
   13.58416653  147.20700073    0.38000000    2.64000010
   13.58749962  140.09199524    0.38000000    2.64000010
   13.59083271  146.68200684    0.38000000    2.66000009
   13.59388828  135.33700562    0.38000000    2.66000009
   13.59722233  135.58399963    0.38000000    2.64000010
   13.60055637  141.75100708    0.38000000    2.66000009
   13.60138893  137.91000366    0.38000000    2.64000010
   13.60388947  136.42799377    0.38000000    2.64000010
   13.60722256  136.52600098    0.38000000    2.66000009
   13.61055565  143.27400208    0.36000001    2.64000010
   13.61666679  143.27400208    0.38000000    2.66000009
   13.62055588  132.69799805    0.38000000    2.64000010
   13.62388897  132.39100647    0.36000001    2.66000009
   13.62722206  135.79299927    0.36000001    2.66000009
   13.63027763  133.57000732    0.38000000    2.66000009
   13.63361073  132.92500305    0.36000001    2.64000010
   13.63472176  135.37500000    0.36000001    2.64000010
   13.63722229  128.45500183    0.36000001    2.64000010
   13.64055538  131.06100464    0.36000001    2.64000010
   13.64388847  130.95100403    0.36000001    2.66000009
   13.64694405  135.81100464    0.38000000    2.64000010
   13.65027714  133.78900146    0.38000000    2.66000009
   13.65333271  136.79600525    0.36000001    2.66000009
   13.65944386  136.79600525    0.38000000    2.64000010
   13.66361046  131.90100098    0.36000001    2.66000009
   13.66666698  135.21600342    0.36000001    2.64000010
   13.66805553  137.76199341    0.36000001    2.64000010
   13.67027855  134.92599487    0.36000001    2.66000009
   13.67361164  135.13499451    0.36000001    2.66000009
   13.67666721  134.25300598    0.36000001    2.66000009
   13.68000031  129.68899536    0.38000000    2.66000009
   13.68333340  135.59100342    0.40000001    2.69000006
   13.68666649  136.99899292    0.41999999    2.66000009
   13.68972206  130.41099548    0.38000000    2.66000009
   13.69305515  133.05599976    0.36000001    2.66000009
   13.69611073  137.47999573    0.36000001    2.64000010
   13.70222187  137.47999573    0.36000001    2.66000009
   13.70638847  131.28199768    0.36000001    2.67000008
   13.70944405  122.89299774    0.36000001    2.66000009
   13.71277714  127.41200256    0.36000001    2.66000009
   13.71611118  125.63099670    0.34000000    2.66000009
   13.71916580  131.12699890    0.36000001    2.67000008
   13.72249985  128.59399414    0.34000000    2.67000008
   13.72583294  129.41299438    0.36000001    2.66000009
   13.72888851  127.57700348    0.34000000    2.67000008
   13.73222160  126.77200317    0.34000000    2.67000008
   13.73472214  127.73400116    0.34000000    2.66000009
   13.73583317  129.00100708    0.34000000    2.67000008
   13.73916721  126.51699829    0.34000000    2.67000008
   13.74499989  126.51699829    0.31999999    2.66000009
   13.74916649  133.56799316    0.31999999    2.67000008
   13.75249958  127.17600250    0.31999999    2.67000008
   13.75555515  131.12100220    0.31999999    2.66000009
   13.75888920  122.27600098    0.31999999    2.66000009
   13.76222229  126.01000214    0.31999999    2.66000009
   13.76527786  132.62300110    0.31999999    2.67000008
   13.76805496  127.13899994    0.34000000    2.67000008
   13.76888847  135.22599792    0.34000000    2.67000008
   13.77222157  125.74500275    0.31999999    2.67000008
   13.77555561  132.66000366    0.34000000    2.67000008
   13.77861118  128.87300110    0.31999999    2.66000009
   13.78194427  130.95599365    0.34000000    2.67000008
   13.78777790  130.95599365    0.34000000    2.66000009
   13.79194450  132.39999390    0.34000000    2.69000006
   13.79527855  129.80499268    0.34000000    2.67000008
   13.79861164  126.19300079    0.34000000    2.66000009
   13.80138874  130.76100159    0.34000000    2.67000008
   13.80222225  129.08299255    0.34000000    2.67000008
   13.80555534  125.65699768    0.34000000    2.66000009
   13.80888939  122.28800201    0.31999999    2.67000008
   13.81194496  125.01599884    0.34000000    2.66000009
   13.81527805  124.42800140    0.34000000    2.66000009
   13.81833363  130.97300720    0.34000000    2.67000008
   13.82166672  126.89700317    0.34000000    2.64000010
   13.82499981  123.08100128    0.34000000    2.67000008
   13.83083344  123.08100128    0.34000000    2.69000006
   13.83500004  126.15799713    0.34000000    2.67000008
   13.83805561  117.20700073    0.34000000    2.67000008
   13.84138870  128.67199707    0.34000000    2.67000008
   13.84444427  126.69599915    0.34000000    2.67000008
   13.84777737  123.28399658    0.34000000    2.67000008
   13.85111141  123.81500244    0.34000000    2.67000008
   13.85416698  125.95700073    0.34000000    2.67000008
   13.85750008  130.47399902    0.34000000    2.69000006
   13.86083412  126.16400146    0.34000000    2.69000006
   13.86388969  127.80899811    0.36000001    2.67000008
   13.86722279  125.38400269    0.36000001    2.67000008
   13.86805534  126.43199921    0.36000001    2.67000008
   13.87361145  126.43199921    0.38000000    2.67000008
   13.87777805  114.57499695    0.40000001    2.67000008
   13.88083363  122.44699860    0.36000001    2.67000008
   13.88416672  122.52600098    0.36000001    2.69000006
   13.88749981  122.54299927    0.36000001    2.67000008
   13.89055538  126.54399872    0.36000001    2.67000008
   13.89388847  125.90000153    0.38000000    2.67000008
   13.89722252  127.30300140    0.36000001    2.69000006
   13.90027714  123.68399811    0.36000001    2.67000008
   13.90138817  125.07800293    0.36000001    2.67000008
   13.90416622  127.38800049    0.36000001    2.69000006
   13.90722179  123.00099945    0.36000001    2.69000006
   13.91055489  121.49500275    0.36000001    2.69000006
   13.91638851  121.49500275    0.38000000    2.67000008
   13.92055607  119.29199982    0.36000001    2.67000008
   13.92388916  118.59400177    0.36000001    2.69000006
   13.92694473  125.60099792    0.36000001    2.69000006
   13.93027782  122.78099823    0.36000001    2.67000008
   13.93361092  123.09300232    0.36000001    2.69000006
   13.93472195  124.59400177    0.38000000    2.69000006
   13.93694496  125.08899689    0.36000001    2.67000008
   13.94027805  125.93900299    0.38000000    2.69000006
   13.94361115  130.37100220    0.36000001    2.67000008
   13.94666672  122.90599823    0.36000001    2.69000006
   13.94999981  130.26400757    0.40000001    2.67000008
   13.95333290  121.89199829    0.40000001    2.69000006
   13.95916653  121.89199829    0.79000002    2.69000006
   13.96333313  123.60199738    0.86000001    2.67000008
   13.96666622  122.54199982    1.00000000    2.69000006
   13.96805477  120.31400299    1.00000000    2.67000008
   13.97027779  126.79499817    0.89999998    2.69000006
   13.97361088  122.53099823    0.81999999    2.69000006
   13.97694397  124.02600098    0.81999999    2.67000008
   13.97999954  122.73899841    0.86000001    2.67000008
   13.98333359  125.60900116    0.83999997    2.67000008
   13.98638916  122.25800323    0.86000001    2.69000006
   13.98972225  120.37699890    0.86000001    2.69000006
   13.99305534  121.19599915    0.36000001    2.69000006
   13.99611092  120.45099640    0.36000001    2.69000006
   14.00222206  120.45099640    0.36000001    2.67000008
   14.00638866  113.66999817    0.41999999    2.69000006
   14.00944424  119.92299652    2.09999990    2.66000009
   14.01277733  128.46099854    2.19000006    2.67000008
   14.01583290  120.38600159    2.03999996    2.66000009
   14.01916599  121.54799652    2.19000006    2.66000009
   14.02250004  123.17700195    1.91999996    2.67000008
   14.02555561  121.14099884    1.71000004    2.67000008
   14.02888870  122.84300232    1.73000002    2.66000009
   14.03222179  123.60500336    1.80999994    2.67000008
   14.03472233  117.51000214    1.80999994    2.67000008
   14.03555584  121.51000214    1.80999994    2.67000008
   14.03888893  121.50299835    0.95999998    2.67000008
   14.04500008  121.50299835    0.63000000    2.69000006
   14.04916668  124.66400146    0.64999998    2.69000006
   14.05222225  119.48600006    0.63000000    2.69000006
   14.05555534  111.53900146    0.61000001    2.69000006
   14.05888939  120.39700317    0.73000002    2.69000006
   14.06194496  115.24700165    0.63000000    2.67000008
   14.06527805  117.54699707    0.63000000    2.67000008
   14.06805515  119.88500214    0.34000000    2.69000006
   14.06888866  116.62799835    0.34000000    2.71000004
   14.07222176  115.36599731    0.31999999    2.69000006
   14.07555580  124.61199951    0.34000000    2.69000006
   14.07861137  117.49299622    0.31999999    2.69000006
   14.08194447  111.84899902    0.34000000    2.71000004
   14.08777714  111.84899902    0.31999999    2.69000006
   14.09194374  117.52899933    0.34000000    2.69000006
   14.09527779  119.13500214    0.31999999    2.69000006
   14.09833336  116.14199829    0.34000000    2.69000006
   14.10138893  120.56099701    0.34000000    2.69000006
   14.10222244  117.97299957    0.34000000    2.69000006
   14.10527802  127.64399719    0.34000000    2.69000006
   14.10861111  115.14600372    0.34000000    2.69000006
   14.11166668  120.67700195    0.34000000    2.71000004
   14.11500072  126.37999725    0.34000000    2.71000004
   14.11833382  120.77200317    0.36000001    2.69000006
   14.12138939  118.21299744    0.34000000    2.69000006
   14.12472248  121.62699890    0.34000000    2.71000004
   14.13055611  121.62699890    0.34000000    2.69000006
   14.13472176  112.24600220    0.34000000    2.71000004
   14.13805580  115.79100037    0.34000000    2.71000004
   14.14111137  119.29100037    0.34000000    2.71000004
   14.14444447  115.57299805    0.34000000    2.71000004
   14.14777756  118.09400177    0.34000000    2.71000004
   14.15083313  113.79000092    0.36000001    2.71000004
   14.15416622  114.90299988    0.36000001    2.69000006
   14.15749931  115.98000336    0.36000001    2.71000004
   14.16055489  116.76000214    0.41999999    2.71000004
   14.16388893  115.44200134    0.41999999    2.69000006
   14.16694450  118.71900177    0.58999997    2.67000008
   14.16805553  122.10600281    0.63000000    2.69000006
   14.17361164  122.10600281    0.64999998    2.67000008
   14.17750072  112.37300110    0.69000000    2.71000004
   14.18083382  112.06500244    0.61000001    2.69000006
   14.18416691  113.30200195    0.58999997    2.71000004
   14.20166683  126.02400208    0.38000000    2.71000004
   14.20416641  128.08900452    0.38000000    2.71000004
   14.20722198  134.84399414    0.38000000    2.71000004
   14.21055508  129.98500061    0.40000001    2.69000006
   14.21666622  129.98500061    0.40000001    2.71000004
   14.22055531  124.90299988    0.38000000    2.71000004
   14.22388840  129.74899292    0.41999999    2.71000004
   14.22722149  122.33100128    0.36000001    2.71000004
   14.23027706  127.08300018    0.38000000    2.71000004
   14.23361111  128.93699646    0.38000000    2.71000004
   14.23500061  124.43199921    0.36000001    2.71000004
   14.23750019  123.86299896    0.34000000    2.71000004
   14.24055576  133.21600342    0.34000000    2.71000004
   14.24388885  125.81300354    0.34000000    2.71000004
   14.24694443  120.28900146    0.36000001    2.71000004
   14.25027752  124.06700134    0.36000001    2.71000004
   14.25361156  124.30000305    0.36000001    2.71000004
   14.25944424  124.30000305    0.38000000    2.73000002
   14.26361084  115.57099915    0.38000000    2.71000004
   14.26666641  117.69400024    0.38000000    2.71000004
   14.26833344  122.55599976    0.47999999    2.73000002
   14.27027798  125.93399811    0.47999999    2.71000004
   14.27361107  127.80200195    0.80000001    2.71000004
   14.27694416  133.26499939    0.83999997    2.69000006
   14.27999973  119.50499725    0.88000000    2.69000006
   14.28333378  124.59400177    1.01999998    2.71000004
   14.28666687  127.24700165    1.50000000    2.71000004
   14.28972244  137.43200684    1.66999996    2.71000004
   14.29305553  129.84100342    1.66999996    2.69000006
   14.29638958  133.87800598    2.59999990    2.69000006
   14.30222225  133.87800598    4.90999985    2.64000010
   14.30638885  138.16000366    4.90999985    2.61999989
   14.30944443  128.40800476    4.90999985    2.66000009
   14.31277752  127.73200226    4.11999989    2.66000009
   14.31611156  136.14599609    4.63999987    2.59999990
   14.31916618  135.43200684    4.90999985    2.64000010
   14.32250023  135.59300232    4.90999985    2.66000009
   14.32583332  125.20099640    4.90999985    2.66000009
   14.32888889  136.38400269    4.90999985    2.57999992
   14.33222198  156.21099854    4.90999985    2.66000009
   14.33500004  173.39999390    4.90999985    2.28999996
   14.33555508  151.40800476    4.90999985    2.28999996
   14.33888817  305.30499268    4.90999985    2.17000008
   14.34499931  305.30499268    4.90999985    2.05999994
   14.34916592  244.56900024    4.90999985    1.83000004
   14.35249996  137.96499634    4.90999985    2.11999989
   14.35555553  131.06700134    4.90999985    2.55999994
   14.35888958  141.96699524    4.90999985    2.67000008
   14.36222267  127.99700165    4.90999985    2.59999990
   14.36527824  124.23500061    4.90999985    2.40000010
   14.36833382  132.81500244    4.88999987    2.69000006
   14.36916637  128.78799438    3.46000004    2.69000006
   14.37222195  127.54799652    2.28999996    2.69000006
   14.37555599  118.47699738    1.94000006    2.71000004
   14.37888908  132.45300293    1.46000004    2.69000006
   14.38194466  132.10099792    4.90999985    2.71000004
   14.38805580  132.10099792    3.95000005    2.73000002
   14.39194393  120.51899719    2.53999996    2.71000004
   14.39527798  132.76400757    0.75000000    2.71000004
   14.39861107  120.95700073    0.61000001    2.71000004
   14.40166664  122.62599945    0.76999998    2.71000004
   14.40222168  121.73699951    0.76999998    2.71000004
   14.40527725  122.13899994    0.89999998    2.71000004
   14.40861034  118.81600189    0.83999997    2.71000004
   14.41166592  128.74099731    0.89999998    2.71000004
   14.41499996  122.07900238    0.79000002    2.73000002
   14.41833401  121.73600006    0.79000002    2.73000002
   14.42138958  125.89199829    0.86000001    2.71000004
   14.42472267  126.10199738    0.92000002    2.71000004
   14.43083382  126.10199738    0.64999998    2.71000004
   14.43500042  123.20999908    0.98000002    2.69000006
   14.43555546  124.34999847    0.98000002    2.69000006
   14.43861103  124.41300201    1.03999996    2.71000004
   14.44194412  126.57299805    1.28999996    2.73000002
   14.44499969  128.11300659    3.26999998    2.71000004
   14.44833374  129.68499756    4.90999985    2.71000004
   14.45166683  135.57699585    4.90999985    2.73000002
   14.45472240  126.70300293    4.90999985    2.64000010
   14.45805550  124.88099670    4.46999979    2.69000006
   14.46138859  131.44099426    2.80999994    2.66000009
   14.46444416  132.64999390    4.38999987    2.73000002
   14.46777725  142.03100586    3.01999998    2.71000004
   14.46833324  144.14500427    3.01999998    2.71000004
   14.47361088  144.14500427    1.96000004    2.73000002
   14.47777748  146.55599976    2.19000006    2.73000002
   14.48083305  138.28999329    4.90999985    2.73000002
   14.48416710  178.72000122    4.90999985    2.57999992
   14.48750019  170.97399902    4.90999985    2.36999989
   14.49055576  182.87699890    4.90999985    2.44000006
   14.49388885  174.28100586    4.90999985    2.40000010
   14.49722290  161.02900696    3.73000002    2.66000009
   14.50027752  130.85000610    0.80000001    2.71000004
   14.50166702  143.50900269    0.52999997    2.73000002
   14.50416660  144.95399475    0.46000001    2.73000002
   14.50722218  140.02799988    0.40000001    2.73000002
   14.51055527  141.11500549    0.38000000    2.73000002
   14.51638889  141.11500549    0.38000000    2.73000002
   14.52055550  148.84700012    0.40000001    2.73000002
   14.52388859  133.58900452    0.44000000    2.73000002
   14.52694416  150.04200745    0.56999999    2.75000000
   14.53027725  139.40100098    0.56999999    2.73000002
   14.53361130  152.52499390    0.61000001    2.73000002
   14.53500080  140.72300720    0.56999999    2.71000004
   14.53722286  151.11599731    0.58999997    2.73000002
   14.54027843  145.16400146    0.63000000    2.73000002
   14.54361153  138.83399963    0.67000002    2.73000002
   14.54666710  143.76899719    0.63000000    2.73000002
   14.55000019  142.34800720    0.63000000    2.73000002
   14.55333328  129.82699585    0.55000001    2.71000004
   14.55916691  129.82699585    0.55000001    2.73000002
   14.56333351  136.68400574    0.64999998    2.73000002
   14.56666660  140.25799561    0.63000000    2.73000002
   14.56833363  135.96800232    0.61000001    2.73000002
   14.57027817  132.98100281    0.61000001    2.73000002
   14.57333374  135.80999756    0.44000000    2.73000002
   14.57666683  147.13800049    0.41999999    2.73000002
   14.57972240  142.23699951    0.47999999    2.75000000
   14.58305550  139.87100220    0.79000002    2.73000002
   14.58638859  134.53700256    1.16999996    2.71000004
   14.58944416  121.65100098    2.32999992    2.73000002
   14.59277725  124.93599701    1.48000002    2.69000006
   14.59611034  135.94599915    1.78999996    2.71000004
   14.60222244  135.94599915    3.09999990    2.71000004
   14.60638905  151.80999756    4.90999985    2.44000006
   14.60944462  146.68800354    4.90999985    2.57999992
   14.61277771  135.40199280    4.90999985    2.48000002
   14.61611176  201.99000549    4.90999985    2.46000004
   14.61916637  141.05400085    4.90999985    2.23000002
   14.62250042  177.43200684    4.90999985    1.44000006
   14.62583351  118.64700317    4.90999985    2.71000004
   14.62888908  136.76899719    4.07999992    2.69000006
   14.63222218  150.22399902    1.41999996    2.73000002
   14.63500023  138.03900146    0.64999998    2.73000002
   14.63583279  128.70300293    0.63000000    2.73000002
   14.63888836  125.52999878    0.51999998    2.76999998
   14.64499950  125.52999878    0.58999997    2.73000002
   14.64916611  131.88000488    0.79000002    2.73000002
   14.65222168  129.25900269    0.86000001    2.75000000
   14.65555477  119.21900177    0.52999997    2.75000000
   14.65888882  126.27400208    0.51999998    2.73000002
   14.66222191  131.05099487    0.46000001    2.75000000
   14.66555500  129.45399475    0.46000001    2.75000000
   14.66833401  134.00700378    0.58999997    2.73000002
   14.66916656  130.34399414    0.58999997    2.73000002
   14.67222214  133.05799866    0.38000000    2.75000000
   14.67555618  138.53900146    0.38000000    2.75000000
   14.67861176  134.80799866    0.44000000    2.73000002
   14.68194485  122.49900055    0.44000000    2.75000000
   14.68777752  122.49900055    1.76999998    2.71000004
   14.69194412  128.87600708    3.26999998    2.73000002
   14.69527817  131.89199829    4.05999994    2.75000000
   14.69833374  121.45200348    4.09999990    2.75000000
   14.70166683  131.45399475    1.07000005    2.73000002
   14.70222187  129.65699768    1.07000005    2.73000002
   14.70527744  134.70300293    4.90999985    2.66000009
   14.70861053  125.43800354    4.90999985    2.48000002
   14.71166611  129.59800720    0.55000001    2.71000004
   14.71500015  124.01699829    0.31999999    2.73000002
   14.71833324  127.87200165    0.31999999    2.75000000
   14.72138882  127.29299927    0.31999999    2.73000002
   14.72472191  131.25700378    0.31999999    2.73000002
   14.73083305  131.25700378    0.30000001    2.75000000
   14.73472214  127.20899963    0.31999999    2.75000000
   14.73527813  126.69300079    0.31999999    2.75000000
   14.73861122  129.70199585    0.31999999    2.75000000
   14.74194431  129.34300232    0.31999999    2.75000000
   14.74499989  129.58700562    0.36000001    2.75000000
   14.74833393  124.75800323    0.34000000    2.73000002
   14.75166702  122.46499634    0.30000001    2.75000000
   14.75472260  124.73500061    0.30000001    2.75000000
   14.75805569  123.45999908    0.31999999    2.75000000
   14.76111126  130.50399780    0.30000001    2.75000000
   14.76444435  124.82299805    0.30000001    2.75000000
   14.76777744  125.78299713    0.30000001    2.75000000
   14.76861095  118.98300171    0.30000001    2.75000000
   14.77361107  118.98300171    0.30000001    2.73000002
   14.77777767  131.79299927    0.30000001    2.75000000
   14.78083324  134.70399475    0.30000001    2.75000000
   14.78416729  123.17900085    0.30000001    2.75000000
   14.78722286  125.22100067    0.30000001    2.73000002
   14.79055595  131.60899353    0.30000001    2.75000000
   14.79388905  136.76300049    0.31999999    2.75000000
   14.79722309  115.16100311    0.34000000    2.75000000
   14.80027771  123.31500244    0.36000001    2.75000000
   14.80194473  126.78299713    0.38000000    2.75000000
   14.80388927  128.35000610    0.40000001    2.75000000
   14.80722237  130.04299927    0.40000001    2.75000000
   14.81027794  124.55400085    0.34000000    2.75000000
   14.81638908  124.55400085    0.31999999    2.75000000
   14.82055569  119.52799988    0.30000001    2.73000002
   14.82361126  131.44999695    0.30000001    2.73000002
   14.82694435  120.85600281    0.30000001    2.75000000
   14.83027744  122.46800232    0.30000001    2.75000000
   14.83333302  122.34999847    0.30000001    2.75000000
   14.83527756  124.55899811    0.30000001    2.75000000
   14.83694458  126.84600067    0.30000001    2.75000000
   14.84027767  124.42900085    0.30000001    2.75000000
   14.84333324  125.17600250    0.30000001    2.75000000
   14.84666634  122.96499634    0.31999999    2.75000000
   14.85000038  129.49400330    0.31999999    2.73000002
   14.85305595  114.69599915    0.30000001    2.75000000
   14.85916710  114.69599915    0.30000001    2.75000000
   14.86333370  121.45600128    0.50000000    2.75000000
   14.86666679  120.68699646    0.61000001    2.75000000
   14.86861134  124.33699799    0.51999998    2.75000000
   14.87027836  113.67400360    0.47999999    2.76999998
   14.87361145  120.45800018    0.38000000    2.73000002
   14.87666702  116.50099945    0.44000000    2.75000000
   14.88000011  126.12699890    0.41999999    2.75000000
   14.88333321  120.59899902    0.44000000    2.73000002
   14.88638878  120.71800232    0.47999999    2.75000000
   14.88972187  112.93299866    0.51999998    2.75000000
   14.89277744  121.05200195    0.44000000    2.75000000
   14.89611053  119.41100311    0.44000000    2.73000002
   14.90194416  119.41100311    0.46000001    2.73000002
   14.90611076  120.39499664    0.38000000    2.75000000
   14.90944386  120.06099701    0.41999999    2.75000000
   14.91277695  117.69799805    0.34000000    2.76999998
   14.91583252  122.76499939    0.34000000    2.76999998
   14.91916656  118.84300232    0.34000000    2.75000000
   14.92222214  118.58799744    0.31999999    2.75000000
   14.92555618  119.37300110    0.30000001    2.75000000
   14.92888927  116.81099701    0.30000001    2.75000000
   14.93194485  119.81099701    0.28000000    2.75000000
   14.93527794  122.95999908    0.30000001    2.75000000
   14.93722248  122.70800018    0.30000001    2.75000000
   14.93888855  115.56500244    0.30000001    2.75000000
   14.94499969  115.56500244    0.30000001    2.75000000
   14.94916630  116.43900299    0.30000001    2.75000000
   14.95222187  119.68800354    0.30000001    2.75000000
   14.95555496  118.76799774    0.30000001    2.75000000
   14.95861053  119.66999817    0.30000001    2.75000000
   14.96194458  118.63099670    0.31999999    2.76999998
   14.96527767  119.52300262    0.34000000    2.75000000
   14.96833324  114.06600189    0.34000000    2.75000000
   14.97055531  118.40699768    0.36000001    2.76999998
   14.97194386  119.73999786    0.38000000    2.75000000
   14.97527695  119.30500031    0.40000001    2.75000000
   14.97861099  116.51100159    0.44000000    2.75000000
   14.98166656  116.15799713    0.46000001    2.75000000
   14.98777771  116.15799713    0.50000000    2.76999998
   14.99194431  115.86599731    0.46000001    2.75000000
   14.99499989  113.47399902    0.47999999    2.75000000
   14.99833393  115.67700195    0.46000001    2.76999998
   15.00166702  116.29199982    2.34999990    2.76999998
   15.00388908  116.53900146    4.90999985    2.78999996
   15.00527763  114.41400146    4.90999985    2.82999992
   15.00861073  117.55699921    0.55000001    2.80999994
   15.01166630  115.65599823    1.01999998    2.78999996
   15.01500034  114.09600067    0.40000001    2.78999996
   15.01805496  112.36100006    0.34000000    2.76999998
   15.02138901  109.31600189    0.36000001    2.76999998
   15.02472210  113.27500153    0.40000001    2.76999998
   15.03055573  113.27500153    0.50000000    2.75000000
   15.03472233  106.33799744    0.80000001    2.76999998
   15.03722286  120.48799896    0.88000000    2.75000000
   15.03833389  115.11900330    0.94000000    2.75000000
   15.04166698  116.54799652    1.01999998    2.75000000
   15.04472256  114.58899689    1.03999996    2.75000000
   15.04805565  117.15200043    0.76999998    2.75000000
   15.05111122  113.43099976    0.79000002    2.75000000
   15.05444431  117.86199951    0.81999999    2.73000002
   15.05777836  118.91100311    0.86000001    2.75000000
   15.06083393  113.44100189    0.86000001    2.75000000
   15.06416702  116.00700378    0.81999999    2.75000000
   15.06750011  119.99299622    0.67000002    2.75000000
   15.07333374  119.99299622    0.31999999    2.75000000
   15.07750034  112.90599823    0.86000001    2.75000000
   15.08083344  111.01799774    0.83999997    2.76999998
   15.08416653  112.05100250    0.38000000    2.75000000
   15.08722210  116.53299713    0.34000000    2.76999998
   15.09055519  118.09899902    0.34000000    2.75000000
   15.09361076  115.87100220    0.36000001    2.75000000
   15.09694386  118.02500153    0.40000001    2.76999998
   15.10027790  117.61399841    0.38000000    2.75000000
   15.10333347  114.34100342    0.31999999    2.75000000
   15.10444450  121.27899933    0.31999999    2.75000000
   15.10694504  121.08999634    0.30000001    2.75000000
   15.11027813  114.57900238    0.30000001    2.76999998
   15.11638927  114.57900238    0.38000000    2.76999998
   15.12055588  111.19100189    0.31999999    2.75000000
   15.12361145  114.17500305    0.31999999    2.75000000
   15.12694454  114.71499634    0.30000001    2.75000000
   15.13027763  119.95800018    0.31999999    2.75000000
   15.13333321  113.39700317    0.31999999    2.76999998
   15.13666630  107.14399719    0.31999999    2.75000000
   15.13777733  115.98400116    0.31999999    2.75000000
   15.14027786  118.40699768    0.31999999    2.75000000
   15.14361095  114.42800140    0.31999999    2.75000000
   15.14694405  118.55999756    0.34000000    2.76999998
   15.14999962  112.39499664    0.36000001    2.75000000
   15.15333271  116.02700043    0.38000000    2.76999998
   15.15916634  116.02700043    0.40000001    2.75000000
   15.16333294  111.90000153    0.38000000    2.76999998
   15.16638851  116.22899628    0.40000001    2.75000000
   15.16972256  115.44899750    0.40000001    2.75000000
   15.17111111  112.84799957    0.40000001    2.76999998
   15.17333412  121.99199677    0.40000001    2.76999998
   15.17666721  109.32900238    0.47999999    2.76999998
   15.17972279  120.10700226    0.51999998    2.75000000
   15.18305588  109.18199921    0.44000000    2.75000000
   15.18638897  111.44300079    0.44000000    2.75000000
   15.18944454  114.35600281    0.44000000    2.76999998
   15.19277763  115.48000336    0.55000001    2.75000000
   15.19583321  114.17199707    0.52999997    2.76999998
   15.20194435  114.17199707    0.46000001    2.76999998
   15.22027779  115.44899750    0.36000001    2.76999998
   15.32222176   -1.00000000   -1.00000000   -1.00000000
   15.43472195   -1.00000000   -1.00000000   -1.00000000
   15.54111195   -1.00000000   -1.00000000   -1.00000000
   15.56750011   75.15180206    1.51999998    2.76999998
   15.57083321  114.76200104    1.14999998    2.75000000
   15.57388878  113.22899628    1.16999996    2.75000000
   15.57722187  118.60600281    1.16999996    2.75000000
   15.58055592  116.23500061    1.16999996    2.75000000
   15.58361053  118.16000366    1.33000004    2.76999998
   15.58777714  118.16000366    2.15000010    2.75000000
   15.59194374  112.18499756    3.28999996    2.69000006
   15.59527779  116.29199982    2.73000002    2.75000000
   15.59833336  105.80799866    4.90999985    2.75000000
   15.60055637  124.48300171    4.90999985    2.67000008
   15.60194492  119.52100372    4.90999985    2.66000009
   15.60527802  121.05100250    4.90999985    2.46000004
   15.60833359  125.10500336    4.90999985    2.61999989
   15.61166668  142.79699707    4.90999985    2.42000008
   15.61500072  122.62200165    4.90999985    2.21000004
   15.61805534  130.49299622    4.90999985    2.23000002
   15.62138939  110.07700348    4.90999985    2.46000004
   15.62472248  126.24900055    4.90999985    2.05999994
   15.63055611  126.24900055    4.90999985    1.96000004
   15.63472176  116.67600250    4.90999985    2.34999990
   15.63805580  115.02200317    4.90999985    2.46000004
   15.64111137   -1.00000000    4.90999985    2.28999996
   15.64444447  190.10400391    4.90999985    2.01999998
   15.64777756   -1.00000000    4.90999985    1.66999996
   15.65083313  213.08500671    4.90999985    2.00000000
   15.65416622  122.39399719    4.90999985    2.05999994
   15.65749931   -1.00000000    4.90999985    1.96000004
   15.66055489  124.73699951    4.90999985    2.48000002
   15.66388893  114.44999695    4.90999985    2.32999992
   15.66694450  112.22200012    4.90999985    2.42000008
   15.66750050  110.52200317    4.90999985    2.53999996
   15.67361164  110.52200317    3.70000005    2.73000002
   15.67750072  111.69499969    3.82999992    2.69000006
   15.68083382  111.18399811    1.44000006    2.76999998
   15.68416691  115.50499725    1.48000002    2.75000000
   15.68722248  113.49500275    1.39999998    2.75000000
   15.69055557  108.84799957    1.39999998    2.73000002
   15.69388866  105.25399780    1.25000000    2.78999996
   15.69694424  105.42299652    1.14999998    2.78999996
   15.70027733  106.37000275    1.11000001    2.78999996
   15.70083332  111.04299927    1.03999996    2.76999998
   15.70388889  106.55000305    1.21000004    2.76999998
   15.70722198  107.03299713    1.36000001    2.76999998
   15.71027756  110.45400238    1.80999994    2.76999998
   15.71638870  110.45400238    4.67999983    2.78999996
   15.72055531  109.79299927    4.90999985    2.78999996
   15.72361088  102.81999969    4.90999985    2.73000002
   15.72694397  105.58399963    3.73000002    2.78999996
   15.73027706  110.48000336    4.90999985    2.75000000
   15.73333359  103.48200226    4.90999985    2.78999996
   15.73416710  103.95600128    4.90999985    2.78999996
   15.73694515  104.87400055    4.03999996    2.69000006
   15.74027824  104.49900055    3.03999996    2.73000002
   15.74333382  102.65200043    4.90999985    2.80999994
   15.74666691  103.51699829    4.90999985    2.84999990
   15.75000000  150.23800659    4.90999985    2.71000004
   15.75305557  143.83299255    4.90999985    1.64999998
   15.75916672  143.83299255    4.90999985    2.75000000
   15.76333332   88.29239655    4.90999985    2.07999992
   15.76666641   -1.00000000    4.90999985    2.42000008
   15.76749992  100.63899994    4.90999985    2.78999996
   15.77027798   96.08470154    4.90999985    2.64000010
   15.77361107   -1.00000000    4.90999985    2.61999989
   15.77666664   94.04820251    4.90999985    1.39999998
   15.77999973  105.73799896    4.90999985    2.09999990
   15.78333378  112.65899658    4.90999985    2.13000011
   15.78638935  116.45999908    4.90999985    1.71000004
   15.78972244  129.05200195    4.90999985    1.96000004
   15.79277802  124.08200073    4.90999985    2.25000000
   15.79611111  149.20300293    4.90999985    1.78999996
   15.80194473  149.20300293    4.90999985    1.80999994
   15.80611134  186.13299561    4.90999985    2.15000010
   15.80944443   -1.00000000    4.90999985    1.01999998
   15.81250000  114.44000244    4.90999985    1.14999998
   15.81583309   -1.00000000    4.90999985    2.42000008
   15.81916618  111.36299896    4.90999985    0.38000000
   15.82222176  311.49700928    4.90999985    1.88000000
   15.82555580  107.44200134    4.90999985    2.42000008
   15.82888889   96.74230194    4.90999985    2.75000000
   15.83194447  156.00700378    4.90999985    2.53999996
   15.83416653  131.53199768    4.90999985    1.98000002
   15.83555508  105.18800354    4.90999985    2.59999990
   15.83888817  104.93499756    4.90999985    2.71000004
   15.84499931  104.93499756    4.90999985    2.82999992
   15.84888840  100.60700226    1.07000005    2.78999996
   15.85222244   97.56430054    2.32999992    2.75000000
   15.85555553  100.81199646    2.40000010    2.76999998
   15.85861111  101.21499634    4.32999992    2.71000004
   15.86194515  102.72799683    4.69999981    2.75000000
   15.86527824  146.36700439    4.90999985    2.73000002
   15.86750031  100.44899750    4.90999985    2.66000009
   15.86888885   98.81809998    4.90999985    2.71000004
   15.87222195  103.52500153    4.90999985    2.50000000
   15.87527752   96.65460205    4.90999985    2.76999998
   15.87861156  101.79599762    4.90999985    2.75000000
   15.88194466   -1.00000000    4.90999985    2.59999990
   15.89166641   -1.00000000    4.90999985    0.56999999
   15.89499950   -1.00000000    4.90999985    0.94000000
   15.89833355   -1.00000000    4.90999985    0.94000000
   15.90083313  110.13999939    4.90999985    0.81999999
   15.90194416   96.64579773    4.90999985    0.89999998
   15.90527725  101.69599915    4.90999985    2.64000010
   15.90833282  101.89600372    0.80000001    2.78999996
   15.91166592   97.71320343    0.52999997    2.78999996
   15.91527748  101.54399872    0.52999997    2.78999996
   15.91833401  103.38300323    0.67000002    2.78999996
   15.92166710  101.28199768    2.40000010    2.78999996
   15.92500019  100.52999878    2.46000004    2.69000006
   15.93055630  100.52999878    4.90999985    2.86999989
   15.93472195   -1.00000000    4.90999985    1.34000003
   15.93805599   61.70800018    4.90999985    1.91999996
   15.94111156  188.69500732    4.90999985    1.39999998
   15.94444466   -1.00000000    4.90999985    1.44000006
   15.94750023  127.94000244    4.90999985    1.55999994
   15.95083332  118.38099670    4.90999985    2.66000009
   15.95416641  110.94799805    4.90999985    2.76999998
   15.95722198  120.17800140    4.90999985    2.80999994
   15.96055508  100.25399780    4.90999985    2.66000009
   15.96388912   98.59420013    4.90999985    2.36999989
   15.96722221  102.15100098    2.94000006    2.76999998
   15.96777725   96.22360229    2.94000006    2.76999998
   15.97333336   96.22360229    2.86999989    2.75000000
   15.97749996  102.24500275    2.69000006    2.73000002
   15.98083305   96.45040131    2.61999989    2.73000002
   15.98388958   98.31439972    4.90999985    2.75000000
   15.98722267  101.04299927    2.66000009    2.75000000
   15.99055576  109.22200012    4.90999985    2.64000010
   15.99361134  100.03800201    4.90999985    2.64000010
   15.99694443  119.42700195    4.11999989    2.75000000
   16.00027847   94.69930267    4.90999985    2.64000010
   16.00111198   95.73220062    4.90999985    2.69000006
   16.00388908   91.32289886    4.90999985    2.57999992
   16.00722313  114.74800110    4.90999985    2.39000010
   16.01027870  140.03100586    4.90999985    1.73000002
   16.01638794  140.03100586    4.90999985    0.94000000
   16.02027702   -1.00000000    4.90999985    1.66999996
   16.02361107  111.50700378    4.90999985    0.79000002
   16.02694511   -1.00000000    4.90999985    1.51999998
   16.03000069   96.21839905    4.90999985    1.58000004
   16.03333282   97.77390289    4.90999985    1.19000006
   16.03444481  101.03800201    4.90999985    1.88000000
   16.03694344  106.76999664    4.90999985    2.69000006
   16.04027748   97.62010193    4.90999985    2.57999992
   16.04333305  101.90399933    4.90999985    2.76999998
   16.04666710   91.10780334    4.90999985    2.64000010
   16.04972076  130.85299683    4.90999985    2.59999990
   16.05305481  101.90200043    4.90999985    2.30999994
   16.05916595  101.90200043    4.90999985    2.73000002
   16.06333351   90.13349915    4.90999985    2.71000004
   16.06638718   96.85579681    3.86999989    2.69000006
   16.06777954   96.34839630    4.21999979    2.73000002
   16.07000160   91.42060089    3.86999989    2.69000006
   16.07333374   97.18540192    4.17999983    2.71000004
   16.07638931   95.70130157    3.09999990    2.71000004
   16.07972336   87.20110321    2.61999989    2.71000004
   16.08277893   97.03389740    3.03999996    2.71000004
   16.08611107   94.26920319    3.95000005    2.67000008
   16.08944511   89.65850067    2.84999990    2.73000002
   16.09250069  114.44100189    4.90999985    2.78999996
   16.09583473   -1.00000000    4.90999985    1.46000004
   16.10611153   -1.00000000    4.90999985    0.67000002
   16.10916710   -1.00000000    4.90999985    0.44000000
   16.11250114  164.37300110    4.90999985    1.33000004
   16.11555672  140.69999695    4.90999985    1.53999996
   16.11888885  325.47799683    4.90999985    1.75000000
   16.12222290  104.22399902    4.90999985    1.88000000
   16.12527847   -1.00000000    4.90999985    1.96000004
   16.12861061  181.08700562    4.90999985    1.61000001
   16.13194466  101.01599884    4.90999985    2.26999998
   16.13444519   95.73179626    4.90999985    2.36999989
   16.13555527  104.14099884    4.90999985    2.28999996
   16.13888931   38.60969925    4.90999985    1.94000006
   16.14472198   38.60969925    4.90999985    1.86000001
   16.14888954   -1.00000000    4.90999985    0.75000000
   16.15222168   -1.00000000    4.90999985    0.64999998
   16.15527725   -1.00000000    4.90999985    0.15000001
   16.15861130   -1.00000000    4.90999985    0.13000000
   16.16194344   -1.00000000    4.90999985    0.80000001
   16.16499901   -1.00000000    4.90999985    1.05999994
   16.16860962   -1.00000000    4.90999985    1.38000000
   16.17166519   99.52919769    4.90999985    1.60000002
   16.17499924   97.03389740    4.90999985    2.64000010
   16.17833328   98.72899628    4.90999985    2.64000010
   16.18138885   -1.00000000    4.90999985    1.78999996
   16.18750000   -1.00000000    4.90999985    2.30999994
   16.19166565   96.38490295    4.90999985    2.80999994
   16.19499969   90.66580200    2.39000010    2.75000000
   16.19833183   83.58339691    4.90999985    2.78999996
   16.20194435  129.91200256    4.90999985    2.09999990
   16.20499992   92.00869751    4.90999985    2.91000009
   16.20833397   93.44760132    4.90999985    2.89000010
   16.21166801   95.24019623    3.50000000    2.80999994
   16.21472359  331.07000732    4.90999985    2.51999998
   16.21805573   88.69190216    4.90999985    2.15000010
   16.22111130   -1.00000000    4.19999981    2.75000000
   16.22444534   -1.00000000    4.90999985    0.56999999
   16.23055649   -1.00000000    4.90999985    2.66000009
   16.23472214   93.55680084    4.90999985    2.53999996
   16.23777771   98.57479858    4.90999985    2.59999990
   16.24111176  114.53099823    4.90999985    2.50000000
   16.24416733   88.76229858    4.90999985    2.28999996
   16.24749947  108.74500275    4.90999985    2.53999996
   16.25083351   89.89720154    4.90999985    2.36999989
   16.25388908   93.22440338    4.90999985    2.64000010
   16.25722313   88.93650055    4.90999985    2.76999998
   16.26027870  129.11099243    4.90999985    2.82999992
   16.26361084   -1.00000000    4.90999985    0.55000001
   16.26694489   -1.00000000    4.90999985    0.38000000
   16.27722168   -1.00000000    4.90999985    0.36000001
   16.28055573   -1.00000000    4.90999985    2.76999998
   16.28388786   -1.00000000    4.90999985    0.31999999
   16.28694344   -1.00000000    4.90999985    0.34000000
   16.29027748   -1.00000000    4.90999985    0.17000000
   16.29361153   -1.00000000    4.90999985    0.17000000
   16.29666710   -1.00000000    4.90999985    0.23000000
   16.29999924   -1.00000000    4.90999985    0.34000000
   16.30360985   -1.00000000    4.90999985    0.50000000
   16.30666542  104.61499786    4.90999985    0.95999998
   16.30999947   95.35810089    4.90999985    2.53999996
   16.31611061   95.35810089    4.90999985    2.75000000
   16.32027817   79.30599976    4.90999985    2.91000009
   16.32361221   90.88349915    4.90999985    2.67000008
   16.32666779   91.50019836    1.86000001    2.80999994
   16.33000183   92.85729980    1.46000004    2.78999996
   16.33333397   93.10729980    0.86000001    2.78999996
   16.33444595   93.54499817    1.03999996    2.76999998
   16.33666801   93.52359772    1.21000004    2.76999998
   16.34000015   91.33969879    1.14999998    2.76999998
   16.34305573   89.13189697    0.95999998    2.76999998
   16.34638977   93.44210052    1.23000002    2.76999998
   16.34972191   92.73770142    1.23000002    2.76999998
   16.35277748   90.41429901    1.33000004    2.76999998
   16.35888863   90.41429901    4.90999985    2.64000010
   16.36305618   93.89559937    4.90999985    2.61999989
   16.36638832   88.95429993    4.90999985    2.55999994
   16.36805534  134.17700195    4.90999985    2.57999992
   16.37000084  104.13200378    4.90999985    1.85000002
   16.37333298   89.62339783    4.90999985    2.46000004
   16.37638855  206.82499695    4.90999985    1.60000002
   16.37972260  116.80100250    4.90999985    2.07999992
   16.38305473   -1.00000000    4.90999985    1.94000006
   16.38611031   84.14230347    4.90999985    2.51999998
   16.38944435  108.98500061    4.90999985    1.16999996
   16.39277840  155.92100525    4.90999985    2.64000010
   16.39583397   -1.00000000    4.90999985    1.26999998
   16.40583229   -1.00000000    4.90999985    1.41999996
   16.40916634   -1.00000000    4.90999985    0.50000000
   16.41250038   -1.00000000    4.90999985    0.44000000
   16.41555595  140.45700073    4.90999985    0.70999998
   16.41888809   85.47470093    4.90999985    2.07999992
   16.42194366   88.95439911    4.90999985    2.66000009
   16.42527771  155.35299683    4.90999985    2.64000010
   16.42860985  173.59899902    4.90999985    2.15000010
   16.43166542  256.01098633    4.90999985    1.07000005
   16.43444443   87.36879730    4.90999985    1.80999994
   16.43527603  219.48800659    4.90999985    2.59999990
   16.43861008   -1.00000000    4.90999985    0.94000000
   16.44861031   -1.00000000    4.90999985    0.09000000
   16.45194435   -1.00000000    4.90999985    0.09000000
   16.45527840   -1.00000000    4.90999985    0.17000000
   16.45833397   -1.00000000    4.90999985    0.11000000
   16.46166801   -1.00000000    4.90999985    0.15000001
   16.46500015   82.04660034    4.90999985    0.63000000
   16.46861076   -1.00000000    4.90999985    0.69000000
   16.47166634   -1.00000000    4.90999985    1.00000000
   16.47500038   79.53379822    4.90999985    1.63000000
   16.47833443  146.13800049    4.90999985    2.34999990
   16.48139000   96.97669983    4.90999985    1.48000002
   16.48750114   96.97669983    4.90999985    2.34999990
   16.49166679   -1.00000000    4.90999985    2.57999992
   16.49500084   -1.00000000    4.90999985    0.17000000
   16.49805641   -1.00000000    4.90999985    0.20999999
   16.50166702  122.17700195    4.90999985    0.47999999
   16.50472260   97.27220154    4.90999985    1.14999998
   16.50805473   90.05239868    4.90999985    2.75000000
   16.51138878   83.04769897    4.82999992    2.75000000
   16.51444435   84.91130066    2.98000002    2.75000000
   16.51777840   89.26280212    3.14000010    2.75000000
   16.52111053   89.85929871    3.11999989    2.71000004
   16.52416611   84.82129669    4.59999990    2.66000009
   16.53027725   84.82129669    2.71000004    2.75000000
   16.53472137   87.08730316    2.57999992    2.75000000
   16.53499985   83.90540314    2.50000000    2.76999998
   16.53833199  153.17999268    4.90999985    2.84999990
   16.54138756   -1.00000000    4.90999985    1.05999994
   16.54472160   -1.00000000    4.90999985    0.94000000
   16.54805565   -1.00000000    4.90999985    0.46000001
   16.55111122  104.53900146    4.90999985    1.33000004
   16.55444336   87.16529846    4.90999985    2.73000002
   16.55749893   98.59320068    4.90999985    2.69000006
   16.56083298   -1.00000000    4.90999985    2.03999996
   16.56416512   -1.00000000    4.90999985    0.44000000
   16.56722260   -1.00000000    4.90999985    1.19000006
   16.59250069   -1.00000000    4.90999985    0.07000000
   16.59583473   -1.00000000    4.90999985    0.23000000
   16.59889030   -1.00000000    4.90999985    0.30000001
   16.60138893  259.53601074    4.90999985    0.63000000
   16.60250092  260.34500122    4.90999985    1.33000004
   16.60583305  217.54299927    4.90999985    2.13000011
   16.60888863   -1.00000000    4.90999985    1.30999994
   16.61222267  279.71798706    4.90999985    2.13000011
   16.61555672   -1.00000000    4.90999985    2.34999990
   16.61861038  137.86099243    4.90999985    0.52999997
   16.62194443   93.39489746    4.90999985    2.84999990
   16.62527847  157.07899475    4.90999985    1.39999998
   16.63111115  157.07899475    4.90999985    2.66000009
   16.63527679   -1.00000000    4.90999985    1.25000000
   16.63861084  172.74600220    4.90999985    1.03999996
   16.64166641  107.54900360    4.90999985    2.89000010
   16.64500046  131.39799500    1.83000004    2.78999996
   16.64833260  133.50999451    4.90999985    2.73000002
   16.65138817  152.19999695    4.90999985    2.09999990
   16.65472221  138.79899597    4.90999985    2.46000004
   16.65805435  130.60899353    3.30999994    2.73000002
   16.66110992  142.17399597    4.90999985    2.71000004
   16.66444397  144.54600525    4.90999985    2.57999992
   16.66749954  149.11799622    4.90999985    2.64000010
   16.66805458  145.12899780    4.90999985    2.66000009
   16.67416573  145.12899780    3.84999990    2.67000008
   16.67833328  131.14300537    3.00000000    2.73000002
   16.68138885  133.40699768    1.51999998    2.76999998
   16.68472099  141.13699341    1.88000000    2.80999994
   16.68777657  139.97999573    4.90999985    2.75000000
   16.69111061  138.79800415    4.90999985    2.76999998
   16.69444275  138.91600037    2.34999990    2.75000000
   16.69749832  153.33700562    4.90999985    2.71000004
   16.70083427  148.81199646    4.90999985    2.57999992
   16.70138931  138.48399353    4.90999985    2.57999992
   16.70444489  148.06399536    4.90999985    2.57999992
   16.70777893  139.32499695    4.90999985    2.69000006
   16.71111107  140.61999512    4.90999985    2.67000008
   16.71694565  140.61999512    4.90999985    2.01999998
   16.72111130   -1.00000000    4.90999985    0.30000001
   16.72416687   -1.00000000    2.05999994    0.01000000
   16.72750092   -1.00000000    4.90999985    0.05000000
   16.73083305   -1.00000000    4.90999985    0.07000000
   16.73388863   -1.00000000    4.90999985    0.34000000
   16.73750114   -1.00000000    4.90999985    0.40000001
   16.74055672   -1.00000000    4.90999985    0.25999999
   16.74388885   -1.00000000    4.90999985    0.44000000
   16.74722290   -1.00000000    4.90999985    0.79000002
   16.75027847   -1.00000000    4.90999985    1.33000004
   16.75361061   92.00939941    4.90999985    2.42000008
   16.76388931  150.06300354    4.90999985    1.61000001
   16.76694489  144.13699341    4.90999985    2.55999994
   16.76805496  150.30900574    4.90999985    2.55999994
   16.77055550  155.88900757    4.90999985    2.61999989
   16.77388954  159.23399353    4.90999985    2.78999996
   16.77694511  146.47300720    4.90999985    2.57999992
   16.78027725  122.04799652    4.90999985    2.82999992
   16.78361130  130.50799561    4.90999985    2.78999996
   16.78666687  130.81700134    0.61000001    2.78999996
   16.78999901  123.83999634    0.58999997    2.76999998
   16.79305458  127.66500092    0.56999999    2.76999998
   16.79638863  269.75100708    4.90999985    2.80999994
   16.80249977  269.75100708    0.64999998    2.78999996
   16.80666542  126.86799622    0.88000000    2.78999996
   16.80999947  135.21099854    0.81999999    2.78999996
   16.81305504  126.40000153    0.79000002    2.78999996
   16.81638718  127.64600372    1.60000002    2.76999998
   16.81972313  135.78700256    0.79000002    2.80999994
   16.82277870  139.26100159    0.89999998    2.76999998
   16.82611275  138.90100098    0.88000000    2.78999996
   16.82944489  126.67800140    0.83999997    2.78999996
   16.83250046  132.09899902    0.79000002    2.78999996
   16.83472252  131.59700012    0.79000002    2.78999996
   16.83611107  126.31800079    0.51999998    2.78999996
   16.83944511  138.72900391    1.00000000    2.76999998
   16.84555626  138.72900391    1.55999994    2.76999998
   16.84944534  133.91099548    2.98000002    2.78999996
   16.85277748  169.88200378    4.90999985    2.78999996
   16.85611153  135.53799438    4.90999985    2.67000008
   16.85916710  129.68499756    4.90999985    2.82999992
   16.86250114  132.77600098    2.30999994    2.76999998
   16.86583328  130.68800354    1.60000002    2.78999996
   16.86805534  129.34800720    1.23000002    2.78999996
   16.86944389  136.07200623    1.16999996    2.78999996
   16.87277794  135.42999268    2.23000002    2.75000000
   16.87583351  126.31099701    2.53999996    2.75000000
   16.87916756  178.65199280    4.90999985    2.78999996
   16.88249969   -1.00000000    4.90999985    1.14999998
   16.89222145   -1.00000000    4.90999985    0.41999999
   16.89555550   -1.00000000    4.90999985    0.47999999
   16.89888954   -1.00000000    4.90999985    0.13000000
   16.90250015   -1.00000000    4.76000023    0.03000000
   16.90555573   -1.00000000    4.90999985    0.03000000
   16.90888786   -1.00000000    4.90999985    0.03000000
   16.91222191   -1.00000000    1.19000006    0.01000000
   16.91527748   -1.00000000    1.30999994    0.01000000
   16.91860962   -1.00000000    4.90999985    0.11000000
   16.92166519   -1.00000000    4.90999985    0.95999998
   16.92499924  137.71499634    4.90999985    0.86000001
   16.93111038  137.71499634    4.90999985    2.69000006
   16.93527603  132.31900024    4.90999985    2.67000008
   16.93861008   99.96910095    4.90999985    2.75000000
   16.94166565  188.47000122    4.90999985    0.98000002
   16.94499969  142.50300598    4.90999985    1.14999998
   16.94805527  132.35099792    4.90999985    2.46000004
   16.95138931  131.87699890    4.90999985    2.80999994
   16.95472336  129.56700134    4.90999985    2.80999994
   16.95777893  131.41999817    1.50000000    2.76999998
   16.96111107  151.48100281    4.90999985    2.82999992
   16.96444511  292.70199585    4.90999985    2.26999998
   16.96750069   -1.00000000    4.90999985    0.95999998
   16.97805595  149.61700439    4.90999985    1.71000004
   16.98111153  153.48599243    4.90999985    2.23000002
   16.98444557   -1.00000000    4.90999985    1.89999998
   16.98777771   -1.00000000    4.90999985    1.30999994
   16.99083328   -1.00000000    4.90999985    0.28000000
   16.99416733  139.43099976    4.90999985    1.11000001
   16.99749947  138.97599792    4.90999985    2.82999992
   17.00055504  139.23500061    4.90999985    2.75000000
   17.00166702  137.61900330    4.90999985    2.71000004
   17.00416756  128.25300598    4.78000021    2.78999996
   17.00749969  132.95700073    4.90999985    2.78999996
   17.01055527  129.90800476    4.90999985    2.80999994
   17.01694489  129.90800476    2.05999994    2.75000000
   17.02083397  131.02799988    1.07000005    2.76999998
   17.02416611  128.90899658    0.83999997    2.76999998
   17.02750015  132.48100281    0.75000000    2.78999996
   17.03055573  131.05799866    0.64999998    2.78999996
   17.03388786  127.55599976    1.14999998    2.78999996
   17.03499985  127.82199860    1.14999998    2.78999996
   17.03750038  127.51999664    1.14999998    2.78999996
   17.04083252  119.78700256    0.47999999    2.76999998
   17.04388809  126.79000092    0.47999999    2.76999998
   17.04722214  128.19200134    0.46000001    2.78999996
   17.05055428  130.50399780    0.51999998    2.78999996
   17.05360985  123.22100067    0.55000001    2.76999998
   17.05972099  123.22100067    0.55000001    2.78999996
   17.06388855  125.66899872    0.56999999    2.76999998
   17.06694603  119.15699768    0.56999999    2.78999996
   17.06833458  141.01300049    0.56999999    2.78999996
   17.07055664  125.14099884    0.58999997    2.78999996
   17.07389069  119.81099701    1.30999994    2.76999998
   17.07694626  124.77799988    2.53999996    2.80999994
   17.08027840  123.66100311    1.44000006    2.78999996
   17.08361244  125.71800232    0.75000000    2.78999996
   17.08694458  123.60199738    0.92000002    2.78999996
   17.09027863  125.14700317    0.95999998    2.78999996
   17.09333420  123.59500122    4.90999985    2.84999990
   17.09666824  119.16799927    4.90999985    2.84999990
   17.10250092  119.16799927    4.90999985    2.86999989
   17.10666656  124.58499908    1.11000001    2.76999998
   17.11000061  123.80400085    0.98000002    2.78999996
   17.11305618  121.37200165    0.58999997    2.78999996
   17.11638832  118.66799927    0.47999999    2.78999996
   17.11944389  119.06400299    0.47999999    2.76999998
   17.12277794  119.21199799    0.38000000    2.78999996
   17.12611198  125.82299805    0.46000001    2.78999996
   17.12916756  122.13500214    0.46000001    2.78999996
   17.13249969  122.40399933    0.40000001    2.78999996
   17.13500023  119.76499939    0.55000001    2.78999996
   17.13611031  133.87600708    4.00000000    2.80999994
   17.13944435  119.14399719    3.95000005    2.75000000
   17.14944458   -1.00000000    4.90999985    0.11000000
   17.15277672   -1.00000000    4.90999985    0.01000000
   17.15583229   -1.00000000    4.90999985    0.01000000
   17.15916634   -1.00000000    4.90999985    0.01000000
   17.16222191  264.68499756    4.90999985    0.05000000
   17.16555595   -1.00000000    4.90999985    0.51999998
   17.16833305  114.65599823    4.90999985    0.11000000
   17.16916656  119.37599945    4.90999985    0.79000002
   17.17249870  122.69699860    4.90999985    2.78999996
   17.17555428  115.75900269    4.90999985    2.78999996
   17.17888832  120.12599945    1.34000003    2.76999998
   17.18222237  113.52500153    0.73000002    2.78999996
   17.18833160  113.52500153    1.00000000    2.76999998
   17.19222069  112.70700073    1.07000005    2.76999998
   17.19555473  121.09100342    1.05999994    2.76999998
   17.19888878  121.19599915    0.94000000    2.76999998
   17.20166779  112.56600189    0.81999999    2.76999998
   17.20250130  116.75199890    0.79000002    2.78999996
   17.20583344  114.77200317    0.76999998    2.78999996
   17.20888901  118.21499634    0.67000002    2.78999996
   17.21222305  118.08399963    0.67000002    2.78999996
   17.21555710  120.35900116    0.70999998    2.78999996
   17.21861076  117.38600159    0.70999998    2.76999998
   17.22194481  114.62000275    0.69000000    2.76999998
   17.22527885  118.95300293    0.67000002    2.78999996
   17.23111153  118.95300293    0.61000001    2.76999998
   17.23527718  116.70200348    0.61000001    2.78999996
   17.23833275  119.47599792    0.63000000    2.76999998
   17.24166679  118.11000061    0.92000002    2.76999998
   17.24500084  115.19499969    1.07000005    2.75000000
   17.24805641  115.35900116    1.28999996    2.76999998
   17.25138855  118.97399902    1.28999996    2.76999998
   17.25444412  119.23400116    1.07000005    2.76999998
   17.25777817  117.59300232    1.44000006    2.78999996
   17.26111031  134.02299500    4.76000023    2.69000006
   17.26416588  117.49500275    4.90999985    2.53999996
   17.26749992  115.67800140    4.90999985    2.80999994
   17.26833344  121.33100128    4.80999994    2.80999994
   17.27388954  121.33100128    1.63000000    2.78999996
   17.27805519  121.98999786    1.26999998    2.78999996
   17.28138924  118.00800323    1.16999996    2.78999996
   17.28444481  120.15899658    1.48000002    2.75000000
   17.28777695  118.33899689    1.96000004    2.73000002
   17.29083252  120.84999847    2.03999996    2.73000002
   17.29416656  115.50299835    1.60000002    2.75000000
   17.29749870  116.13999939    1.61000001    2.76999998
   17.30055428  117.90499878    1.41999996    2.76999998
   17.30166626  114.11299896    1.01999998    2.76999998
   17.30416679  117.67099762    0.94000000    2.76999998
   17.30749893  111.60600281    0.89999998    2.76999998
   17.31083298  110.23500061    0.89999998    2.76999998
   17.31666756  110.23500061    0.61000001    2.78999996
   17.32083511  114.37000275    0.61000001    2.76999998
   17.32416725  108.09999847    0.56999999    2.76999998
   17.32722282  112.12400055    0.56999999    2.78999996
   17.33055687  116.91400146    0.52999997    2.78999996
   17.33388901  114.05999756    0.56999999    2.76999998
   17.33500099  118.35299683    0.56999999    2.76999998
   17.33750153  117.85199738    0.56999999    2.76999998
   17.34083366  110.12599945    0.46000001    2.78999996
   17.34416771  112.07900238    0.52999997    2.76999998
   17.34722328  119.52600098    0.52999997    2.76999998
   17.35055542  114.49800110    0.58999997    2.76999998
   17.35361099  112.22100067    0.67000002    2.76999998
   17.35972214  112.22100067    0.69000000    2.76999998
   17.36361122  112.02899933    0.61000001    2.76999998
   17.36694527  115.23600006    0.61000001    2.76999998
   17.36833382  113.87500000    0.75000000    2.76999998
   17.37055588  109.85800171    0.61000001    2.76999998
   17.37388992  110.38800049    0.61000001    2.78999996
   17.37722206  110.69599915    0.55000001    2.78999996
   17.38027763  109.92199707    0.52999997    2.76999998
   17.38361168  110.45600128    0.44000000    2.78999996
   17.38666725  108.07700348    0.46000001    2.78999996
   17.38999939  110.61000061    0.46000001    2.76999998
   17.39333344  111.84899902    0.44000000    2.78999996
   17.39638901  114.63600159    0.41999999    2.78999996
   17.40250015  114.63600159    0.41999999    2.78999996
   17.40666580  109.80799866    0.44000000    2.76999998
   17.40972137  109.31900024    0.44000000    2.76999998
   17.41305542  115.76300049    0.44000000    2.76999998
   17.41638756  114.00000000    0.41999999    2.78999996
   17.41944313  107.34700012    0.41999999    2.78999996
   17.42277718  112.68399811    0.44000000    2.76999998
   17.42611122  110.64299774    0.44000000    2.78999996
   17.42916679  110.83300018    0.44000000    2.78999996
   17.43249893  104.83499908    0.41999999    2.76999998
   17.43499947  104.85800171    0.41999999    2.78999996
   17.43583298  107.90100098    0.41999999    2.76999998
   17.43916512  109.96900177    0.41999999    2.76999998
   17.44527626  109.96900177    0.44000000    2.76999998
   17.44944382  111.44799805    0.46000001    2.78999996
   17.45277786  109.41899872    0.75000000    2.76999998
   17.45583344  106.08599854    0.73000002    2.76999998
   17.45916748  107.90000153    0.73000002    2.76999998
   17.46222305  111.04100037    0.67000002    2.76999998
   17.46555710  110.29199982    0.51999998    2.76999998
   17.46833420  109.63099670    0.50000000    2.76999998
   17.46916771  106.72399902    0.52999997    2.76999998
   17.47249985  108.70500183    0.52999997    2.76999998
   17.47583389  106.79399872    0.51999998    2.78999996
   17.47888947  111.67299652    0.51999998    2.76999998
   17.48222351  110.56999969    0.52999997    2.76999998
   17.48805618  110.56999969    0.46000001    2.78999996
   17.49222183  107.86699677    0.41999999    2.76999998
   17.49555588  102.64800262    0.36000001    2.78999996
   17.49861145  107.60500336    0.40000001    2.76999998
   17.50166702  104.18099976    0.40000001    2.76999998
   17.50222206  101.89499664    0.41999999    2.78999996
   17.50555611  109.75900269    0.44000000    2.76999998
   17.50888824  108.00599670    0.44000000    2.76999998
   17.51194382  109.17299652    0.81999999    2.76999998
   17.51527786  107.16600037    0.40000001    2.78999996
   17.51833344  107.48899841    0.40000001    2.76999998
   17.52166557  107.76999664    0.38000000    2.78999996
   17.52499962  108.59700012    0.38000000    2.76999998
   17.53111076  108.59700012    4.90999985    2.84999990
   17.53499985  132.82400513    4.90999985    2.40000010
   17.53833199  108.20899963    4.90999985    2.84999990
   17.54166603  101.76499939    4.42999983    2.80999994
   17.54472160  107.78800201    4.90999985    2.82999992
   17.54805565  131.80299377    4.90999985    1.75000000
   17.55138779   99.73729706    4.90999985    2.80999994
   17.55444336   -1.00000000    4.90999985    1.05999994
   17.55777740   -1.00000000    4.90999985    0.52999997
   17.56083298  196.06799316    4.90999985    0.50000000
   17.56416512  104.03199768    4.90999985    2.01999998
   17.56750107  105.20400238    4.90999985    2.86999989
   17.56833458  104.95500183    4.90999985    2.82999992
   17.57389069  104.95500183    1.23000002    2.76999998
   17.57805634  104.41100311    0.47999999    2.78999996
   17.58111191  103.40599823    0.47999999    2.78999996
   17.58444595  103.41899872    0.46000001    2.76999998
   17.60194397  129.05299377    0.50000000    2.76999998
   17.60444450  129.09899902    0.50000000    2.76999998
   17.60750008  133.01300049    0.44000000    2.76999998
   17.61083412  133.50799561    0.46000001    2.76999998
   17.61694527  133.50799561    0.51999998    2.76999998
   17.62111092  131.05900574    0.58999997    2.75000000
   17.62416649  134.80599976    0.58999997    2.76999998
   17.62750053  133.18699646    0.61000001    2.78999996
   17.63083267  129.52400208    0.61000001    2.76999998
   17.63388824  130.65100098    0.61000001    2.76999998
   17.63527679  126.03299713    0.56999999    2.76999998
   17.63750076  130.65199280    0.56999999    2.76999998
   17.64083290  133.60800171    0.56999999    2.76999998
   17.64416695  127.27700043    0.61000001    2.76999998
   17.64722252  130.48199463    0.61000001    2.76999998
   17.65055466  127.96399689    0.67000002    2.75000000
   17.65388870  130.57099915    0.70999998    2.76999998
   17.65972137  130.57099915    0.75000000    2.75000000
   17.66388893  131.13499451    0.58999997    2.76999998
   17.66694450  126.61900330    0.63000000    2.76999998
   17.66860962  123.91799927    0.63000000    2.76999998
   17.67055511  123.56500244    0.63000000    2.76999998
   17.67388916  126.30899811    0.69000000    2.76999998
   17.67722130  127.07099915    0.69000000    2.76999998
   17.68027687  121.06999969    0.63000000    2.78999996
   17.68361092  125.04399872    0.63000000    2.78999996
   17.68694305  123.41400146    0.61000001    2.78999996
   17.68999863  119.49099731    0.52999997    2.76999998
   17.69333267  126.93699646    0.47999999    2.76999998
   17.69638824  113.30799866    0.50000000    2.76999998
   17.70250130  113.30799866    0.47999999    2.76999998
   17.70666695  121.88999939    0.47999999    2.78999996
   17.71000099  128.49400330    0.50000000    2.76999998
   17.71305656  125.93199921    0.50000000    2.76999998
   17.71638870  130.77799988    0.47999999    2.76999998
   17.71972275  133.13400269    0.47999999    2.76999998
   17.72277832  133.41600037    0.51999998    2.76999998
   17.72611237  135.57899475    0.58999997    2.78999996
   17.72916794  129.51600647    0.58999997    2.78999996
   17.73250008  121.33599854    0.69000000    2.76999998
   17.73527718  141.52299500    0.69000000    2.76999998
   17.73638916  127.84500122    0.69000000    2.76999998
   17.73944473  119.71900177    0.64999998    2.76999998
   17.74555588  119.71900177    0.63000000    2.76999998
   17.74944496  123.91500092    0.64999998    2.76999998
   17.75277710  129.52499390    0.73000002    2.76999998
   17.75611115  132.25300598    0.75000000    2.76999998
   17.75916672  140.06799316    0.75000000    2.76999998
   17.76250076  131.38900757    0.61000001    2.76999998
   17.76583290  135.19900513    0.52999997    2.76999998
   17.76861000  141.42300415    0.58999997    2.76999998
   17.76944351  131.31799316    0.58999997    2.76999998
   17.77249908  125.66500092    1.30999994    2.76999998
   17.77583313  107.43900299    2.17000008    2.69000006
   17.77888870  131.35099792    3.78999996    2.71000004
   17.78222275  140.05700684    2.57999992    2.71000004
   17.78833199  140.05700684    1.21000004    2.76999998
   17.79249954  133.02400208    0.76999998    2.75000000
   17.79555511  137.26800537    0.55000001    2.75000000
   17.79888916  127.25599670    0.55000001    2.76999998
   17.80194283  131.62800598    0.58999997    2.75000000
   17.80249977  135.64700317    0.58999997    2.75000000
   17.80555534  137.32699585    0.52999997    2.76999998
   17.80888748  133.57200623    0.44000000    2.76999998
   17.81194305  127.94999695    0.44000000    2.76999998
   17.81527710  136.20199585    0.41999999    2.76999998
   17.81861115  126.34500122    0.40000001    2.76999998
   17.82166672  133.83000183    0.41999999    2.76999998
   17.82500076  133.94900513    0.44000000    2.76999998
   17.83111191  133.94900513    0.55000001    2.75000000
   17.83527756  133.17300415    0.44000000    2.76999998
   17.83583450  129.34100342    0.44000000    2.76999998
   17.83889008  138.33799744    0.44000000    2.76999998
   17.84222221  131.12300110    0.41999999    2.76999998
   17.84527779  135.26600647    0.44000000    2.76999998
   17.84861183  133.85899353    0.41999999    2.76999998
   17.85194397  137.50799561    0.38000000    2.76999998
   17.85499954  137.75500488    0.38000000    2.76999998
   17.85833359  137.96499634    0.40000001    2.75000000
   17.86166763  136.47399902    0.40000001    2.76999998
   17.86472321  136.95599365    0.38000000    2.76999998
   17.86805534  136.35699463    0.38000000    2.76999998
   17.86861038  140.70100403    0.38000000    2.76999998
   17.87388992  140.70100403    0.50000000    2.75000000
   17.87805557  136.79600525    0.51999998    2.76999998
   17.88138962  136.94099426    0.52999997    2.75000000
   17.88444519  133.00199890    0.52999997    2.76999998
   17.88777733  130.23100281    0.52999997    2.76999998
   17.89111137  134.45700073    0.55000001    2.76999998
   17.89416695  126.85800171    0.58999997    2.76999998
   17.89749908  129.92500305    0.61000001    2.76999998
   17.90055466  131.49699402    0.61000001    2.76999998
   17.90194321  126.28600311    0.61000001    2.76999998
   17.90444374  122.93900299    0.61000001    2.76999998
   17.90749931  131.32099915    0.64999998    2.75000000
   17.91083336  126.90200043    0.63000000    2.75000000
   17.91666603  126.90200043    0.61000001    2.76999998
   17.92083359  122.55500031    0.61000001    2.75000000
   17.92416573  125.16400146    0.61000001    2.76999998
   17.92749977  127.84500122    0.56999999    2.76999998
   17.93055534  124.23400116    0.63000000    2.75000000
   17.93388748  122.85800171    0.63000000    2.76999998
   17.93527603  125.24800110    0.63000000    2.75000000
   17.93750000  127.72899628    0.63000000    2.76999998
   17.94055557  118.86399841    0.70999998    2.75000000
   17.94388771  123.28500366    0.73000002    2.75000000
   17.94722176  120.82700348    0.73000002    2.75000000
   17.95027924  125.15499878    0.73000002    2.76999998
   17.95361137  126.72299957    0.64999998    2.76999998
   17.95972252  126.72299957    0.70999998    2.76999998
   17.96389008  123.30899811    0.67000002    2.76999998
   17.96694565  125.52200317    0.67000002    2.76999998
   17.96861076  123.12400055    0.67000002    2.76999998
   17.97083473  125.38600159    0.67000002    2.76999998
   17.97389030  129.83599854    0.69000000    2.75000000
   17.97722244  120.49199677    0.76999998    2.75000000
   17.98055649  126.59700012    0.83999997    2.76999998
   17.98361206  124.12899780    0.86000001    2.75000000
   17.98694420  122.16600037    0.79000002    2.76999998
   17.99027824  117.83599854    0.89999998    2.75000000
   17.99361229  126.38700104    1.00000000    2.75000000
   17.99694443  124.18000031    1.00000000    2.75000000
   18.00250053  124.18000031    0.86000001    2.75000000
   18.00666618  122.43399811    0.83999997    2.75000000
   18.00972176  132.62600708    0.80000001    2.76999998
   18.01305580  127.28700256    0.73000002    2.76999998
   18.01638794  124.92500305    0.64999998    2.76999998
   18.01944351  121.97299957    0.63000000    2.76999998
   18.02277756  121.61699677    0.69000000    2.76999998
   18.02611160  125.35600281    0.69000000    2.75000000
   18.02916718  127.69400024    0.52999997    2.75000000
   18.03249931  124.30599976    0.50000000    2.76999998
   18.03527641  128.96200562    0.46000001    2.75000000
   18.03610992  128.79400635    0.46000001    2.75000000
   18.03916550  126.97499847    0.41999999    2.75000000
   18.04527664  126.97499847    0.41999999    2.75000000
   18.04944420  119.62699890    0.40000001    2.76999998
   18.05277634  120.75800323    0.40000001    2.76999998
   18.05583191  119.52899933    0.40000001    2.76999998
   18.05916595  117.30400085    0.38000000    2.75000000
   18.06250000  125.35700226    0.38000000    2.75000000
   18.06555557  121.52100372    0.36000001    2.75000000
   18.06861115  124.96800232    0.36000001    2.75000000
   18.06944466  124.74900055    0.36000001    2.75000000
   18.07250023  129.73800659    0.38000000    2.76999998
   18.07583427  130.74899292    0.40000001    2.76999998
   18.07916832  126.29399872    0.40000001    2.75000000
   18.08222389  128.09199524    0.44000000    2.75000000
   18.08805656  128.09199524    0.41999999    2.76999998
   18.09222221  124.91600037    0.44000000    2.75000000
   18.09555626  120.91999817    0.47999999    2.75000000
   18.09889030  129.20199585    0.47999999    2.75000000
   18.10194397  120.16300201    0.51999998    2.75000000
   18.10250092  123.62300110    0.50000000    2.75000000
   18.10555649  120.08999634    0.50000000    2.75000000
   18.10888863  129.64999390    0.50000000    2.75000000
   18.11222267  118.55400085    0.51999998    2.75000000
   18.11527824  119.03700256    0.55000001    2.75000000
   18.11861038  121.32399750    0.56999999    2.75000000
   18.12166595  122.11299896    0.55000001    2.75000000
   18.12500000  122.07499695    0.63000000    2.75000000
   18.13111115  122.07499695    0.64999998    2.75000000
   18.13527679  119.16300201    0.63000000    2.75000000
   18.13555527  120.53099823    0.58999997    2.75000000
   18.13888931  118.79399872    0.58999997    2.75000000
   18.14222145  117.19200134    0.58999997    2.75000000
   18.14527702  116.69000244    0.56999999    2.75000000
   18.14861107  112.88700104    0.56999999    2.75000000
   18.15194321  107.83100128    0.52999997    2.75000000
   18.15499878  119.23899841    0.47999999    2.76999998
   18.15833282  119.70400238    0.51999998    2.75000000
   18.16166687  114.64800262    0.50000000    2.75000000
   18.16472244  120.12500000    0.50000000    2.75000000
   18.16805458  123.65599823    0.47999999    2.75000000
   18.16888809  120.08999634    0.47999999    2.75000000
   18.17388916  120.08999634    0.46000001    2.76999998
   18.17805481  123.03500366    0.50000000    2.75000000
   18.18111038  118.07499695    0.50000000    2.75000000
   18.18444443  120.78800201    0.51999998    2.75000000
   18.18777657  117.26499939    0.50000000    2.75000000
   18.19083214  116.90799713    0.50000000    2.75000000
   18.19416618  117.50900269    0.50000000    2.75000000
   18.19749832  117.36399841    0.47999999    2.75000000
   18.20055580  119.86699677    0.47999999    2.75000000
   18.20250130  121.37000275    0.47999999    2.75000000
   18.20416832  120.01599884    0.47999999    2.75000000
   18.20750046  120.19300079    0.47999999    2.75000000
   18.21083450  123.75299835    0.50000000    2.75000000
   18.21666718  123.75299835    1.38000000    2.75000000
   18.22083473  118.40100098    1.44000006    2.73000002
   18.22416687  113.62799835    1.89999998    2.75000000
   18.22722244  120.69100189    0.67000002    2.75000000
   18.23055649  120.67299652    0.61000001    2.75000000
   18.23388863  119.27200317    0.61000001    2.75000000
   18.23583412  119.05300140    0.70999998    2.75000000
   18.23722267  115.65399933    0.67000002    2.75000000
   18.24055672  117.18299866    0.55000001    2.75000000
   18.24361229  114.41999817    0.52999997    2.76999998
   18.24694443  119.48899841    0.56999999    2.75000000
   18.25027847  118.42900085    0.61000001    2.75000000
   18.25333405  116.91999817    0.63000000    2.73000002
   18.25944519  116.91999817    0.55000001    2.75000000
   18.26361084  118.94799805    0.55000001    2.73000002
   18.26694489  116.08899689    0.52999997    2.75000000
   18.26916695  117.72399902    0.52999997    2.75000000
   18.27055550  120.25900269    0.52999997    2.75000000
   18.27388954  114.90200043    0.51999998    2.75000000
   18.27722168  113.27700043    0.51999998    2.75000000
   18.28027725  116.44400024    0.51999998    2.75000000
   18.28361130  113.73600006    0.51999998    2.75000000
   18.28666687  119.81800079    0.47999999    2.75000000
   18.28999901  122.58300018    0.47999999    2.75000000
   18.29333305  111.52400208    0.50000000    2.75000000
   18.29638863  117.05300140    0.50000000    2.75000000
   18.30249977  117.05300140    0.51999998    2.75000000
   18.30638885  113.52999878    0.52999997    2.75000000
   18.30972099  117.26699829    0.58999997    2.75000000
   18.31305504  110.86100006    0.56999999    2.75000000
   18.31611061  116.11599731    0.56999999    2.73000002
   18.31944466  112.65200043    0.55000001    2.73000002
   18.32277870  114.20300293    0.55000001    2.73000002
   18.32583427  117.21099854    0.58999997    2.75000000
   18.32916832  117.44499969    0.58999997    2.75000000
   18.33250046  113.93599701    0.58999997    2.75000000
   18.33555603  114.73600006    0.58999997    2.75000000
   18.33750153  120.25499725    0.58999997    2.75000000
   18.33944511  108.27500153    0.58999997    2.75000000
   18.34527779  108.27500153    0.55000001    2.75000000
   18.34944534  108.69499969    0.55000001    2.75000000
   18.35250092  113.22899628    0.55000001    2.73000002
   18.35583305  109.83000183    0.56999999    2.73000002
   18.35916710  110.74299622    0.58999997    2.75000000
   18.36222267  115.20400238    0.55000001    2.75000000
   18.36555672  101.97299957    0.55000001    2.75000000
   18.36861038  113.47499847    0.52999997    2.73000002
   18.37083435  109.00499725    0.52999997    2.75000000
   18.37222290  112.55699921    0.52999997    2.75000000
   18.37555504  111.87699890    0.51999998    2.75000000
   18.37888908  112.19000244    0.50000000    2.75000000
   18.38194466  114.46800232    0.51999998    2.75000000
   18.38805580  114.46800232    0.51999998    2.75000000
   18.39222145  106.20200348    0.50000000    2.73000002
   18.39555550  118.89900208    0.51999998    2.75000000
   18.39861107  112.10099792    0.52999997    2.73000002
   18.40194321  117.13700104    0.55000001    2.73000002
   18.40416718  109.39700317    0.61000001    2.75000000
   18.40555573  113.80699921    0.61000001    2.75000000
   18.40888786  109.89299774    0.61000001    2.75000000
   18.41194344  110.31099701    0.63000000    2.75000000
   18.41527748  114.83899689    0.70999998    2.75000000
   18.41860962  114.09400177    0.69000000    2.73000002
   18.42166519  110.40799713    0.69000000    2.73000002
   18.42499924  113.19899750    0.70999998    2.73000002
   18.43083191  113.19899750    0.75000000    2.73000002
   18.43499947  113.09400177    0.94000000    2.75000000
   18.43777657  110.29000092    1.01999998    2.73000002
   18.43861008  112.44599915    1.03999996    2.71000004
   18.44194412  106.07900238    1.00000000    2.73000002
   18.44499969  113.19499969    1.05999994    2.73000002
   18.44833183  108.14499664    1.07000005    2.73000002
   18.45166779  110.02899933    1.07000005    2.73000002
   18.45472336  111.11000061    0.95999998    2.71000004
   18.45805550  106.80799866    0.79000002    2.73000002
   18.46138954  105.63999939    0.75000000    2.73000002
   18.46444511  111.48899841    0.75000000    2.73000002
   18.46777916  113.39600372    0.69000000    2.73000002
   18.47389030  113.39600372    0.50000000    2.73000002
   18.47777748  111.67800140    0.51999998    2.75000000
   18.48111153  113.49199677    0.50000000    2.75000000
   18.48444557  109.61299896    0.46000001    2.73000002
   18.48750114  108.44699860    0.46000001    2.73000002
   18.49083328  108.94400024    0.46000001    2.73000002
   18.49416733  112.42800140    0.44000000    2.73000002
   18.49722290  115.24700165    0.41999999    2.73000002
   18.50055504  110.61299896    0.41999999    2.73000002
   18.50388908  112.35800171    0.41999999    2.73000002
   18.50472260  110.86399841    0.41999999    2.73000002
   18.50749969  112.58599854    0.44000000    2.73000002
   18.51083374  107.61000061    0.44000000    2.73000002
   18.51666641  107.61000061    0.51999998    2.75000000
   18.52083397  111.42800140    0.55000001    2.73000002
   18.52388954  110.87500000    0.55000001    2.73000002
   18.52722168  109.32099915    0.56999999    2.73000002
   18.53055573  107.45400238    0.61000001    2.73000002
   18.53361130  109.22599792    1.19000006    2.73000002
   18.53694344  110.43099976    1.19000006    2.73000002
   18.53805542  114.33799744    1.23000002    2.75000000
   18.54055595  113.25599670    1.23000002    2.75000000
   18.54361153  107.37599945    0.94000000    2.73000002
   18.54694366  112.75599670    1.11000001    2.73000002
   18.54999924  110.47899628    1.11000001    2.73000002
   18.55333328  109.90699768    1.00000000    2.71000004
   18.55944443  109.90699768    1.09000003    2.73000002
   18.56361008  112.78800201    0.70999998    2.73000002
   18.56694603  112.22200012    0.94000000    2.75000000
   18.57000160  109.51499939    4.19999981    2.76999998
   18.57166672  109.92099762    4.90999985    2.76999998
   18.57361221  104.97799683    4.76000023    2.69000006
   18.57694626  113.97100067    1.28999996    2.73000002
   18.58000183  110.33300018    1.09000003    2.75000000
   18.58333397  108.37999725    0.70999998    2.75000000
   18.58666801  107.82099915    0.58999997    2.73000002
   18.58972359  103.24400330    0.56999999    2.75000000
   18.59305573  103.67099762    0.56999999    2.73000002
   18.59638977  106.83100128    0.56999999    2.73000002
   18.60222244  106.83100128    0.63000000    2.73000002
   18.62083435  102.58699799    0.69000000    2.73000002
   18.62388992  100.49700165    0.69000000    2.71000004
   18.62722206  107.83399963    0.69000000    2.71000004
   18.63027763  104.56700134    0.69000000    2.71000004
   18.63361168  108.89800262    0.67000002    2.73000002
   18.63694382  111.32099915    0.67000002    2.73000002
   18.63999939  108.72599792    0.61000001    2.73000002
   18.64555550  108.72599792    0.50000000    2.73000002
   18.64944458  107.43199921    0.47999999    2.73000002
   18.65277672  112.88300323    0.47999999    2.73000002
   18.65361023  107.51599884    0.47999999    2.73000002
   18.65638924  104.63899994    0.47999999    2.73000002
   18.65972137  107.71499634    0.47999999    2.73000002
   18.66277695  101.37999725    0.51999998    2.73000002
   18.66611099  109.93800354    0.50000000    2.73000002
   18.66944313  103.29599762    0.51999998    2.73000002
   18.67249870  104.90699768    0.55000001    2.73000002
   18.67583275  104.61699677    0.55000001    2.73000002
   18.67916679  107.54199982    0.55000001    2.73000002
   18.68222237  111.29100037    0.56999999    2.73000002
   18.68833160  111.29100037    0.55000001    2.73000002
   18.69249916  101.82700348    0.55000001    2.71000004
   18.69555473  100.24900055    0.55000001    2.71000004
   18.69888878  109.47799683    0.55000001    2.71000004
   18.70194435  110.42900085    0.55000001    2.73000002
   18.70527840  101.45300293    0.52999997    2.73000002
   18.70861244  115.57499695    0.52999997    2.73000002
   18.71166801  110.00599670    0.52999997    2.73000002
   18.71500015  111.58399963    0.51999998    2.73000002
   18.71833420  105.36100006    0.51999998    2.73000002
   18.72055626  105.28099823    0.50000000    2.71000004
   18.72166634  106.24299622    0.50000000    2.71000004
   18.72500038  102.16999817    0.50000000    2.73000002
   18.73111153  102.16999817    0.52999997    2.73000002
   18.73527718  102.17600250    0.52999997    2.73000002
   18.73833275  102.18000031    0.55000001    2.71000004
   18.74166679  101.52500153    0.52999997    2.73000002
   18.74500084  105.75399780    0.55000001    2.71000004
   18.74805641  101.41600037    0.56999999    2.71000004
   18.75138855  105.57299805    0.56999999    2.71000004
   18.75388908  102.52300262    0.56999999    2.73000002
   18.75499916  105.23000336    0.56999999    2.73000002
   18.75833321  101.68800354    0.55000001    2.73000002
   18.76138878  101.24800110    0.58999997    2.71000004
   18.76472282  104.78500366    0.61000001    2.71000004
   18.76805496  103.71499634    0.61000001    2.71000004
   18.77388954  103.71499634    0.61000001    2.73000002
   18.77805519   95.22270203    0.63000000    2.71000004
   18.78138924   97.85320282    0.63000000    2.71000004
   18.78444481   98.69499969    0.64999998    2.71000004
   18.78722191   99.02239990    0.67000002    2.71000004
   18.78805542  102.45999908    0.67000002    2.71000004
   18.79138756   95.52700043    0.67000002    2.71000004
   18.79472160  104.75599670    0.69000000    2.71000004
   18.79777718  105.18499756    0.70999998    2.71000004
   18.80111122  103.41699982    0.70999998    2.71000004
   18.80416679  104.84600067    0.73000002    2.71000004
   18.80749893  109.80000305    0.73000002    2.71000004
   18.81083298  104.04699707    0.79000002    2.71000004
   18.81666756  104.04699707    0.80000001    2.69000006
   18.82083511  106.94599915    0.83999997    2.71000004
   18.82416725  104.59899902    0.81999999    2.71000004
   18.82750130  100.01200104    0.81999999    2.71000004
   18.83055687   99.75749969    0.83999997    2.69000006
   18.83388901  101.84700012    0.81999999    2.71000004
   18.83694458  103.73699951    0.79000002    2.71000004
   18.84027863  103.29299927    0.79000002    2.71000004
   18.84361267  102.83999634    0.81999999    2.71000004
   18.84666824  106.45800018    0.81999999    2.71000004
   18.85000038  103.81600189    0.81999999    2.71000004
   18.85333443  107.36499786    0.86000001    2.69000006
   18.85388947  104.97399902    0.86000001    2.69000006
   18.85972214  104.97399902    0.83999997    2.71000004
   18.86388969  104.51599884    0.80000001    2.71000004
   18.86694527  101.06600189    0.76999998    2.71000004
   18.87027740  102.52799988    0.76999998    2.71000004
   18.87333298  102.46199799    0.75000000    2.71000004
   18.87666702   98.03780365    0.70999998    2.71000004
   18.88000107  102.42700195    0.69000000    2.71000004
   18.88305473   98.90129852    0.69000000    2.71000004
   18.88638878   97.88500214    0.69000000    2.71000004
   18.88722229  102.38500214    0.69000000    2.71000004
   18.88999939   99.92150116    0.61000001    2.71000004
   18.89333344  104.52600098    0.58999997    2.71000004
   18.89666748  102.32599640    0.56999999    2.71000004
   18.90250015  102.32599640    0.55000001    2.71000004
   18.90666580  102.48899841    0.56999999    2.73000002
   18.90972137  100.32800293    0.58999997    2.71000004
   18.91305542   94.86569977    0.58999997    2.69000006
   18.91638756   95.30819702    0.58999997    2.69000006
   18.91944313   94.41639709    0.61000001    2.71000004
   18.92055511   95.67079926    0.63000000    2.71000004
   18.92305565  102.42700195    0.63000000    2.71000004
   18.92638779   97.73490143    0.63000000    2.71000004
   18.92972183   98.90799713    0.63000000    2.71000004
   18.93277740   97.62779999    0.63000000    2.71000004
   18.93610954   98.43070221    0.64999998    2.71000004
   18.93916512   96.05210114    0.63000000    2.71000004
   18.94527626   96.05210114    0.67000002    2.71000004
   18.94944382  100.14199829    0.67000002    2.71000004
   18.95277786   95.73480225    0.58999997    2.69000006
   18.95388985   95.12390137    0.69000000    2.69000006
   18.95611191   94.88110352    0.69000000    2.69000006
   18.95944595   92.61550140    0.67000002    2.69000006
   18.96277809   94.35489655    0.67000002    2.71000004
   18.96583366   96.06359863    0.81999999    2.71000004
   18.96916771   95.59159851    0.80000001    2.69000006
   18.97222328   95.97599792    0.76999998    2.71000004
   18.97555542  100.68000031    0.75000000    2.69000006
   18.97888947   96.64939880    0.79000002    2.69000006
   18.98194504   98.45240021    0.79000002    2.69000006
   18.98805618   98.45240021    0.83999997    2.69000006
   18.99222183   96.00389862    0.83999997    2.69000006
   18.99555588   95.63760376    1.01999998    2.69000006
   18.99888992   91.11219788    1.05999994    2.71000004
   19.00194359   93.02519989    0.95999998    2.69000006
   19.00527763   97.64099884    0.98000002    2.69000006
   19.00861168   90.24880219    1.03999996    2.69000006
   19.01166725   93.75420380    1.07000005    2.69000006
   19.01499939   97.72789764    1.07000005    2.69000006
   19.01805496   94.95809937    1.05999994    2.69000006
   19.02055550   90.96479797    1.14999998    2.69000006
   19.02166557   90.95980072    1.14999998    2.69000006
   19.02499962  103.44000244    1.64999998    2.67000008
   19.03111076  103.44000244    1.76999998    2.69000006
   19.03527641   93.03910065    1.69000006    2.69000006
   19.03833199   94.04779816    1.69000006    2.69000006
   19.04166603   92.97740173    1.66999996    2.67000008
   19.04500008   98.95290375    1.63000000    2.67000008
   19.04805565   93.74839783    1.30999994    2.67000008
   19.05138779   99.16130066    1.33000004    2.69000006
   19.05388832   94.12380219    1.34000003    2.69000006
   19.05499840   91.77310181    1.34000003    2.67000008
   19.05833244   93.84660339    1.36000001    2.67000008
   19.06166649   94.72480011    1.34000003    2.67000008
   19.06472206   92.69129944    1.36000001    2.67000008
   19.06805611   91.39070129    1.33000004    2.67000008
   19.07389069   91.39070129    1.33000004    2.67000008
   19.07805634   90.65630341    1.25000000    2.69000006
   19.08111191   95.90249634    1.44000006    2.69000006
   19.08444595   91.99590302    1.46000004    2.67000008
   19.08722305   93.71269989    1.48000002    2.67000008
   19.08805656   93.22309875    1.48000002    2.67000008
   19.09138870   96.01570129    1.61000001    2.69000006
   19.09472275   95.64459991    1.41999996    2.67000008
   19.09777832   90.89350128    1.30999994    2.67000008
   19.10111237   95.92900085    1.28999996    2.67000008
   19.10416794   94.94830322    1.25000000    2.69000006
   19.10750008   94.30139923    1.25000000    2.69000006
   19.11083412   93.95189667    1.19000006    2.69000006
   19.11666679   93.95189667    1.07000005    2.67000008
   19.12083435   97.40940094    1.07000005    2.67000008
   19.12416649   93.44480133    1.07000005    2.69000006
   19.12722206   91.66220093    1.07000005    2.67000008
   19.13055611   97.79429626    1.09000003    2.67000008
   19.13388824   96.97389984    1.07000005    2.69000006
   19.13694382   91.44629669    1.03999996    2.67000008
   19.14027786   92.45610046    1.05999994    2.69000006
   19.14333344   92.08480072    1.03999996    2.67000008
   19.14666748   92.86180115    1.03999996    2.67000008
   19.14999962   89.65499878    1.05999994    2.67000008
   19.15305519   92.62770081    1.05999994    2.67000008
   19.15388870   96.09850311    1.05999994    2.67000008
   19.15944481   96.09850311    1.00000000    2.67000008
   19.16361046   90.54049683    0.98000002    2.67000008
   19.16694450   90.57039642    0.98000002    2.67000008
   19.17027664   88.76029968    0.98000002    2.67000008
   19.17333221   91.15180206    0.98000002    2.67000008
   19.17666626   90.04409790    0.98000002    2.67000008
   19.18000031   90.59600067    0.92000002    2.67000008
   19.18305397   90.25959778    0.89999998    2.66000009
   19.18638802   97.11840057    0.88000000    2.69000006
   19.18722153   92.43890381    0.88000000    2.69000006
   19.18999863   89.09860229    0.81999999    2.69000006
   19.19333267   86.82949829    0.80000001    2.67000008
   19.19666672   93.92680359    0.76999998    2.67000008
   19.20250130   93.92680359    0.76999998    2.67000008
   19.20666695   90.13359833    0.79000002    2.67000008
   19.20972252   91.21869659    0.79000002    2.67000008
   19.21305656   83.58370209    0.76999998    2.67000008
   19.21611214   90.96299744    0.75000000    2.69000006
   19.21944427   88.25109863    0.73000002    2.67000008
   19.22055626   88.55829620    0.73000002    2.67000008
   19.22305679   89.66850281    0.70999998    2.67000008
   19.22638893   93.41429901    0.70999998    2.67000008
   19.22972298   91.37059784    0.70999998    2.67000008
   19.23277855   90.23000336    0.73000002    2.69000006
   19.23611069   84.24649811    0.75000000    2.67000008
   19.23944473   90.86630249    0.75000000    2.67000008
   19.24527740   90.86630249    0.75000000    2.67000008
   19.24944496   89.26599884    0.75000000    2.67000008
   19.25250053   87.91519928    0.75000000    2.67000008
   19.25388908   90.07119751    0.76999998    2.67000008
   19.25611115   89.29239655    0.76999998    2.67000008
   19.25944519   90.35959625    0.80000001    2.67000008
   19.26277733   86.09390259    0.83999997    2.67000008
   19.26583290   87.91510010    0.88000000    2.67000008
   19.26916695   89.77010345    0.88000000    2.66000009
   19.27249908   87.89880371    0.88000000    2.66000009
   19.27555466   85.16500092    0.89999998    2.66000009
   19.27888870   88.88880157    0.89999998    2.66000009
   19.28222275   88.48570251    0.92000002    2.67000008
   19.28805542   88.48570251    0.95999998    2.66000009
   19.29222107   88.95020294    0.98000002    2.66000009
   19.29555511   87.36609650    1.00000000    2.66000009
   19.29861069   85.62850189    1.00000000    2.67000008
   19.30194283   86.66349792    1.03999996    2.66000009
   19.30527687   83.72550201    1.05999994    2.67000008
   19.30833244   84.29820251    1.05999994    2.67000008
   19.31166649   86.04479980    1.03999996    2.66000009
   19.31472206   84.01930237    1.01999998    2.66000009
   19.31805611   86.61530304    1.00000000    2.66000009
   19.32055664   85.65699768    1.00000000    2.66000009
   19.32166672   85.67949677    0.98000002    2.67000008
   19.32500076   86.32929993    0.98000002    2.67000008
   19.33083344   86.32929993    1.00000000    2.66000009
   19.33500099   82.29429626    1.01999998    2.66000009
   19.33833313   84.23339844    1.01999998    2.67000008
   19.34166718   81.78710175    1.01999998    2.67000008
   19.34472275   85.71679688    1.00000000    2.67000008
   19.34805679   83.73590088    1.01999998    2.66000009
   19.35138893   85.82900238    1.05999994    2.66000009
   19.35388947   88.80090332    1.05999994    2.66000009
   19.35472298   87.18360138    1.11000001    2.66000009
   19.35805511   88.89600372    1.11000001    2.66000009
   19.36138916   88.57879639    1.09000003    2.66000009
   19.36444473   88.03530121    1.05999994    2.66000009
   19.36777878   84.19740295    1.05999994    2.66000009
   19.37388992   84.19740295    1.09000003    2.66000009
   19.37805557   83.46739960    1.11000001    2.67000008
   19.38111115   87.83309937    1.14999998    2.66000009
   19.38444519   83.86450195    1.16999996    2.66000009
   19.38722229   89.49839783    1.16999996    2.66000009
   19.38777733   83.71309662    1.16999996    2.66000009
   19.39111137   88.75740051    1.11000001    2.66000009
   19.39444351   84.92700195    1.13000000    2.64000010
   19.39749908   85.18419647    1.14999998    2.66000009
   19.40083313   82.42340088    1.14999998    2.66000009
   19.40416718   81.50050354    1.14999998    2.64000010
   19.40722275   78.35130310    1.13000000    2.64000010
   19.41055489   82.64559937    1.14999998    2.66000009
   19.41666603   82.64559937    1.14999998    2.64000010
   19.42083359   78.82089996    1.14999998    2.66000009
   19.42416573   80.47139740    1.16999996    2.66000009
   19.42722130   78.46669769    1.16999996    2.66000009
   19.43055534   79.87599945    1.19000006    2.64000010
   19.43361092   83.01029968    1.21000004    2.64000010
   19.43694305   80.15699768    1.16999996    2.64000010
   19.44027710   81.35279846    1.19000006    2.64000010
   19.44333267   81.66719818    1.19000006    2.64000010
   19.44666672   80.64389801    1.19000006    2.64000010
   19.44972038   80.68579865    1.19000006    2.64000010
   19.45305634   82.40769958    1.19000006    2.64000010
   19.45388985   81.28569794    1.21000004    2.64000010
   19.45944595   81.28569794    1.26999998    2.64000010
   19.46361160   82.36669922    1.33000004    2.64000010
   19.46694565   80.00759888    1.34000003    2.64000010
   19.47000122   80.98989868    1.34000003    2.64000010
   19.47333336   81.76480103    1.34000003    2.64000010
   19.47666740   85.87100220    1.33000004    2.61999989
   19.47972298   82.63649750    1.33000004    2.61999989
   19.48305511   84.28630066    1.25000000    2.64000010
   19.48611069   83.55439758    1.25000000    2.64000010
   19.48722267   80.29070282    1.25000000    2.66000009
   19.48972321   85.74340057    1.25000000    2.66000009
   19.49305534   81.47869873    1.23000002    2.64000010
   19.49638939   87.77790070    1.21000004    2.64000010
   19.50222206   87.77790070    1.19000006    2.64000010
   19.50666618   80.90260315    1.21000004    2.64000010
   19.51000023   76.77670288    1.21000004    2.64000010
   19.51305580   78.60970306    1.21000004    2.64000010
   19.51638794   81.40529633    1.23000002    2.66000009
   19.51944351   82.35420227    1.26999998    2.64000010
   19.52055550   87.60160065    1.28999996    2.64000010
   19.52305603   87.48889923    1.39999998    2.64000010
   19.52638817   82.12509918    1.39999998    2.61999989
   19.52972221   83.56520081    1.44000006    2.61999989
   19.53277779   84.57240295    1.44000006    2.61999989
   19.53610992   82.87840271    1.46000004    2.61999989
   19.53944397   83.38189697    1.46000004    2.61999989
   19.54527664   83.38189697    1.51999998    2.64000010
   19.54944420   84.29419708    1.51999998    2.61999989
   19.55249977   78.81539917    1.48000002    2.64000010
   19.55388832   80.28350067    1.48000002    2.64000010
   19.55611038   79.70079803    1.48000002    2.61999989
   19.55944443   79.20359802    1.51999998    2.61999989
   19.56277657   80.64600372    1.51999998    2.61999989
   19.56583214   85.13970184    1.51999998    2.61999989
   19.56916809   81.42859650    1.55999994    2.61999989
   19.57277870   79.33650208    1.55999994    2.61999989
   19.57583427   80.58409882    1.51999998    2.61999989
   19.57916832   79.00250244    1.48000002    2.61999989
   19.58250046   78.83630371    1.48000002    2.61999989
   19.58805656   78.83630371    1.50000000    2.64000010
   19.59222221   78.30599976    1.51999998    2.64000010
   19.59527779   76.77200317    1.53999996    2.64000010
   19.59861183   80.82319641    1.50000000    2.61999989
   19.60194397   76.76969910    1.50000000    2.61999989
   19.60499954   81.02290344    1.50000000    2.61999989
   19.60833359   79.30549622    1.50000000    2.61999989
   19.61166763   81.57949829    1.50000000    2.61999989
   19.61472321   82.41799927    1.50000000    2.61999989
   19.61805534   80.64720154    1.51999998    2.61999989
   19.62055588   79.51280212    1.51999998    2.61999989
   19.64111137   79.51280212    1.53999996    2.61999989
   19.64527702  107.06400299    1.58000004    2.61999989
   19.64861107  113.43000031    1.63000000    2.59999990
   19.65166664  115.23400116    1.63000000    2.61999989
   19.65388870  105.37200165    1.63000000    2.61999989
   19.65527725  110.12599945    1.63000000    2.61999989
   19.65861130  105.21399689    1.63000000    2.61999989
   19.66194344  104.51200104    1.60000002    2.61999989
   19.66499901  107.77600098    1.55999994    2.61999989
   19.66833305  113.29000092    1.55999994    2.61999989
   19.67166519  108.26300049    1.50000000    2.61999989
   19.67472076  119.34500122    1.41999996    2.61999989
   19.67805481  110.47200012    1.38000000    2.61999989
   19.68388748  110.47200012    1.36000001    2.64000010
   19.68805504  104.24099731    1.33000004    2.64000010
   19.69138718  114.94999695    1.33000004    2.61999989
   19.69444275  110.37300110    1.30999994    2.61999989
   19.69777679  104.35700226    1.30999994    2.61999989
   19.70083427  108.85399628    1.34000003    2.61999989
   19.70416832  110.26799774    1.33000004    2.61999989
   19.70750046  110.35399628    1.33000004    2.61999989
   19.71055603  104.84600067    1.30999994    2.61999989
   19.71389008  106.11900330    1.30999994    2.61999989
   19.71722221  108.00299835    1.33000004    2.61999989
   19.72027779   99.39279938    1.30999994    2.64000010
   19.72083473  108.26000214    1.30999994    2.64000010
   19.72666740  108.26000214    1.26999998    2.61999989
   19.73083305  101.22499847    1.25000000    2.61999989
   19.73416710  108.06500244    1.21000004    2.64000010
   19.73722267  102.45600128    1.21000004    2.61999989
   19.74055672  105.44799805    1.21000004    2.61999989
   19.74388885  109.75000000    1.26999998    2.61999989
   19.74694443  111.48699951    1.28999996    2.61999989
   19.75027847  109.23100281    1.19000006    2.61999989
   19.75361061  111.23799896    1.16999996    2.61999989
   19.75416756  110.57700348    1.16999996    2.61999989
   19.75722313  108.90499878    1.16999996    2.61999989
   19.76027870  114.70400238    1.19000006    2.61999989
   19.76361084  111.05599976    1.21000004    2.61999989
   19.76972198  111.05599976    1.21000004    2.59999990
   19.77361107  108.47599792    1.21000004    2.61999989
   19.77694511  107.35399628    1.19000006    2.61999989
   19.78027725  110.25199890    1.19000006    2.61999989
   19.78333282  112.78500366    1.21000004    2.61999989
   19.78666687  118.76399994    1.21000004    2.61999989
   19.78750038  109.56500244    1.21000004    2.61999989
   19.79027748  117.11699677    1.21000004    2.61999989
   19.79333305  111.94300079    1.23000002    2.59999990
   19.79666710  111.31700134    1.21000004    2.59999990
   19.79999924  107.70899963    1.21000004    2.59999990
   19.80305481  115.83100128    1.21000004    2.61999989
   19.80638885  112.69300079    1.21000004    2.61999989
   19.81250000  112.69300079    1.19000006    2.59999990
   19.81666756  108.12200165    1.16999996    2.59999990
   19.81972313  108.75299835    1.19000006    2.61999989
   19.82083511  103.93199921    1.19000006    2.61999989
   19.82333374  105.12599945    1.19000006    2.59999990
   19.82638931  111.63700104    1.19000006    2.59999990
   19.82972336  107.48500061    1.21000004    2.61999989
   19.83305550  115.41300201    1.19000006    2.61999989
   19.83611107  106.58200073    1.16999996    2.59999990
   19.83944511  114.26699829    1.16999996    2.59999990
   19.84277916  107.01799774    1.19000006    2.59999990
   19.84583473  114.40399933    1.21000004    2.59999990
   19.84916687  112.10199738    1.21000004    2.59999990
   19.85527802  112.10199738    1.23000002    2.59999990
   19.85944557  119.04599762    1.23000002    2.59999990
   19.86250114  110.15499878    1.51999998    2.59999990
   19.86583328  105.66000366    1.61000001    2.57999992
   19.86916733  116.43299866    1.75000000    2.57999992
   19.87222290  108.45300293    1.83000004    2.57999992
   19.87555504  108.00599670    1.83000004    2.57999992
   19.87888908  108.80599976    1.85000002    2.57999992
   19.88194466  105.44000244    1.75000000    2.57999992
   19.88527679  111.61000061    1.75000000    2.57999992
   19.88750076  113.16999817    1.75000000    2.57999992
   19.88888931  116.51799774    1.75000000    2.57999992
   19.89222145  106.75800323    1.69000006    2.55999994
   19.89805603  106.75800323    1.64999998    2.55999994
   19.90222168  106.04900360    1.66999996    2.59999990
   19.90555573  108.08200073    1.66999996    2.59999990
   19.90861130  109.74299622    1.78999996    2.57999992
   19.91194344  110.69000244    2.13000011    2.55999994
   19.91527748  117.90200043    2.03999996    2.53999996
   19.91833305  118.18800354    2.00000000    2.55999994
   19.92083359  114.87699890    1.96000004    2.55999994
   19.92194366  112.43699646    1.96000004    2.55999994
   19.92527771  110.59300232    1.94000006    2.55999994
   19.92833328  118.89499664    1.89999998    2.55999994
   19.93166542  108.79799652    1.83000004    2.55999994
   19.93472099  114.99400330    1.75000000    2.55999994
   19.94111061  114.99400330    1.51999998    2.55999994
   19.94499969  114.09600067    1.44000006    2.57999992
   19.94833183  108.17500305    1.44000006    2.55999994
   19.95166779  105.78299713    1.44000006    2.55999994
   19.95416832  122.10199738    1.44000006    2.57999992
   19.95527840  119.66100311    1.44000006    2.57999992
   19.95861244  113.75599670    1.44000006    2.57999992
   19.96166801  106.72399902    1.53999996    2.57999992
   19.96500015  112.51399994    1.58000004    2.57999992
   19.96805573  110.17700195    1.58000004    2.57999992
   19.97138977  112.03700256    1.61000001    2.55999994
   19.97472191  110.20200348    1.63000000    2.55999994
   19.97777748  113.92099762    1.71000004    2.57999992
   19.98388863  113.92099762    1.75000000    2.55999994
   19.98805618  113.12400055    1.78999996    2.55999994
   19.99111176  114.42900085    1.83000004    2.53999996
   19.99444389  113.14800262    1.85000002    2.55999994
   19.99749947  116.51999664    1.85000002    2.55999994
   20.00083351  110.43399811    1.83000004    2.55999994
   20.00416756  112.40899658    1.83000004    2.55999994
   20.00722313  113.14600372    1.83000004    2.55999994
   20.01055527  115.44300079    1.76999998    2.55999994
   20.01388931  123.56199646    1.75000000    2.55999994
   20.01694489  121.80699921    1.73000002    2.55999994
   20.02027702  119.75900269    1.69000006    2.55999994
   20.02083397  114.91799927    1.69000006    2.53999996
   20.02666664  114.91799927    1.66999996    2.55999994
   20.03083229  125.43599701    1.63000000    2.55999994
   20.03388786  116.69200134    1.63000000    2.55999994
   20.03722191  122.47100067    1.60000002    2.55999994
   20.04055595  125.46099854    1.61000001    2.55999994
   20.04388809  128.75900269    1.61000001    2.55999994
   20.04694366  116.85600281    1.61000001    2.55999994
   20.05027771  125.38800049    1.61000001    2.55999994
   20.05333328  116.42199707    1.61000001    2.55999994
   20.05416679  125.10199738    1.63000000    2.53999996
   20.05722237  120.94799805    1.63000000    2.53999996
   20.06055450  115.61599731    1.96000004    2.53999996
   20.06361008  120.66699982    2.11999989    2.55999994
   20.06944466  120.66699982    2.55999994    2.51999998
   20.07361221  118.70999908    2.67000008    2.51999998
   20.07694626  130.25999451    2.59999990    2.53999996
   20.08000183  114.38099670    2.51999998    2.53999996
   20.08333397  137.35400391    2.50000000    2.53999996
   20.08666801  138.91900635    2.39000010    2.51999998
   20.08750153  134.79899597    2.34999990    2.51999998
   20.09027863  155.71899414    2.28999996    2.51999998
   20.09361267  177.95599365    2.19000006    2.53999996
   20.09666824  194.39900208    2.07999992    2.53999996
   20.10000038  201.98399353    2.01999998    2.55999994
   20.10305595  216.91200256    1.96000004    2.53999996
   20.10639000  225.33599854    1.91999996    2.55999994
   20.11250114  225.33599854    2.09999990    2.53999996
   20.11638832   -1.00000000    2.23000002    2.53999996
   20.11972237   -1.00000000    2.89000010    2.51999998
   20.12333298   -1.00000000    4.09999990    2.51999998
   20.12638855   -1.00000000    4.90999985    2.50000000
   20.12972260   -1.00000000    4.90999985    2.48000002
   20.13305473   -1.00000000    4.90999985    2.44000006
   20.13611031   -1.00000000    4.90999985    2.46000004
   20.13944435   -1.00000000    4.90999985    2.46000004
   20.14249992   -1.00000000    4.90999985    2.46000004
   20.14583397   -1.00000000    4.90999985    2.44000006
   20.14916611   -1.00000000    4.90999985    2.42000008
   20.15916634   -1.00000000    4.90999985    2.36999989
   20.16250038   -1.00000000    4.90999985    2.34999990
   20.16583252   -1.00000000    4.90999985    2.39000010
   20.16888809   -1.00000000    4.90999985    2.40000010
   20.17222214   -1.00000000    4.90999985    2.40000010
   20.17527771   -1.00000000    4.90999985    2.40000010
   20.17860985   -1.00000000    4.90999985    2.42000008
   20.18194389   -1.00000000    4.53999996    2.44000006
   20.18499947   -1.00000000    4.28999996    2.46000004
   20.18861008   -1.00000000    3.95000005    2.46000004
   20.19166565   -1.00000000    3.57999992    2.46000004
   20.20222282   -1.00000000    2.55999994    2.50000000
   20.20527840   -1.00000000    2.23000002    2.51999998
   20.20861244   -1.00000000    1.96000004    2.51999998
   20.21166801   -1.00000000    1.69000006    2.51999998
   20.21500015   -1.00000000    1.61000001    2.51999998
   20.21833420   -1.00000000    1.46000004    2.51999998
   20.22194481   -1.00000000    1.44000006    2.53999996
   20.22500038   -1.00000000    1.39999998    2.53999996
   20.22833443   -1.00000000    1.38000000    2.53999996
   20.23166656   -1.00000000    1.41999996    2.51999998
   20.23472214   -1.00000000    1.48000002    2.53999996
   20.24500084   -1.00000000    1.66999996    2.51999998
   20.24805641   -1.00000000    1.71000004    2.51999998
   20.25138855   -1.00000000    2.13000011    2.51999998
   20.25499916   -1.00000000    2.39000010    2.51999998
   20.25805473   -1.00000000    2.46000004    2.50000000
   20.26138878   -1.00000000    2.50000000    2.50000000
   20.26472282   -1.00000000    2.44000006    2.48000002
   20.26777840   -1.00000000    2.19000006    2.50000000
   20.27111053   -1.00000000    1.96000004    2.50000000
   20.27416611   -1.00000000    1.88000000    2.50000000
   20.27750015   -1.00000000    1.76999998    2.51999998
   20.28777695   -1.00000000    1.80999994    2.50000000
   20.29111099   -1.00000000    2.42000008    2.51999998
   20.29416656   -1.00000000    2.55999994    2.50000000
   20.29749870   -1.00000000    2.64000010    2.51999998
   20.30055428   -1.00000000    2.86999989    2.51999998
   20.30388832   -1.00000000    2.91000009    2.50000000
   20.30722237   -1.00000000    3.07999992    2.50000000
   20.31027794   -1.00000000    3.78999996    2.50000000
   20.31361008   -1.00000000    4.90999985    2.50000000
   20.31694603   -1.00000000    4.90999985    2.50000000
   20.32000160   -1.00000000    4.90999985    2.44000006
   20.33055687   -1.00000000    4.63999987    2.42000008
   20.33388901   -1.00000000    4.13999987    2.46000004
   20.33694458   -1.00000000    3.43000007    2.46000004
   20.34027863   -1.00000000    3.09999990    2.44000006
   20.34361267   -1.00000000    2.67000008    2.48000002
   20.34666824   -1.00000000    2.11999989    2.48000002
   20.35000038   -1.00000000    1.80999994    2.50000000
   20.35333443   -1.00000000    1.66999996    2.50000000
   20.35694504   -1.00000000    1.53999996    2.48000002
   20.36000061   -1.00000000    1.51999998    2.50000000
   20.36333466   -1.00000000    1.39999998    2.50000000
   20.37333298   -1.00000000    1.41999996    2.50000000
   20.37666702   -1.00000000    1.46000004    2.50000000
   20.38000107   -1.00000000    1.53999996    2.50000000
   20.38305473   -1.00000000    1.58000004    2.50000000
   20.38638878   -1.00000000    1.60000002    2.50000000
   20.38999939   -1.00000000    1.60000002    2.48000002
   20.39305496   -1.00000000    1.60000002    2.48000002
   20.39638901   -1.00000000    1.61000001    2.48000002
   20.39972115   -1.00000000    1.61000001    2.50000000
   20.40277672   -1.00000000    1.61000001    2.50000000
   20.40611076   -1.00000000    1.58000004    2.48000002
   20.41638756   -1.00000000    1.58000004    2.48000002
   20.41944313   -1.00000000    1.63000000    2.48000002
   20.42305565   -1.00000000    1.61000001    2.48000002
   20.42611122   -1.00000000    1.63000000    2.48000002
   20.42944336   -1.00000000    1.60000002    2.48000002
   20.43277740   -1.00000000    1.58000004    2.48000002
   20.43583298   -1.00000000    1.55999994    2.46000004
   20.43916512   -1.00000000    1.53999996    2.48000002
   20.44249916   -1.00000000    1.50000000    2.48000002
   20.44555473   -1.00000000    1.48000002    2.50000000
   20.44888878   -1.00000000    1.41999996    2.48000002
   20.45916748   -1.00000000    1.39999998    2.48000002
   20.46250153   -1.00000000    1.39999998    2.48000002
   20.46555710   -1.00000000    1.39999998    2.48000002
   20.46888924   -1.00000000    1.39999998    2.48000002
   20.47194481   -1.00000000    1.41999996    2.48000002
   20.47527885   -1.00000000    1.41999996    2.48000002
   20.47861099   -1.00000000    1.50000000    2.48000002
   20.48166656   -1.00000000    1.60000002    2.48000002
   20.48500061   -1.00000000    1.64999998    2.46000004
   20.48861122   -1.00000000    1.71000004    2.46000004
   20.49166679   -1.00000000    1.80999994    2.46000004
   20.50194359   -1.00000000    1.96000004    2.46000004
   20.50527763   -1.00000000    1.96000004    2.46000004
   20.50833321   -1.00000000    2.00000000    2.46000004
   20.51166725   -1.00000000    2.07999992    2.46000004
   20.51499939   -1.00000000    2.15000010    2.46000004
   20.51805496   -1.00000000    2.23000002    2.46000004
   20.52166557   -1.00000000    2.36999989    2.46000004
   20.52472115   -1.00000000    2.55999994    2.44000006
   20.52805519   -1.00000000    2.91000009    2.42000008
   20.53138924   -1.00000000    3.50000000    2.40000010
   20.53444481   -1.00000000    3.91000009    2.39000010
   20.54472160   -1.00000000    4.82999992    2.32999992
   20.54805565   -1.00000000    4.90999985    2.32999992
   20.55138779   -1.00000000    4.90999985    2.32999992
   20.55499840   -1.00000000    4.90999985    2.36999989
   20.55805397   -1.00000000    4.90999985    2.36999989
   20.56138802   -1.00000000    4.90999985    2.39000010
   20.56472206   -1.00000000    4.90999985    2.34999990
   20.56777954   -1.00000000    4.90999985    2.34999990
   20.57111168   -1.00000000    4.90999985    2.32999992
   20.57444572   -1.00000000    4.90999985    2.30999994
   20.57750130   -1.00000000    4.90999985    2.25000000
   20.58777809   -1.00000000    4.90999985    2.21000004
   20.59083366   -1.00000000    4.90999985    2.19000006
   20.59416771   -1.00000000    4.90999985    2.19000006
   20.59749985   -1.00000000    4.90999985    2.19000006
   20.60055542   -1.00000000    4.90999985    2.23000002
   20.60388947   -1.00000000    4.90999985    2.21000004
   20.60694504   -1.00000000    4.90999985    2.21000004
   20.61027908   -1.00000000    4.90999985    2.15000010
   20.61361122   -1.00000000    4.90999985    2.13000011
   20.61666679   -1.00000000    4.90999985    2.13000011
   20.62000084   -1.00000000    4.90999985    2.13000011
   20.63055611   -1.00000000    4.90999985    2.15000010
   20.63388824   -1.00000000    4.90999985    2.17000008
   20.63694382   -1.00000000    4.90999985    2.19000006
   20.65694427   -1.00000000    4.73999977    2.32999992
   20.65999985   -1.00000000    4.48999977    2.34999990
   20.66333389   -1.00000000    4.23999977    2.36999989
   20.67361069   -1.00000000    3.26999998    2.36999989
   20.67666626   -1.00000000    3.07999992    2.36999989
   20.68000031   -1.00000000    2.98000002    2.36999989
   20.68305397   -1.00000000    3.00000000    2.39000010
   20.68638802   -1.00000000    3.03999996    2.40000010
   20.68972206   -1.00000000    3.03999996    2.40000010
   20.69305420   -1.00000000    3.05999994    2.40000010
   20.69638824   -1.00000000    3.16000009    2.39000010
   20.69944382   -1.00000000    3.26999998    2.39000010
   20.70277786   -1.00000000    3.41000009    2.36999989
   20.70583344   -1.00000000    3.51999998    2.36999989
   20.71638870   -1.00000000    3.76999998    2.36999989
   20.71944427   -1.00000000    3.86999989    2.36999989
   20.72305679   -1.00000000    4.03999996    2.36999989
   20.72638893   -1.00000000    4.90999985    2.36999989
   20.72972298   -1.00000000    4.90999985    2.36999989
   20.73277855   -1.00000000    4.90999985    2.34999990
   20.73611069   -1.00000000    4.90999985    2.36999989
   20.73916626   -1.00000000    4.90999985    2.32999992
   20.74250031   -1.00000000    4.90999985    1.50000000
   20.74583435   -1.00000000    4.90999985    1.26999998
   20.74888992   -1.00000000    4.90999985    1.73000002
   20.75916672   -1.00000000    4.90999985    2.07999992
   20.76250076   -1.00000000    4.90999985    2.01999998
   20.76555634   -1.00000000    4.90999985    2.15000010
   20.76888847   -1.00000000    4.90999985    2.25000000
   20.77222252   -1.00000000    4.90999985    2.25000000
   20.77527809   -1.00000000    4.90999985    2.30999994
   20.77861023   -1.00000000    4.53000021    2.30999994
   20.78166580   -1.00000000    3.97000003    2.32999992
   20.78499985   -1.00000000    3.61999989    2.34999990
   20.78833199   -1.00000000    3.34999990    2.32999992
   20.79166603   -1.00000000    3.14000010    2.32999992
   20.80194283   -1.00000000    2.82999992    2.34999990
   20.80527687   -1.00000000    2.82999992    2.34999990
   20.80861092   -1.00000000    2.84999990    2.34999990
   20.81166649   -1.00000000    2.89000010    2.34999990
   20.81499863   -1.00000000    2.89000010    2.34999990
   20.81805611   -1.00000000    2.94000006    2.34999990
   20.82166672   -1.00000000    3.00000000    2.32999992
   20.82500076   -1.00000000    3.07999992    2.32999992
   20.82833481   -1.00000000    3.14000010    2.32999992
   20.83139038   -1.00000000    3.21000004    2.32999992
   20.83472252   -1.00000000    3.32999992    2.32999992
   20.84500122   -1.00000000    3.32999992    2.30999994
   20.84805679   -1.00000000    3.26999998    2.32999992
   20.85138893   -1.00000000    3.25000000    2.32999992
   20.85472298   -1.00000000    3.25000000    2.32999992
   20.85805511   -1.00000000    3.21000004    2.32999992
   20.86138916   -1.00000000    3.21000004    2.34999990
   20.86444473   -1.00000000    3.21000004    2.34999990
   20.86777878   -1.00000000    3.21000004    2.34999990
   20.87083435   -1.00000000    3.26999998    2.32999992
   20.87416649   -1.00000000    3.32999992    2.32999992
   20.87750053   -1.00000000    3.45000005    2.32999992
   20.88805580   -1.00000000    3.86999989    2.30999994
   20.89138794   -1.00000000    4.01999998    2.32999992
   20.89472198   -1.00000000    4.11999989    2.30999994
   20.89777756   -1.00000000    4.23999977    2.30999994
   20.90111160   -1.00000000    4.36999989    2.30999994
   20.90416718   -1.00000000    4.44999981    2.30999994
   20.90749931   -1.00000000    4.46999979    2.28999996
   20.91083336   -1.00000000    4.44999981    2.28999996
   20.91388893   -1.00000000    4.44999981    2.28999996
   20.91722107   -1.00000000    4.63999987    2.26999998
   20.92055511   -1.00000000    4.65999985    2.28999996
   20.93055534   -1.00000000    4.15999985    2.30999994
   20.93388748   -1.00000000    4.00000000    2.30999994
   20.93694305   -1.00000000    3.91000009    2.30999994
   20.94027710   -1.00000000    3.84999990    2.30999994
   20.94361115   -1.00000000    3.80999994    2.30999994
   20.94666672   -1.00000000    3.66000009    2.28999996
   20.95000076   -1.00000000    3.57999992    2.28999996
   20.95305634   -1.00000000    3.50000000    2.30999994
   20.95666695   -1.00000000    3.45000005    2.28999996
   20.96000099   -1.00000000    3.36999989    2.28999996
   20.96333504   -1.00000000    3.30999994    2.28999996
   20.97333336   -1.00000000    3.21000004    2.28999996
   20.97666740   -1.00000000    3.20000005    2.26999998
   20.97972298   -1.00000000    3.18000007    2.28999996
   20.98305511   -1.00000000    3.14000010    2.28999996
   20.98638916   -1.00000000    3.14000010    2.28999996
   20.98972321   -1.00000000    3.14000010    2.28999996
   20.99305534   -1.00000000    3.14000010    2.28999996
   20.99638939   -1.00000000    3.09999990    2.28999996
   20.99944496   -1.00000000    3.05999994    2.28999996
   21.00277710   -1.00000000    3.07999992    2.26999998
   21.00611115   -1.00000000    3.09999990    2.26999998
   21.01638794   -1.00000000    3.25000000    2.26999998
   21.01944351   -1.00000000    3.26999998    2.26999998
   21.02305603   -1.00000000    3.28999996    2.26999998
   21.02611160   -1.00000000    3.30999994    2.25000000
   21.02944374   -1.00000000    3.36999989    2.25000000
   21.03249931   -1.00000000    3.43000007    2.25000000
   21.03583336   -1.00000000    3.48000002    2.25000000
   21.03916550   -1.00000000    3.57999992    2.25000000
   21.04222107   -1.00000000    3.68000007    2.23000002
   21.04555511   -1.00000000    3.75000000    2.23000002
   21.04888916   -1.00000000    3.82999992    2.23000002
   21.05916595   -1.00000000    3.72000003    2.23000002
   21.06222153   -1.00000000    3.73000002    2.23000002
   21.06555557   -1.00000000    3.64000010    2.23000002
   21.06888962   -1.00000000    3.57999992    2.23000002
   21.07194519   -1.00000000    3.43000007    2.23000002
   21.07527924   -1.00000000    3.41000009    2.23000002
   21.07833481   -1.00000000    3.41000009    2.21000004
   21.08166695   -1.00000000    3.86999989    2.23000002
   21.08500099   -1.00000000    4.26000023    2.23000002
   21.08833313   -1.00000000    4.03999996    2.23000002
   21.09166718   -1.00000000    3.95000005    2.23000002
   21.10194397   -1.00000000    3.66000009    2.21000004
   21.10527802   -1.00000000    3.59999990    2.21000004
   21.10833359   -1.00000000    3.55999994    2.19000006
   21.11166763   -1.00000000    3.51999998    1.80999994
   21.11499977   -1.00000000    3.70000005    2.03999996
   21.11805534   -1.00000000    3.82999992    2.17000008
   21.12138939   -1.00000000    3.80999994    2.19000006
   21.12472153   -1.00000000    3.73000002    2.21000004
   21.12805557   -1.00000000    3.61999989    2.21000004
   21.13111115   -1.00000000    3.51999998    2.21000004
   21.13444519   -1.00000000    3.50000000    2.19000006
   21.14472198   -1.00000000    4.90999985    2.26999998
   21.14805603   -1.00000000    0.30000001    0.52999997
   21.15111160   -1.00000000    0.17000000    0.25000000
   21.15499878   -1.00000000    0.13000000    0.13000000
   21.15805435   -1.00000000    0.13000000    0.13000000
