    HOUR (UT)   FLARE FACTOR    SKY TESTER    SUN TESTER
   10.55277824   -1.00000000   -1.00000000   -1.00000000
   10.59249973  105.28900146    4.90999985    1.55999994
   10.59749985   87.66480255    4.90999985    1.55999994
   10.60111141  124.27100372    4.90999985    1.55999994
   10.60444450  101.53199768    4.90999985    1.55999994
   10.60750008  115.26499939    4.90999985    1.55999994
   10.61083412  142.80099487    4.90999985    1.58000004
   10.61388969   81.76349640    4.90999985    1.58000004
   10.61722279  115.87899780    4.90999985    1.58000004
   10.62055588  121.84899902    4.90999985    1.60000002
   10.62361145   93.90779877    4.90999985    1.61000001
   10.62583351  108.04199982    4.90999985    1.61000001
   10.62750053  123.00199890    4.90999985    1.63000000
   10.63083363  161.84100342    4.90999985    1.61000001
   10.63388920   80.39129639    4.90999985    1.61000001
   10.63722229  109.76200104    4.90999985    1.60000002
   10.64027786  119.67900085    4.90999985    1.61000001
   10.64361095   94.95700073    4.90999985    1.60000002
   10.64694405  115.26100159    4.90999985    1.61000001
   10.64999962  125.74299622    4.90999985    1.63000000
   10.65333271  129.33299255    4.90999985    1.61000001
   10.65666676   84.51059723    4.90999985    1.51999998
   10.66027737   63.14649963    4.90999985    1.50000000
   10.66333294   96.83000183    4.90999985    1.51999998
   10.66666698  130.20700073    4.90999985    1.55999994
   10.66972256  132.27799988    4.90999985    1.58000004
   10.67305565  123.20500183    4.90999985    1.63000000
   10.67638874  120.51000214    4.90999985    1.64999998
   10.67944431  153.17700195    4.90999985    1.66999996
   10.68277836  143.46899414    4.90999985    1.69000006
   10.68611145  171.21400452    4.90999985    1.69000006
   10.68916702  136.87399292    4.90999985    1.69000006
   10.69250011  145.52699280    4.90999985    1.69000006
   10.69305515  137.05599976    4.90999985    1.69000006
   10.69611073  144.41299438    4.90999985    1.71000004
   10.69944477  137.62800598    4.90999985    1.69000006
   10.70277786  128.21000671    4.90999985    1.69000006
   10.70583344  161.72999573    4.90999985    1.71000004
   10.70916653  141.49600220    4.90999985    1.71000004
   10.71249962  181.99899292    4.90999985    1.71000004
   10.71555519  130.90199280    4.90999985    1.71000004
   10.71888828  175.29200745    4.90999985    1.71000004
   10.72194386  116.58300018    4.90999985    1.71000004
   10.72527695  169.25799561    4.90999985    1.73000002
   10.72638798  130.69500732    4.90999985    1.73000002
   10.72888851  136.52699280    4.90999985    1.75000000
   10.73222160  185.00199890    4.90999985    1.75000000
   10.73555565  165.83000183    4.90999985    1.73000002
   10.73861122   76.35659790    4.90999985    1.61000001
   10.74194431  115.06800079    4.90999985    1.58000004
   10.74527836  112.24400330    4.90999985    1.60000002
   10.74833393  148.35699463    4.90999985    1.66999996
   10.75166702  145.81700134    4.90999985    1.73000002
   10.75472260  159.86999512    4.90999985    1.75000000
   10.75805569  163.16000366    4.90999985    1.75000000
   10.75972176  197.30900574    4.90999985    1.75000000
   10.76166630  154.05200195    4.90999985    1.75000000
   10.76500034  157.19900513    4.90999985    1.76999998
   10.76833344  155.44000244    4.90999985    1.76999998
   10.77138901  147.01699829    4.90999985    1.76999998
   10.77472210  169.72200012    4.90999985    1.76999998
   10.77805519  167.03700256    4.90999985    1.76999998
   10.78111076  185.63299561    4.90999985    1.76999998
   10.78444481  181.04200745    4.90999985    1.78999996
   10.78750038  180.92700195    4.90999985    1.78999996
   10.79083347  186.33099365    4.90999985    1.78999996
   10.79305553  171.23699951    4.90999985    1.78999996
   10.79444504  193.63499451    4.90999985    1.78999996
   10.79777813  180.03300476    4.90999985    1.78999996
   10.80111122  206.49200439    4.90999985    1.80999994
   10.80416679  198.29600525    4.90999985    1.80999994
   10.80749989  193.91700745    4.90999985    1.80999994
   10.81083393  222.66200256    4.90999985    1.80999994
   10.81388950  205.81799316    4.90999985    1.80999994
   10.81722260  221.94099426    4.90999985    1.80999994
   10.82027817  243.11099243    4.90999985    1.83000004
   10.82361126  271.97100830    4.90999985    1.83000004
   10.82638836  299.27398682    4.90999985    1.83000004
   10.82750034  251.38900757    4.90999985    1.83000004
   10.83055592  284.92001343    4.90999985    1.83000004
   10.83388901  265.26098633    4.90999985    1.83000004
   10.83694458  270.39700317    4.90999985    1.83000004
   10.84027767  251.93200684    4.90999985    1.83000004
   10.84361076  276.63900757    4.90999985    1.83000004
   10.84666634  300.57299805    4.90999985    1.85000002
   10.85000038  309.94601440    4.90999985    1.85000002
   10.85333347  304.77600098    4.90999985    1.85000002
   10.85638905  302.19400024    4.90999985    1.85000002
   10.85972214  315.43301392    4.90999985    1.85000002
   10.86027813  325.38800049    4.90999985    1.85000002
   10.86333370  278.92098999    4.90999985    1.85000002
   10.86666679  291.12100220    4.90999985    1.85000002
   10.86972237  265.18301392    4.90999985    1.85000002
   10.87305546  279.53100586    4.90999985    1.86000001
   10.87638855  317.54901123    4.90999985    1.85000002
   10.87944412  361.01599121    4.90999985    1.86000001
   10.88277817  290.45999146    4.90999985    1.86000001
   10.88611126  347.83999634    4.90999985    1.86000001
   10.88916683  333.41598511    4.90999985    1.86000001
   10.89249992  368.17800903    4.90999985    1.86000001
   10.89305496  354.46301270    4.90999985    1.86000001
   10.89611053  404.61801147    4.90999985    1.86000001
   10.89805508  390.19198608    4.90999985    1.86000001
   10.89944458  414.11700439    4.90999985    1.86000001
   10.90083313  386.48999023    4.90999985    1.86000001
   10.90222168  390.56100464    4.90999985    1.88000000
   10.90361118  437.49301147    4.90999985    1.88000000
   10.90499973  390.79098511    4.90999985    1.88000000
   10.90638828  421.57299805    4.90999985    1.88000000
   10.90777779  410.83300781    4.90999985    1.88000000
   10.90916634  441.04199219    4.90999985    1.88000000
   10.91055489  444.69000244    4.90999985    1.88000000
   10.91194439  404.95401001    4.90999985    1.88000000
   10.91333294  505.15798950    4.90999985    1.88000000
   10.91472149  452.05300903    4.90999985    1.88000000
   10.91611099  510.60800171    4.90999985    1.88000000
   10.91750050  474.67300415    4.90999985    1.88000000
   10.91888905  422.44601440    4.90999985    1.88000000
   10.92027855  484.42401123    4.90999985    1.88000000
   10.92166710  439.36499023    4.90999985    1.88000000
   10.92305565  446.80200195    4.90999985    1.89999998
   10.92444515  474.07901001    4.90999985    1.89999998
   10.92583370  436.13500977    4.90999985    1.88000000
   10.92722225  488.07598877    4.90999985    1.89999998
   10.92861176  426.42800903    4.90999985    1.89999998
   10.93000031  371.27499390    4.90999985    1.89999998
   10.93138885  456.09899902    4.90999985    1.89999998
   10.93277836  423.31500244    4.90999985    1.89999998
   10.93416691  478.77398682    4.90999985    1.89999998
   10.93555546  411.64898682    4.90999985    1.89999998
   10.93694496  492.01199341    4.90999985    1.89999998
   10.93833351  436.14099121    4.90999985    1.88000000
   10.93972206  429.73498535    4.90999985    1.89999998
   10.94111156  447.10699463    4.90999985    1.89999998
   10.94250011  412.53900146    4.90999985    1.89999998
   10.94388866  492.47100830    4.90999985    1.91999996
   10.94527817  408.57299805    4.90999985    1.89999998
   10.94666672  451.91500854    4.90999985    1.91999996
   10.94805527  422.82199097    4.90999985    1.91999996
   10.94944477  506.61801147    4.90999985    1.91999996
   10.95083332  463.36999512    4.90999985    1.91999996
   10.95222187  548.91601563    4.90999985    1.89999998
   10.95361137  465.52301025    4.90999985    1.91999996
   10.95499992  587.77099609    4.90999985    1.91999996
   10.95638847  461.28900146    4.90999985    1.91999996
   10.95777798  436.48400879    4.90999985    1.91999996
   10.95916653  491.25000000    4.90999985    1.91999996
   10.96055508  431.40499878    4.90999985    1.91999996
   10.96194458  639.46099854    4.90999985    1.91999996
   10.96333313  491.23098755    4.90999985    1.91999996
   10.96472168  549.38897705    4.90999985    1.91999996
   10.96611118  539.14801025    4.90999985    1.91999996
   10.96749973  628.16802979    4.90999985    1.91999996
   10.96888828  674.14898682    4.90999985    1.91999996
   10.97027779  527.43200684    4.90999985    1.91999996
   10.97166634  448.32699585    4.90999985    1.91999996
   10.97305489  516.55102539    4.90999985    1.91999996
   10.97444439  512.20898438    4.90999985    1.91999996
   10.97583294  462.09201050    4.90999985    1.91999996
   10.97722149  536.46099854    4.90999985    1.91999996
   10.97861099  511.55099487    4.90999985    1.94000006
   10.97999954  430.19699097    4.90999985    1.91999996
   10.98138809  456.79998779    4.90999985    1.94000006
   10.98277760  542.27197266    4.90999985    1.94000006
   10.98416710  461.79998779    4.90999985    1.94000006
   10.98555565  381.09600830    4.90999985    1.94000006
   10.98694515  509.77801514    4.90999985    1.94000006
   10.98833370  481.66900635    4.90999985    1.94000006
   10.98972225  359.38400269    4.90999985    1.94000006
   10.99111176  378.17700195    4.90999985    1.96000004
   10.99250031  343.42498779    4.90999985    1.96000004
   10.99250031  368.17800903    4.90999985    1.86000001
   10.99250031  404.61801147    4.90999985    1.86000001
   10.99277782  265.18301392    4.90999985    1.85000002
   10.99277782  279.53100586    4.90999985    1.86000001
   10.99277782  317.54901123    4.90999985    1.85000002
   10.99305534  361.01599121    4.90999985    1.86000001
   10.99305534  290.45999146    4.90999985    1.86000001
   10.99305534  347.83999634    4.90999985    1.86000001
   10.99333382  333.41598511    4.90999985    1.86000001
   10.99388885  343.18499756    4.90999985    1.96000004
   10.99694443  354.55398560    4.90999985    1.96000004
   11.00027752  354.36898804    4.90999985    1.96000004
   11.00361156  381.27398682    4.90999985    1.96000004
   11.00666714  336.63699341    4.90999985    1.98000002
   11.01305580  336.63699341    4.90999985    1.98000002
   11.01722240  376.92999268    4.90999985    1.98000002
   11.02055550  378.76501465    4.90999985    1.98000002
   11.02388859  363.69198608    4.90999985    1.98000002
   11.02611065  384.06298828    4.90999985    2.00000000
   11.02750015  387.29299927    4.90999985    2.00000000
   11.03083324  368.32400513    4.90999985    2.00000000
   11.03388977  376.02700806    4.90999985    1.98000002
   11.03722286  389.92401123    4.90999985    2.00000000
   11.04055595  394.78399658    4.90999985    2.00000000
   11.04361153  445.29699707    4.90999985    2.00000000
   11.04583359  390.93899536    4.90999985    2.00000000
   11.04694462  364.08599854    4.90999985    2.01999998
   11.04833412  426.63299561    4.90999985    2.00000000
   11.04972267  359.50399780    4.90999985    2.00000000
   11.05111122  405.31698608    4.90999985    2.00000000
   11.05249977  453.86700439    4.90999985    2.00000000
   11.05388927  406.02999878    4.90999985    2.00000000
   11.05527782  409.72799683    4.90999985    2.00000000
   11.05666733  387.26901245    4.90999985    2.01999998
   11.05805588  451.12100220    4.90999985    2.00000000
   11.05944443  477.31298828    4.90999985    2.01999998
   11.06083393  394.09600830    4.90999985    2.01999998
   11.06222248  393.39700317    4.90999985    2.01999998
   11.06361103  396.37799072    4.90999985    2.01999998
   11.06500053  404.95300293    4.90999985    2.01999998
   11.06638908  461.67800903    4.90999985    2.01999998
   11.06777763  408.40200806    4.90999985    2.01999998
   11.06944466  512.06402588    4.90999985    2.01999998
   11.07055569  384.90100098    4.90999985    2.01999998
   11.07194424  398.69699097    4.90999985    2.03999996
   11.07333374  523.56201172    4.90999985    2.03999996
   11.07472229  463.30200195    4.90999985    2.03999996
   11.07611084  350.95300293    4.90999985    2.03999996
   11.07750034  389.56399536    4.90999985    2.03999996
   11.07888889  369.35501099    4.90999985    2.03999996
   11.08027744  416.29098511    4.90999985    2.01999998
   11.08166695  330.12899780    4.90999985    2.03999996
   11.08194447  368.32400513    4.90999985    2.00000000
   11.08194447  376.02700806    4.90999985    1.98000002
   11.08194447  389.92401123    4.90999985    2.00000000
   11.08222198  394.78399658    4.90999985    2.00000000
   11.08222198  445.29699707    4.90999985    2.00000000
   11.08222198  376.92999268    4.90999985    1.98000002
   11.08249950  378.76501465    4.90999985    1.98000002
   11.08249950  363.69198608    4.90999985    1.98000002
   11.08249950  387.29299927    4.90999985    2.00000000
   11.08305550  363.95498657    4.90999985    2.03999996
   11.08638859  433.48599243    4.90999985    2.05999994
   11.08833313  469.74700928    4.90999985    2.03999996
   11.08972168  382.78799438    4.90999985    2.03999996
   11.09111118  459.10501099    4.90999985    2.03999996
   11.09249973  363.87100220    4.90999985    2.03999996
   11.09388828  387.23498535    4.90999985    2.03999996
   11.09527779  375.84899902    4.90999985    2.05999994
   11.09666634  364.41699219    4.90999985    2.05999994
   11.09805489  338.99899292    4.90999985    2.05999994
   11.09805489  363.95498657    4.90999985    2.03999996
   11.09833336  433.48599243    4.90999985    2.05999994
   11.09888840  334.47000122    4.90999985    2.05999994
   11.10194492  359.56201172    4.90999985    2.05999994
   11.10527802  376.93200684    4.90999985    2.05999994
   11.10861111  372.86801147    4.90999985    2.05999994
   11.11166668  392.07101440    4.90999985    2.05999994
   11.11500072  330.23001099    4.90999985    2.05999994
   11.11916637  330.23001099    4.90999985    2.07999992
   11.12333393  374.77999878    4.90999985    2.07999992
   11.12638855  324.97500610    4.90999985    2.07999992
   11.12972260  350.34899902    4.90999985    2.07999992
   11.13194466  278.58801270    4.90999985    2.07999992
   11.13333321  425.00698853    4.90999985    2.09999990
   11.13527775  325.84799194    4.90999985    2.09999990
   11.13527775  359.56201172    4.90999985    2.05999994
   11.13555527  376.93200684    4.90999985    2.05999994
   11.13555527  372.86801147    4.90999985    2.05999994
   11.13555527  392.07101440    4.90999985    2.05999994
   11.13583279  330.23001099    4.90999985    2.05999994
   11.13583279  374.77999878    4.90999985    2.07999992
   11.13583279  324.97500610    4.90999985    2.07999992
   11.13611126  350.34899902    4.90999985    2.07999992
   11.13805580  311.13000488    4.90999985    2.09999990
   11.14138889  300.05700684    4.90999985    2.07999992
   11.14444447  309.31600952    4.90999985    2.09999990
   11.14777756  349.09399414    4.90999985    2.09999990
   11.15083313  337.80300903    4.90999985    2.09999990
   11.15611076  337.80300903    4.90999985    2.09999990
   11.16027737  300.24700928    4.90999985    2.09999990
   11.16333294  312.32998657    4.90999985    2.09999990
   11.16666698  330.83200073    4.90999985    2.09999990
   11.16916656  303.16000366    4.90999985    2.09999990
   11.17055607  299.45599365    4.90999985    2.09999990
   11.17361164  323.94601440    4.90999985    2.09999990
   11.17694473  314.02999878    4.90999985    2.09999990
   11.18000031  298.26400757    4.90999985    2.09999990
   11.18333340  302.84298706    4.90999985    2.11999989
   11.18666649  282.28500366    4.90999985    2.11999989
   11.18972206  274.69799805    4.90999985    2.11999989
   11.19305515  321.23699951    4.90999985    2.11999989
   11.19888878  321.23699951    4.90999985    2.11999989
   11.20305538  288.72198486    4.90999985    2.13000011
   11.20638847  261.75000000    4.90999985    2.13000011
   11.20944405  297.05801392    4.90999985    2.13000011
   11.21277714  266.16400146    4.90999985    2.15000010
   11.21611118  239.30999756    4.90999985    2.15000010
   11.21944427  271.28601074    4.90999985    2.15000010
   11.22277737  284.60699463    4.90999985    2.17000008
   11.22611046  278.57901001    4.90999985    2.17000008
   11.22916603  257.66598511    4.90999985    2.15000010
   11.23249912  275.94299316    4.90999985    2.17000008
   11.23555565  268.02099609    4.90999985    2.17000008
   11.23611164  278.99600220    4.90999985    2.15000010
   11.24166679  278.99600220    4.90999985    2.17000008
   11.24583340  245.97099304    4.90999985    2.17000008
   11.24916649  241.61099243    4.90999985    2.19000006
   11.25249958  233.25199890    4.90999985    2.19000006
   11.25555515  246.19999695    4.90999985    2.19000006
   11.25888920  239.99499512    4.90999985    2.19000006
   11.26194477  245.00500488    4.90999985    2.19000006
   11.26527786  272.54598999    4.90999985    2.17000008
   11.26861095  226.97799683    4.90999985    2.21000004
   11.26944447  256.63101196    4.90999985    2.19000006
   11.27222157  261.51199341    4.90999985    2.19000006
   11.27555561  242.64900208    4.90999985    2.19000006
   11.27861118  245.76100159    4.90999985    2.19000006
   11.28472233  245.76100159    4.90999985    2.21000004
   11.28888893  242.62600708    4.90999985    2.21000004
   11.29194450  238.02499390    4.90999985    2.19000006
   11.29527855  249.61700439    4.90999985    2.19000006
   11.29833412  232.71299744    4.90999985    2.19000006
   11.30166721  235.46899414    4.90999985    2.17000008
   11.30277824  232.45700073    4.90999985    2.19000006
   11.30527782  242.12899780    4.90999985    2.19000006
   11.30861092  235.00000000    4.90999985    2.21000004
   11.31166649  219.22599792    4.90999985    2.19000006
   11.31500053  228.82499695    4.90999985    2.21000004
   11.31833363  234.10499573    4.90999985    2.21000004
   11.32138920  220.03599548    4.90999985    2.21000004
   11.32750034  220.03599548    4.90999985    2.21000004
   11.33166695  229.30499268    4.90999985    2.21000004
   11.33472157  225.35899353    4.90999985    2.23000002
   11.33611107  226.82600403    4.90999985    2.21000004
   11.33833313  240.27900696    4.90999985    2.21000004
   11.34166622  221.74299622    4.90999985    2.19000006
   11.34472179  222.93200684    4.90999985    2.21000004
   11.34805489  217.13299561    4.90999985    2.21000004
   11.35138893  220.15299988    4.90999985    2.21000004
   11.35444450  220.28100586    4.90999985    2.21000004
   11.35777855  218.57299805    4.90999985    2.21000004
   11.36083412  205.08299255    4.90999985    2.21000004
   11.36416721  205.42799377    4.90999985    2.23000002
   11.37027836  205.42799377    4.90999985    2.21000004
   11.37444496  213.81100464    4.90999985    2.23000002
   11.37777805  219.47799683    4.90999985    2.21000004
   11.38083363  215.39799500    4.90999985    2.21000004
   11.38416672  218.56399536    4.90999985    2.23000002
   11.38749981  214.79299927    4.90999985    2.21000004
   11.39055538  241.31399536    4.90999985    2.21000004
   11.39388847  226.05099487    4.90999985    2.21000004
   11.39694405  220.73300171    4.90999985    2.23000002
   11.40027714  224.27699280    4.90999985    2.21000004
   11.40277767  259.13900757    4.90999985    2.23000002
   11.40388870  240.53100586    4.90999985    2.23000002
   11.40722179  269.46899414    4.90999985    2.23000002
   11.41333294  269.46899414    4.90999985    2.23000002
   11.41722298  221.35499573    4.90999985    2.23000002
   11.42055607  221.92700195    4.90999985    2.25000000
   11.42388916  238.27699280    4.90999985    2.25000000
   11.42694473  230.06100464    4.90999985    2.25000000
   11.43027782  224.34199524    4.90999985    2.25000000
   11.43361092  214.69799805    4.90999985    2.25000000
   11.43611145  232.15499878    4.90999985    2.23000002
   11.43750000  223.31300354    4.90999985    2.25000000
   11.44083309  219.45100403    4.90999985    2.25000000
   11.44416714  213.45399475    4.90999985    2.25000000
   11.44722271  205.47900391    4.90999985    2.25000000
   11.45055580  223.22599792    4.90999985    2.25000000
   11.45611095  223.22599792    4.90999985    2.25000000
   11.46027756  211.50199890    4.90999985    2.25000000
   11.46333313  217.84300232    4.90999985    2.25000000
   11.46666622  227.59599304    4.90999985    2.25000000
   11.46944427  228.24000549    4.90999985    2.25000000
   11.47027779  229.84500122    4.90999985    2.25000000
   11.47361088  292.58801270    4.90999985    2.25000000
   11.47666645  341.61099243    4.90999985    2.25000000
   11.47999954  395.76199341    4.90999985    2.25000000
   11.48333359  372.30899048    4.90999985    2.26999998
   11.48638916  319.72198486    4.90999985    2.26999998
   11.48972225  301.08801270    4.90999985    2.26999998
   11.49277782  342.47601318    4.90999985    2.26999998
   11.49888897  342.47601318    4.90999985    2.26999998
   11.50305557  355.93099976    4.90999985    2.26999998
   11.50611115  297.86300659    4.90999985    2.26999998
   11.50944424  320.21099854    4.90999985    2.26999998
   11.51277733  337.15301514    4.90999985    2.28999996
   11.51583290  311.90301514    4.90999985    2.26999998
   11.51916599  286.59600830    4.90999985    2.26999998
   11.52250004  352.18099976    4.90999985    2.28999996
   11.52555561  310.05200195    4.90999985    2.28999996
   11.52888870  311.35598755    4.90999985    2.28999996
   11.53194427  268.67300415    4.90999985    2.28999996
   11.53527832  293.20599365    4.90999985    2.30999994
   11.53638935  279.81100464    4.90999985    2.30999994
   11.54166698  279.81100464    4.90999985    2.28999996
   11.54583359  237.30799866    4.90999985    2.30999994
   11.54916668  317.93899536    4.90999985    2.30999994
   11.55222225  276.49700928    4.90999985    2.30999994
   11.55555534  296.11401367    4.90999985    2.30999994
   11.55888939  289.98199463    4.90999985    2.30999994
   11.56194496  291.79299927    4.90999985    2.30999994
   11.56527805  286.59500122    4.90999985    2.30999994
   11.56861115  253.96299744    4.90999985    2.30999994
   11.56972218  258.78601074    4.90999985    2.30999994
   11.57222176  278.87500000    4.90999985    2.30999994
   11.57555580  233.21400452    4.90999985    2.30999994
   11.57861137  265.67599487    4.90999985    2.30999994
   11.58444405  265.67599487    4.90999985    2.28999996
   11.58861065  254.65699768    4.90999985    2.30999994
   11.59194374  248.38699341    4.90999985    2.30999994
   11.61027813  252.82400513    4.90999985    2.32999992
   11.61194515  214.55299377    4.90999985    2.32999992
   11.61500072  260.48901367    4.90999985    2.30999994
   11.61833382  281.57699585    4.90999985    2.32999992
   11.62138939  243.89900208    4.90999985    2.32999992
   11.62777805  243.89900208    4.90999985    2.32999992
   11.63166714  261.83999634    4.90999985    2.32999992
   11.63500023  230.75399780    4.90999985    2.32999992
   11.63833332  254.44500732    4.90999985    2.32999992
   11.64138889  226.59300232    4.90999985    2.34999990
   11.64361095  240.52099609    4.90999985    2.32999992
   11.64527798  253.38200378    4.90999985    2.32999992
   11.64833355  246.37699890    4.90999985    2.32999992
   11.65166664  269.97000122    4.90999985    2.34999990
   11.65472221  226.90699768    4.90999985    2.34999990
   11.65805531  248.58000183    4.90999985    2.34999990
   11.66138840  239.73699951    4.90999985    2.34999990
   11.66444397  260.69400024    4.90999985    2.34999990
   11.67055607  260.69400024    4.90999985    2.34999990
   11.67472267  225.54600525    4.90999985    2.34999990
   11.67694473  224.29200745    4.90999985    2.34999990
   11.67833328  273.23098755    4.90999985    2.34999990
   11.68138885  247.96299744    4.90999985    2.32999992
   11.68472195  265.16500854    4.90999985    2.32999992
   11.68805599  237.87600708    4.90999985    2.32999992
   11.69111156  261.91799927    4.90999985    2.32999992
   11.69444466  252.19599915    4.90999985    2.32999992
   11.69750023  226.41999817    4.90999985    2.32999992
   11.70083332  243.61300659    4.90999985    2.32999992
   11.70416641  226.27699280    4.90999985    2.32999992
   11.70722198  227.69000244    4.90999985    2.32999992
   11.71333313  227.69000244    4.90999985    2.34999990
   11.71749973  233.41900635    4.90999985    2.36999989
   11.72055531  227.42500305    4.90999985    2.36999989
   11.72388840  229.02499390    4.90999985    2.34999990
   11.72722149  212.74800110    4.90999985    2.36999989
   11.73055553  237.08900452    4.90999985    2.36999989
   11.73361111  222.94000244    4.90999985    2.36999989
   11.73694515  210.35400391    4.90999985    2.39000010
   11.74000072  209.04899597    4.90999985    2.39000010
   11.74333382  202.88099670    4.90999985    2.39000010
   11.74416733  211.79400635    4.90999985    2.36999989
   11.74694443  207.10099792    4.90999985    2.39000010
   11.75027752  209.12600708    4.90999985    2.39000010
   11.75611115  209.12600708    4.90999985    2.39000010
   11.76027775  195.19799805    4.90999985    2.36999989
   11.76361084  200.57099915    4.90999985    2.39000010
   11.76666641  219.58999634    4.90999985    2.36999989
   11.76999950  208.13600159    4.90999985    2.36999989
   11.77333355  208.05799866    4.90999985    2.36999989
   11.77638817  187.20100403    4.90999985    2.39000010
   11.77750015  205.38900757    4.90999985    2.36999989
   11.77999973  199.58599854    4.90999985    2.36999989
   11.78333378  199.39500427    4.90999985    2.36999989
   11.78638935  206.50500488    4.90999985    2.39000010
   11.78972244  208.15299988    4.90999985    2.39000010
   11.79277802  216.41000366    4.90999985    2.36999989
   11.79888916  216.41000366    4.90999985    2.39000010
   11.80305576  186.09100342    4.90999985    2.39000010
   11.80638885  199.68600464    4.90999985    2.39000010
   11.80972195  209.40600586    4.90999985    2.40000010
   11.81111145  186.09300232    4.90999985    2.39000010
   11.81333351  214.57299805    4.90999985    2.40000010
   11.81638908  194.60600281    4.90999985    2.39000010
   11.81972218  197.71499634    4.90999985    2.39000010
   11.82305527  195.99899292    4.90999985    2.40000010
   11.82611084  188.55200195    4.90999985    2.40000010
   11.82944393  187.42100525    4.90999985    2.40000010
   11.83277798  183.97799683    4.90999985    2.39000010
   11.83583260  189.20399475    4.90999985    2.40000010
   11.84194374  189.20399475    4.90999985    2.40000010
   11.84611034  177.76199341    4.90999985    2.40000010
   11.84916592  194.47999573    4.90999985    2.40000010
   11.85249996  183.77699280    4.90999985    2.40000010
   11.85555553  187.40699768    4.90999985    2.40000010
   11.85888958  188.22799683    4.90999985    2.40000010
   11.86222267  184.55599976    4.90999985    2.42000008
   11.86527824  185.54100037    4.90999985    2.42000008
   11.86861134  177.56199646    4.90999985    2.42000008
   11.87194443  185.29699707    4.90999985    2.42000008
   11.87500000  182.25799561    4.90999985    2.42000008
   11.87777805  182.44799805    4.90999985    2.42000008
   11.87888908  175.15499878    4.90999985    2.42000008
   11.88472176  175.15499878    4.90999985    2.42000008
   11.88888836  188.22500610    4.90999985    2.42000008
   11.89194393  192.58999634    4.90999985    2.42000008
   11.89527798  180.72099304    4.90999985    2.42000008
   11.89861107  179.56100464    4.90999985    2.42000008
   11.90166664  173.75199890    4.90999985    2.44000006
   11.90499973  188.03900146    4.90999985    2.44000006
   11.90833282  173.87100220    4.90999985    2.44000006
   11.91111088  188.21200562    4.90999985    2.42000008
   11.91194439  180.60699463    4.90999985    2.44000006
   11.91499996  180.26499939    4.90999985    2.44000006
   11.91833401  205.37199402    4.90999985    2.44000006
   11.92166710  239.44400024    4.90999985    2.44000006
   11.92750072  239.44400024    4.90999985    2.42000008
   11.93166733  207.64799500    4.90999985    2.44000006
   11.93500042  224.59100342    4.90999985    2.44000006
   11.93805599  212.75000000    4.90999985    2.44000006
   11.94138908  213.92100525    4.90999985    2.44000006
   11.94444466  189.43200684    4.90999985    2.44000006
   11.94499969  212.72399902    4.90999985    2.44000006
   11.94805527  202.39700317    4.90999985    2.44000006
   11.95138836  190.85899353    4.90999985    2.44000006
   11.95472240  197.89799500    4.90999985    2.44000006
   11.95777798  176.71499634    4.90999985    2.46000004
   11.96111107  180.27600098    4.90999985    2.44000006
   11.96416664  186.87899780    4.90999985    2.46000004
   11.97027779  186.87899780    4.90999985    2.46000004
   11.97444439  199.50100708    4.90999985    2.46000004
   11.97777748  183.42199707    4.90999985    2.46000004
   11.97833252  166.42700195    4.90999985    2.46000004
   11.98138809  184.60800171    4.90999985    2.44000006
   11.98472214  178.56900024    4.90999985    2.46000004
   11.98805618  203.18400574    4.90999985    2.44000006
   11.99111176  186.03500366    4.90999985    2.44000006
   11.99444485  176.40499878    4.90999985    2.44000006
   11.99750042  186.25599670    4.90999985    2.44000006
   12.00083351  200.24699402    4.90999985    2.44000006
   12.00416660  174.51600647    4.90999985    2.46000004
   12.00722218  178.55400085    4.90999985    2.46000004
   12.01333332  178.55400085    4.90999985    2.46000004
   12.01749992  176.69700623    4.90999985    2.46000004
   12.02055550  180.35000610    4.90999985    2.46000004
   12.02388859  174.01899719    4.90999985    2.46000004
   12.02694416  162.62399292    4.90999985    2.46000004
   12.03027725  166.74099731    4.90999985    2.46000004
   12.03361130  180.94400024    4.90999985    2.46000004
   12.03666687  174.46600342    4.90999985    2.46000004
   12.04000092  161.14700317    4.90999985    2.46000004
   12.04333401  186.18200684    4.90999985    2.46000004
   12.04444504  192.92500305    4.90999985    2.46000004
   12.04694462  185.96000671    4.90999985    2.46000004
   12.05000019  187.94400024    4.90999985    2.46000004
   12.05611134  187.94400024    4.90999985    2.46000004
   12.06027794  179.93099976    4.90999985    2.46000004
   12.06361103  180.37399292    4.90999985    2.46000004
   12.06666660  182.47099304    4.90999985    2.46000004
   12.06999969  190.98300171    4.90999985    2.46000004
   12.07305527  199.62100220    4.90999985    2.46000004
   12.07638836  172.83999634    4.90999985    2.46000004
   12.07777786  176.43699646    4.90999985    2.48000002
   12.07999992  215.38999939    4.90999985    2.46000004
   12.08305550  181.52400208    4.90999985    2.46000004
   12.08638859  186.16799927    4.90999985    2.46000004
   12.08972168  195.42399597    4.90999985    2.48000002
   12.09277725  173.66499329    4.90999985    2.48000002
   12.09888840  173.66499329    4.90999985    2.46000004
   12.10305595  197.66400146    4.90999985    2.46000004
   12.10638905  184.14300537    4.90999985    2.48000002
   12.10944462  199.08599854    4.90999985    2.48000002
   12.11138916  181.36399841    4.90999985    2.48000002
   12.11333370  169.96000671    4.90999985    2.48000002
   12.11638927  189.93400574    4.90999985    2.48000002
   12.11972237  190.61599731    4.90999985    2.50000000
   12.12277794  200.27000427    4.90999985    2.50000000
   12.12611103  196.91099548    4.90999985    2.48000002
   12.12944412  166.28799438    4.90999985    2.50000000
   12.13249969  196.88200378    4.90999985    2.48000002
   12.13583279  173.38600159    4.90999985    2.50000000
   12.14166641  173.38600159    4.90999985    2.50000000
   12.14583302  181.40400696    4.90999985    2.50000000
   12.14916611  206.57499695    4.90999985    2.50000000
   12.15249920  195.62899780    4.90999985    2.51999998
   12.15555477  177.42799377    4.90999985    2.50000000
   12.15888882  192.50900269    4.90999985    2.51999998
   12.16194439  177.25999451    4.90999985    2.48000002
   12.16527748  187.02799988    4.90999985    2.48000002
   12.16861153  188.25900269    4.90999985    2.48000002
   12.17166710  181.45700073    4.90999985    2.48000002
   12.17500019  173.89999390    4.90999985    2.48000002
   12.17805576  182.32800293    4.90999985    2.48000002
   12.17888927  193.15499878    4.90999985    2.48000002
   12.18472195  193.15499878    4.90999985    2.48000002
   12.18888855  185.16099548    4.90999985    2.48000002
   12.19194412  194.75100708    4.90999985    2.48000002
   12.19527817  188.05999756    4.90999985    2.48000002
   12.19833374  179.86099243    4.90999985    2.50000000
   12.20166683  173.70399475    4.90999985    2.50000000
   12.20499992  183.42900085    4.90999985    2.50000000
   12.20805550  190.47300720    4.90999985    2.46000004
   12.21138859  201.47999573    4.90999985    2.50000000
   12.21194458  186.66700745    4.90999985    2.50000000
   12.21500015  189.89199829    4.90999985    2.50000000
   12.21833324  192.27999878    4.90999985    2.50000000
   12.22138882  180.19799805    4.90999985    2.48000002
   12.22749996  180.19799805    4.90999985    2.50000000
   12.23166656  192.44700623    4.90999985    2.48000002
   12.23472214  185.12100220    4.90999985    2.50000000
   12.23805618  179.83599854    4.90999985    2.50000000
   12.24138927  180.09599304    4.90999985    2.50000000
   12.24444485  186.56500244    4.90999985    2.50000000
   12.24499989  179.68699646    4.90999985    2.50000000
   12.24833393  189.76300049    4.90999985    2.50000000
   12.25166702  173.18699646    4.90999985    2.50000000
   12.25472260  192.69400024    4.90999985    2.50000000
   12.25805569  178.67300415    4.90999985    2.50000000
   12.26111126  175.90600586    4.90999985    2.50000000
   12.26444435  183.71200562    4.90999985    2.51999998
   12.27027798  183.71200562    4.90999985    2.51999998
   12.27444458  201.13699341    4.90999985    2.51999998
   12.27777767  175.68400574    4.90999985    2.50000000
   12.27833271  184.13999939    4.90999985    2.51999998
   12.28138828  181.92100525    4.90999985    2.51999998
   12.28472233  172.42300415    4.90999985    2.51999998
   12.28777790  181.79400635    4.90999985    2.51999998
   12.29111195  178.83900452    4.90999985    2.50000000
   12.29416752  191.01100159    4.90999985    2.51999998
   12.29750061  195.08999634    4.90999985    2.51999998
   12.30083370  176.21200562    4.90999985    2.50000000
   12.30388927  186.88699341    4.90999985    2.51999998
   12.30722237  189.44999695    4.90999985    2.51999998
   12.31305599  189.44999695    4.90999985    2.51999998
   12.31722260  179.33299255    4.90999985    2.51999998
   12.32055569  176.88299561    4.90999985    2.53999996
   12.32388878  183.90199280    4.90999985    2.51999998
   12.32694435  188.52400208    4.90999985    2.53999996
   12.33027744  200.31300354    4.90999985    2.53999996
   12.33333302  178.03999329    4.90999985    2.51999998
   12.33666611  182.50199890    4.90999985    2.51999998
   12.34000015  171.86199951    4.90999985    2.51999998
   12.34305477  194.63800049    4.90999985    2.51999998
   12.34499931  191.53799438    4.90999985    2.51999998
   12.34694386  185.93600464    4.90999985    2.51999998
   12.35027790  181.08099365    4.90999985    2.51999998
   12.35611153  181.08099365    4.90999985    2.53999996
   12.36000061  180.36199951    4.90999985    2.51999998
   12.36333370  176.45500183    4.90999985    2.51999998
   12.36666679  177.22399902    4.90999985    2.53999996
   12.36972237  185.52299500    4.90999985    2.53999996
   12.37305546  188.11799622    4.90999985    2.53999996
   12.37638855  177.47500610    4.90999985    2.53999996
   12.37833309  205.46200562    4.90999985    2.53999996
   12.38000011  192.22099304    4.90999985    2.53999996
   12.38333321  187.64199829    4.90999985    2.55999994
   12.38638878  193.09899902    4.90999985    2.53999996
   12.38972187  183.09100342    4.90999985    2.53999996
   12.39277744  195.84399414    4.90999985    2.53999996
   12.39888859  195.84399414    4.90999985    2.53999996
   12.40305519  195.95100403    4.90999985    2.53999996
   12.40611076  182.88699341    4.90999985    2.53999996
   12.40944386  192.81900024    4.90999985    2.55999994
   12.41166592  196.99099731    4.90999985    2.53999996
   12.41305542  174.13299561    4.90999985    2.53999996
   12.41638851  179.79800415    4.90999985    2.53999996
   12.41944504  187.53700256    4.90999985    2.53999996
   12.42277813  177.42100525    4.90999985    2.53999996
   12.42583370  184.45100403    4.90999985    2.53999996
   12.42916679  173.81700134    4.90999985    2.53999996
   12.43249989  179.76899719    4.90999985    2.55999994
   12.43555546  160.77900696    4.90999985    2.53999996
   12.44166660  160.77900696    4.90999985    2.55999994
   12.44583321  174.84599304    4.90999985    2.55999994
   12.44916630  165.15400696    4.90999985    2.55999994
   12.45222187  174.67999268    4.90999985    2.55999994
   12.45555496  173.39300537    4.90999985    2.53999996
   12.45861053  195.48800659    4.90999985    2.55999994
   12.46194458  171.65299988    4.90999985    2.53999996
   12.46527767  181.99200439    4.90999985    2.55999994
   12.46833324  187.19999695    4.90999985    2.55999994
   12.47166634  165.63000488    4.90999985    2.55999994
   12.47499943  170.68299866    4.90999985    2.55999994
   12.47805500  166.34899902    4.90999985    2.55999994
   12.47861099  178.49099731    4.90999985    2.55999994
   12.48444462  178.49099731    4.90999985    2.55999994
   12.48861122  163.97500610    4.90999985    2.55999994
   12.49194431  167.39900208    4.90999985    2.55999994
   12.49499989  163.81199646    4.90999985    2.55999994
   12.49833393  168.25399780    4.90999985    2.55999994
   12.50166702  173.12199402    4.90999985    2.55999994
   12.50500011  179.02900696    4.90999985    2.55999994
   12.50805569  183.22700500    4.90999985    2.55999994
   12.51138878  169.66700745    4.90999985    2.57999992
   12.51194477  172.27499390    4.90999985    2.57999992
   12.51500034  157.86999512    4.90999985    2.59999990
   12.51805496  162.86500549    4.90999985    2.57999992
   12.52138901  179.66999817    4.90999985    2.57999992
   12.52750015  179.66999817    4.90999985    2.57999992
   12.53138828  176.22799683    4.90999985    2.57999992
   12.53472233  159.27000427    4.90999985    2.57999992
   12.53805637  158.83700562    4.90999985    2.57999992
   12.54111195  160.11799622    4.90999985    2.59999990
   12.54444504  172.38600159    4.90999985    2.57999992
   12.54527855  165.85400391    4.90999985    2.59999990
   12.54805565  162.90199280    4.90999985    2.59999990
   12.55111122  172.34700012    4.90999985    2.57999992
   12.55444431  158.63600159    4.90999985    2.57999992
   12.55777836  169.63299561    4.90999985    2.57999992
   12.56083393  166.72999573    4.90999985    2.57999992
   12.56416702  158.22999573    4.90999985    2.57999992
   12.57027817  158.22999573    4.90999985    2.57999992
   12.57444477  159.94500732    4.90999985    2.57999992
   12.57750034  157.48199463    4.90999985    2.59999990
   12.57861137  166.09100342    4.90999985    2.57999992
   12.58138847  165.02000427    4.90999985    2.59999990
   12.58444405  153.37600708    4.90999985    2.57999992
   12.58777714  173.05299377    4.90999985    2.59999990
   12.59111118  155.96299744    4.90999985    2.57999992
   12.59416676  159.57800293    4.90999985    2.57999992
   12.59749985  166.99899292    4.90999985    2.59999990
   12.60083389  164.16499329    4.90999985    2.59999990
   12.60388947  149.47300720    4.90999985    2.57999992
   12.60722256  166.13999939    4.90999985    2.59999990
   12.62750053   79.50389862    4.90999985    2.59999990
   12.62805557   94.07289886    4.90999985    2.59999990
   12.63138866  161.65699768    4.90999985    2.57999992
   12.63472176  168.34800720    4.90999985    2.57999992
   12.63777733  161.61399841    4.90999985    2.59999990
   12.64111137  152.49000549    4.90999985    2.59999990
   12.64416695  157.21200562    4.90999985    2.59999990
   12.64750004  155.00100708    4.90999985    2.59999990
   12.65083313  153.23500061    4.90999985    2.59999990
   12.65583324  153.23500061    4.90999985    2.59999990
   12.65999985  153.62600708    4.90999985    2.59999990
   12.66055489  159.83099365    4.90999985    2.61999989
   12.66361046  157.95899963    4.90999985    2.61999989
   12.66666698  157.52900696    4.90999985    2.61999989
   12.67000008  158.16400146    4.90999985    2.59999990
   12.67333412  167.92700195    4.90999985    2.59999990
   12.67638874  151.29699707    4.90999985    2.61999989
   12.67972279  152.80900574    4.90999985    2.61999989
   12.68305588  149.43499756    4.90999985    2.59999990
   12.68611145  161.68400574    4.90999985    2.61999989
   12.68944454  159.66099548    4.90999985    2.61999989
   12.69277763  162.94599915    4.90999985    2.61999989
   12.69388866  160.55799866    4.90999985    2.61999989
   12.69888878  160.55799866    4.90999985    2.59999990
   12.70277786  151.19999695    4.90999985    2.64000010
   12.70611095  175.27000427    4.90999985    2.61999989
   12.70944405  197.74200439    4.90999985    2.64000010
   12.71249962  168.05999756    4.90999985    2.64000010
   12.71583271  193.27999878    4.90999985    2.64000010
   12.71916580  159.66799927    4.90999985    2.64000010
   12.72222137  178.53900146    4.90999985    2.64000010
   12.72555542  188.78100586    4.90999985    2.64000010
   12.72722149  177.23500061    4.90999985    2.61999989
   12.72916603  164.20799255    4.90999985    2.64000010
   12.73222160  163.83599854    4.90999985    2.64000010
   12.73555565  150.70100403    4.90999985    2.64000010
   12.74166679  150.70100403    4.90999985    2.64000010
   12.74583340  162.52600098    4.90999985    2.64000010
   12.74888897  163.53999329    4.90999985    2.64000010
   12.75222206  170.08299255    4.90999985    2.64000010
   12.75555515  163.02600098    4.90999985    2.64000010
   12.75861073  148.07099915    4.90999985    2.61999989
   12.76055527  169.91099548    4.90999985    2.64000010
   12.76222229  174.72000122    4.90999985    2.64000010
   12.76527786  166.22999573    4.90999985    2.61999989
   12.76861095  160.90699768    4.90999985    2.61999989
   12.77194405  159.01899719    4.90999985    2.61999989
   12.77499962  161.36900330    4.90999985    2.61999989
   12.77833271  161.67999268    4.90999985    2.61999989
   12.78444481  161.67999268    4.90999985    2.61999989
   12.78861141  159.36300659    4.90999985    2.61999989
   12.79194450  155.15100098    4.90999985    2.61999989
   12.79388905  164.62300110    4.90999985    2.61999989
   12.79555607  156.57400513    4.90999985    2.61999989
   12.79888916  172.19999695    4.90999985    2.64000010
   12.80194473  175.23199463    4.90999985    2.64000010
   12.80527782  165.34700012    4.90999985    2.64000010
   12.80833340  157.31500244    4.90999985    2.64000010
   12.81166649  161.13400269    4.90999985    2.64000010
   12.81500053  171.16400146    4.90999985    2.64000010
   12.81805515  159.88400269    4.90999985    2.64000010
   12.82138920  151.77099609    4.90999985    2.64000010
   12.82722187  151.77099609    4.90999985    2.64000010
   12.83138847  162.60000610    4.90999985    2.64000010
   12.83472157  168.40899658    4.90999985    2.64000010
   12.83805561  165.77999878    4.90999985    2.64000010
   12.84111118  155.22099304    4.90999985    2.61999989
   12.84444427  168.36700439    4.90999985    2.61999989
   12.84777737  168.05299377    4.90999985    2.64000010
   12.85083389  166.69099426    4.90999985    2.64000010
   12.85416698  160.83399963    4.90999985    2.64000010
   12.85722256  157.47000122    4.90999985    2.61999989
   12.86055565  161.83299255    4.90999985    2.64000010
   12.86111164  172.37800598    4.90999985    2.64000010
   12.86444473  147.96699524    4.90999985    2.64000010
   12.87027836  147.96699524    4.90999985    2.61999989
   12.87416649  163.56599426    4.90999985    2.64000010
   12.87750053  158.20100403    4.90999985    2.64000010
   12.88083363  172.70199585    4.90999985    2.64000010
   12.88388920  157.83500671    4.90999985    2.64000010
   12.88722229  159.16400146    4.90999985    2.64000010
   12.89055538  158.27799988    4.90999985    2.64000010
   12.89361095  154.22300720    4.90999985    2.64000010
   12.89444447  152.70500183    4.90999985    2.64000010
   12.89750004  154.83399963    4.90999985    2.64000010
   12.90055561  150.46200562    4.90999985    2.64000010
   12.90388870  154.41299438    4.90999985    2.66000009
   12.90722179  158.32800293    4.90999985    2.64000010
   12.91305542  158.32800293    4.90999985    2.66000009
   12.91722298  152.95700073    4.90999985    2.61999989
   12.92027855  159.55900574    4.90999985    2.64000010
   12.92361164  158.63900757    4.90999985    2.64000010
   12.92694473  153.66999817    4.90999985    2.64000010
   12.92777824  156.05400085    4.90999985    2.64000010
   12.93055630  157.98500061    4.90999985    2.64000010
   12.93361092  167.14999390    4.90999985    2.64000010
   12.93694496  158.09300232    4.90999985    2.64000010
   12.94027805  157.18200684    4.90999985    2.64000010
   12.94333363  148.93400574    4.90999985    2.61999989
   12.94666672  152.94299316    4.90999985    2.66000009
   12.94999981  146.47300720    4.90999985    2.64000010
   12.95583344  146.47300720    4.90999985    2.64000010
   12.96000004  136.20399475    4.90999985    2.64000010
   12.96111107  156.27200317    4.90999985    2.64000010
   12.96361065  148.56900024    4.90999985    2.66000009
   12.96666622  168.55499268    4.90999985    2.66000009
   12.96999931  162.44200134    4.90999985    2.64000010
   12.97333336  166.43400574    4.90999985    2.64000010
   12.97638798  145.54800415    4.90999985    2.64000010
   12.97972202  155.91200256    4.90999985    2.64000010
   12.98277760  164.90699768    4.90999985    2.64000010
   12.98611164  159.79299927    4.90999985    2.64000010
   12.98944473  151.57600403    4.90999985    2.66000009
   12.99250031  151.44400024    4.90999985    2.66000009
   12.99444485  152.57699585    4.90999985    2.66000009
   12.99861145  152.57699585    4.90999985    2.66000009
   13.00277805  156.94500732    4.90999985    2.67000008
   13.00611115  161.87699890    4.90999985    2.66000009
   13.00916672  162.80000305    4.90999985    2.66000009
   13.01249981  155.19000244    4.90999985    2.66000009
   13.01583290  150.47999573    4.90999985    2.66000009
   13.01916599  154.48199463    4.90999985    2.64000010
   13.02222157  152.85299683    4.90999985    2.66000009
   13.02555561  150.75900269    4.90999985    2.66000009
   13.02777767  154.39300537    4.90999985    2.64000010
   13.02916622  149.58000183    4.90999985    2.66000009
   13.03222179  151.47000122    4.90999985    2.67000008
   13.03555584  156.94000244    4.90999985    2.67000008
   13.04166698  156.94000244    4.90999985    2.67000008
   13.04555607  149.64399719    4.90999985    2.67000008
   13.04888916  142.82099915    4.90999985    2.66000009
   13.05222225  145.84399414    4.90999985    2.66000009
   13.05527782  150.06300354    4.90999985    2.66000009
   13.05861092  144.73100281    4.90999985    2.66000009
   13.06111145  147.46699524    4.90999985    2.66000009
   13.06222248  161.01600647    4.90999985    2.66000009
   13.06527805  144.09800720    4.90999985    2.66000009
   13.06861115  146.41299438    4.90999985    2.67000008
   13.07194424  154.55999756    4.90999985    2.67000008
   13.07499981  145.26199341    4.90999985    2.67000008
   13.07833290  153.28399658    4.90999985    2.66000009
   13.08444405  153.28399658    4.90999985    2.67000008
   13.08861065  142.59100342    4.90999985    2.66000009
   13.09166622  136.01499939    4.90999985    2.66000009
   13.09444427  136.79499817    4.90999985    2.66000009
   13.09555531  141.74000549    4.90999985    2.67000008
   13.09861088  141.90199280    4.90999985    2.67000008
   13.10194492  147.11500549    4.90999985    2.66000009
   13.10527802  146.88499451    4.90999985    2.66000009
   13.10833359  143.20700073    4.90999985    2.67000008
   13.11166668  145.07600403    4.90999985    2.67000008
   13.11472225  147.46400452    4.90999985    2.67000008
   13.11805534  146.85600281    4.90999985    2.67000008
   13.12138939  162.07800293    4.90999985    2.67000008
   13.12722206  162.07800293    4.90999985    2.67000008
   13.13138866  143.30499268    4.90999985    2.67000008
   13.13472176  141.66499329    4.90999985    2.67000008
   13.13777733  153.63400269    4.90999985    2.67000008
   13.14111137  147.94599915    4.90999985    2.67000008
   13.14416695  147.72000122    4.90999985    2.69000006
   13.14750004  151.79100037    4.90999985    2.67000008
   13.15083313  144.87800598    4.90999985    2.67000008
   13.15388870  147.94900513    4.90999985    2.69000006
   13.15722179  147.72999573    4.90999985    2.67000008
   13.16055489  151.51600647    4.90999985    2.67000008
   13.16222191  152.83500671    4.90999985    2.67000008
   13.16416645  148.54299927    4.90999985    2.67000008
   13.17000008  148.54299927    4.90999985    2.66000009
   13.17416668  144.30000305    4.90999985    2.67000008
   13.17750072  160.71600342    4.90999985    2.67000008
   13.18055630  165.75999451    4.90999985    2.67000008
   13.18388939  161.32899475    4.90999985    2.66000009
   13.18722248  147.72700500    4.90999985    2.67000008
   13.19027805  148.18899536    4.90999985    2.66000009
   13.19361115  145.58299255    4.90999985    2.67000008
   13.19555569  158.46000671    4.90999985    2.67000008
   13.19722271  154.38299561    4.90999985    2.69000006
   13.20055580  150.69900513    4.90999985    2.67000008
   13.20361137  152.92999268    4.90999985    2.69000006
   13.20694447  148.90899658    4.90999985    2.67000008
   13.21305561  148.90899658    4.90999985    2.67000008
   13.21694374  151.94999695    4.90999985    2.67000008
   13.22027779  157.96699524    4.90999985    2.67000008
   13.22361088  159.60499573    4.90999985    2.67000008
   13.22666645  151.13299561    4.90999985    2.67000008
   13.22916603  158.81300354    4.90999985    2.67000008
   13.23055553  147.04100037    4.90999985    2.69000006
   13.23361111  151.18499756    4.90999985    2.69000006
   13.23694515  153.44799805    4.90999985    2.67000008
   13.24000072  153.55299377    4.90999985    2.69000006
   13.24333382  153.06700134    4.90999985    2.69000006
   13.24666691  152.53199768    4.90999985    2.69000006
   13.24972248  156.03700256    4.90999985    2.67000008
   13.25583363  156.03700256    4.90999985    2.67000008
   13.26000023  151.91200256    4.90999985    2.67000008
   13.26249981  151.04100037    4.90999985    2.67000008
   13.26361084  159.49499512    4.90999985    2.69000006
   13.26666641  150.67399597    4.90999985    2.67000008
   13.26999950  157.58200073    4.90999985    2.67000008
   13.27333355  146.34399414    4.90999985    2.67000008
   13.27638817  154.67900085    4.90999985    2.67000008
   13.27972221  150.30799866    4.90999985    2.67000008
   13.28277779  156.34599304    4.90999985    2.67000008
   13.28611183  158.82800293    4.90999985    2.67000008
   13.28944492  151.61099243    4.90999985    2.67000008
   13.29250050  150.16200256    4.90999985    2.67000008
   13.29861164  150.16200256    4.90999985    2.67000008
   13.30277824  162.50999451    4.90999985    2.67000008
   13.30611134  146.31399536    4.90999985    2.67000008
   13.30916691  154.02999878    4.90999985    2.69000006
   13.31250000  150.09100342    4.90999985    2.67000008
   13.31555557  146.09500122    4.90999985    2.69000006
   13.31888866  156.94500732    4.90999985    2.69000006
   13.32222176  152.99200439    4.90999985    2.69000006
   13.32527733  157.90600586    4.90999985    2.69000006
   13.32861137  163.85099792    4.90999985    2.67000008
   13.32944393  148.40299988    4.90999985    2.67000008
   13.33222198  154.54800415    4.90999985    2.69000006
   13.33555508  147.81700134    4.90999985    2.69000006
   13.34138870  147.81700134    4.90999985    2.69000006
   13.34555531  157.10000610    4.90999985    2.69000006
   13.34888840  151.79600525    4.90999985    2.67000008
   13.35222244  173.33799744    4.90999985    2.69000006
   13.35527802  146.92399597    4.90999985    2.69000006
   13.35861111  144.90100098    4.90999985    2.69000006
   13.36166668  164.43899536    4.90999985    2.69000006
   13.36277771  153.56799316    4.90999985    2.69000006
   13.36555576  145.55099487    4.90999985    2.69000006
   13.36888885  146.89399719    4.90999985    2.69000006
   13.37194443  142.10499573    4.90999985    2.69000006
   13.37527752  143.04100037    4.90999985    2.69000006
   13.37833309  142.52600098    4.90999985    2.69000006
   13.38444424  142.52600098    4.90999985    2.71000004
   13.38833332  161.48699951    4.90999985    2.71000004
   13.39166641  144.55400085    4.90999985    2.69000006
   13.39499950  152.25900269    4.90999985    2.69000006
   13.39638901  143.99299622    4.90999985    2.71000004
   13.39861107  150.63800049    4.90999985    2.69000006
   13.40166664  151.81599426    4.90999985    2.69000006
   13.40499973  156.52499390    4.90999985    2.71000004
   13.40833282  146.12899780    4.90999985    2.69000006
   13.41138840  151.44999695    4.90999985    2.69000006
   13.41472149  150.35699463    4.90999985    2.69000006
   13.41777802  152.33000183    4.90999985    2.69000006
   13.42111111  148.41900635    4.90999985    2.69000006
   13.42722225  148.41900635    4.90999985    2.69000006
   13.43138885  156.53300476    4.90999985    2.69000006
   13.43444443  154.26699829    4.90999985    2.69000006
   13.43777752  159.64599609    4.90999985    2.69000006
   13.44111156  152.78900146    4.90999985    2.71000004
   13.44416714  158.22599792    4.90999985    2.69000006
   13.44750023  152.58500671    4.90999985    2.71000004
   13.45055580  157.12800598    4.90999985    2.71000004
   13.45388889  164.53599548    4.90999985    2.71000004
   13.45722198  170.50000000    4.90999985    2.71000004
   13.57666683   -1.00000000   -1.00000000   -1.00000000
   13.67250061   -1.00000000   -1.00000000   -1.00000000
   13.77277756   -1.00000000   -1.00000000   -1.00000000
   13.80138874   78.87190247    4.90999985    2.75000000
   13.80472279  156.18899536    4.90999985    2.75000000
   13.80777836  164.92199707    4.90999985    2.75000000
   13.81111145  152.73899841    4.90999985    2.75000000
   13.81444454  153.65499878    4.90999985    2.75000000
   13.81777763  154.32200623    4.90999985    2.75000000
   13.82166672  154.32200623    4.90999985    2.75000000
   13.82583332  153.70300293    4.90999985    2.75000000
   13.82916641  151.21000671    4.90999985    2.75000000
   13.83249950  150.92500305    4.90999985    2.75000000
   13.83472157  149.39999390    4.90999985    2.75000000
   13.83611107  153.49600220    4.90999985    2.75000000
   13.83916664  153.32099915    4.90999985    2.75000000
   13.84249973  150.17900085    4.90999985    2.75000000
   13.84583282  143.49699402    4.90999985    2.73000002
   13.84888840  150.16600037    4.90999985    2.75000000
   13.85222244  145.61999512    4.90999985    2.75000000
   13.85555553  150.56199646    4.90999985    2.73000002
   13.85861111  151.79600525    4.90999985    2.75000000
   13.86472225  151.79600525    4.90999985    2.73000002
   13.86888885  147.66700745    4.90999985    2.75000000
   13.87194443  145.45100403    4.90999985    2.75000000
   13.87527752  145.82600403    4.90999985    2.73000002
   13.87833309  148.55499268    4.90999985    2.73000002
   13.88166714  154.77099609    4.90999985    2.73000002
   13.88500023  149.46400452    4.90999985    2.75000000
   13.88805580  142.59399414    4.90999985    2.73000002
   13.89138889  151.24400330    4.90999985    2.73000002
   13.89472198  146.21699524    4.90999985    2.73000002
   13.89777756  150.18899536    4.90999985    2.73000002
   13.90111065  156.46000671    4.90999985    2.75000000
   13.90166664  146.18600464    4.90999985    2.75000000
   13.90749931  146.18600464    4.90999985    2.75000000
   13.91166592  148.55700684    4.90999985    2.73000002
   13.91472149  158.80999756    4.90999985    2.73000002
   13.91805553  149.15899658    4.90999985    2.73000002
   13.92138958  144.35499573    4.90999985    2.73000002
   13.92444515  144.65899658    4.90999985    2.73000002
   13.92777824  143.02900696    4.90999985    2.73000002
   13.93111134  154.50599670    4.90999985    2.73000002
   13.93416691  146.16799927    4.90999985    2.73000002
   13.93500042  143.19099426    4.90999985    2.73000002
   13.93805599  155.66299438    4.90999985    2.73000002
   13.94111156  152.36700439    4.90999985    2.75000000
   13.94444466  143.20799255    4.90999985    2.73000002
   13.95027733  143.20799255    4.90999985    2.73000002
   13.95444393  147.81199646    4.90999985    2.75000000
   13.95777798  147.16400146    4.90999985    2.73000002
   13.96083355  143.17700195    4.90999985    2.73000002
   13.96416664  141.62399292    4.90999985    2.73000002
   13.96749973  155.01400757    4.90999985    2.73000002
   13.96833324  149.29400635    4.90999985    2.73000002
   13.97111034  151.89700317    4.90999985    2.73000002
   13.97416592  153.62600708    4.90999985    2.73000002
   13.97749996  145.32600403    4.90999985    2.73000002
   13.98083305  144.35200500    4.90999985    2.73000002
   13.98388958  135.00300598    4.90999985    2.75000000
   13.98722267  144.65100098    4.90999985    2.73000002
   13.99305534  144.65100098    4.90999985    2.73000002
   13.99722290  137.86199951    4.90999985    2.73000002
   14.00055599  141.24499512    4.90999985    2.73000002
   14.00166702  141.85699463    4.90999985    2.75000000
   14.00444412  141.61799622    4.90999985    2.73000002
   14.00749969  137.70599365    4.90999985    2.73000002
   14.01083374  143.32400513    4.90999985    2.75000000
   14.01388931  139.20599365    4.90999985    2.75000000
   14.01722240  134.88000488    4.90999985    2.75000000
   14.02055550  136.88699341    4.90999985    2.75000000
   14.02361107  147.40100098    4.90999985    2.75000000
   14.02694416  148.44799805    4.90999985    2.75000000
   14.03027725  135.16400146    4.90999985    2.75000000
   14.03611183  135.16400146    4.90999985    2.76999998
   14.04027843  141.94599915    4.90999985    2.76999998
   14.04333401  137.95899963    4.90999985    2.76999998
   14.04666710  138.66700745    4.90999985    2.75000000
   14.04972267  143.46200562    4.90999985    2.75000000
   14.05305576  137.43800354    4.90999985    2.75000000
   14.05638885  140.92300415    4.90999985    2.76999998
   14.05944443  139.07600403    4.90999985    2.76999998
   14.06277752  136.09899902    4.90999985    2.73000002
   14.06611156  143.91000366    4.90999985    2.76999998
   14.06833363  140.12399292    4.90999985    2.76999998
   14.06972218  139.93499756    4.90999985    2.78999996
   14.07277775  147.57800293    4.90999985    2.76999998
   14.07888889  147.57800293    4.90999985    2.76999998
   14.08305550  136.69500732    4.90999985    2.76999998
   14.08611107  142.65100098    4.90999985    2.78999996
   14.08944416  142.58999634    4.90999985    2.78999996
   14.09277725  142.48399353    4.90999985    2.78999996
   14.09583282  131.61599731    4.90999985    2.76999998
   14.09916592  133.50999451    4.90999985    2.76999998
   14.10166740  132.15199280    4.90999985    2.76999998
   14.10277843  131.22599792    4.90999985    2.78999996
   14.10583401  131.94799805    4.90999985    2.78999996
   14.10916710  138.84399414    4.90999985    2.76999998
   14.11222267  133.64900208    4.90999985    2.75000000
   14.11555576  141.45399475    4.90999985    2.76999998
   14.12166691  141.45399475    4.90999985    2.78999996
   14.12583351  135.91499329    4.90999985    2.76999998
   14.12916660  135.10000610    4.90999985    2.76999998
   14.13222218  149.92100525    4.90999985    2.76999998
   14.13500023  139.57600403    4.90999985    2.76999998
   14.13611126  143.91400146    4.90999985    2.76999998
   14.13916683  137.59800720    4.90999985    2.76999998
   14.14249992  145.68499756    4.90999985    2.76999998
   14.14583302  139.49899292    4.90999985    2.76999998
   14.14888859  133.19400024    4.90999985    2.76999998
   14.15222168  140.54699707    4.90999985    2.76999998
   14.15527725  144.50700378    4.90999985    2.78999996
   14.15861034  143.56199646    4.90999985    2.78999996
   14.16472149  143.56199646    4.90999985    2.76999998
   14.16861153  149.53100586    4.90999985    2.76999998
   14.17194462  146.56700134    4.90999985    2.75000000
   14.17527771  133.79299927    4.90999985    2.76999998
   14.17833328  141.54600525    4.90999985    2.76999998
   14.18166733  142.13800049    4.90999985    2.76999998
   14.18500042  135.08299255    4.90999985    2.76999998
   14.18805599  132.97300720    4.90999985    2.75000000
   14.19138908  145.52000427    4.90999985    2.75000000
   14.19444466  147.82099915    4.90999985    2.75000000
   14.19777775  146.10000610    4.90999985    2.75000000
   14.20111084  138.80200195    4.90999985    2.75000000
   14.20166683  139.56599426    4.90999985    2.75000000
   14.20749950  139.56599426    4.90999985    2.75000000
   14.21166611  146.94999695    4.90999985    2.73000002
   14.21472168  143.22099304    4.90999985    2.75000000
   14.21805477  147.01699829    4.90999985    2.76999998
   14.22111034  141.50399780    4.90999985    2.75000000
   14.22444439  141.49699402    4.90999985    2.75000000
   14.22777748  148.66299438    4.90999985    2.75000000
   14.23083305  142.52400208    4.90999985    2.75000000
   14.23416710  150.38299561    4.90999985    2.75000000
   14.23500061  142.21400452    4.90999985    2.75000000
   14.23777771  145.08900452    4.90999985    2.75000000
   14.24083328  145.55799866    4.90999985    2.75000000
   14.24416733  147.08799744    4.90999985    2.76999998
   14.25027752  147.08799744    4.90999985    2.75000000
   14.25444412  142.42799377    4.90999985    2.75000000
   14.25749969  147.06399536    4.90999985    2.73000002
   14.26083374  146.57000732    4.90999985    2.75000000
   14.26416683  141.69900513    4.90999985    2.75000000
   14.26722240  143.51499939    4.90999985    2.75000000
   14.26833344  156.41499329    4.90999985    2.75000000
   14.27111053  175.54400635    4.90999985    2.75000000
   14.27416611  169.91400146    4.90999985    2.75000000
   14.27750015  169.73899841    4.90999985    2.73000002
   14.28083324  172.30400085    4.90999985    2.75000000
   14.28388977  175.63299561    4.90999985    2.75000000
   14.28722286  177.26400757    4.90999985    2.75000000
   14.29305553  177.26400757    4.90999985    2.75000000
   14.29722309  153.19000244    4.90999985    2.75000000
   14.30055618  164.46299744    4.90999985    2.75000000
   14.30166721  160.08500671    4.90999985    2.75000000
   14.30416679  166.83599854    4.90999985    2.73000002
   14.30722237  166.66400146    4.90999985    2.73000002
   14.31055546  159.63200378    4.90999985    2.73000002
   14.31388950  160.48399353    4.90999985    2.73000002
   14.31694412  162.69599915    4.90999985    2.73000002
   14.32027817  154.91299438    4.90999985    2.73000002
   14.32333374  149.63600159    4.90999985    2.75000000
   14.32666683  143.27799988    4.90999985    2.75000000
   14.32999992  150.35000610    4.90999985    2.75000000
   14.33583260  150.35000610    4.90999985    2.71000004
   14.34000015  153.38000488    4.90999985    2.71000004
   14.34333324  155.86199951    4.90999985    2.71000004
   14.34666634  157.15499878    4.90999985    2.73000002
   14.34972191  147.13999939    4.90999985    2.69000006
   14.35305595  145.34300232    4.90999985    2.71000004
   14.35611153  142.00999451    4.90999985    2.71000004
   14.35944462  144.98300171    4.90999985    2.69000006
   14.36277771  152.28999329    4.90999985    2.69000006
   14.36583328  143.50700378    4.90999985    2.71000004
   14.36833382  150.17700195    4.90999985    2.69000006
   14.36972237  143.33799744    4.90999985    2.71000004
   14.37277794  152.74200439    4.90999985    2.71000004
   14.37888908  152.74200439    4.90999985    2.71000004
   14.38305569  148.19599915    4.90999985    2.71000004
   14.38611126  145.94999695    4.90999985    2.71000004
   14.38944435  148.62800598    4.90999985    2.71000004
   14.39249992  148.38800049    4.90999985    2.71000004
   14.39583302  149.63600159    4.90999985    2.71000004
   14.39916611  144.10099792    4.90999985    2.73000002
   14.40166664  146.82200623    4.90999985    2.73000002
   14.40277767  151.17399597    4.90999985    2.73000002
   14.40583324  142.81300354    4.90999985    2.73000002
   14.40916634  147.07600403    4.90999985    2.75000000
   14.41249943  142.51699829    4.90999985    2.73000002
   14.41555500  149.77600098    4.90999985    2.75000000
   14.42166710  149.77600098    4.90999985    2.76999998
   14.42583370  149.64300537    4.90999985    2.73000002
   14.42888927  162.73699951    4.90999985    2.73000002
   14.43222237  162.39100647    4.90999985    2.73000002
   14.43500042  156.32400513    4.90999985    2.73000002
   14.43583298  150.13499451    4.90999985    2.71000004
   14.43888855  131.55599976    4.90999985    2.73000002
   14.44222260  151.76699829    4.90999985    2.73000002
   14.44555569  160.61799622    4.90999985    2.73000002
   14.44861126  157.62100220    4.90999985    2.73000002
   14.45194435  173.05299377    4.90999985    2.73000002
   14.45527744  171.41600037    4.90999985    2.73000002
   14.45833302  159.90699768    4.90999985    2.71000004
   14.46444416  159.90699768    4.90999985    2.73000002
   14.46861076  171.18899536    4.90999985    2.71000004
   14.47194386  152.19700623    4.90999985    2.73000002
   14.47499943  151.14799500    4.90999985    2.73000002
   14.47833252  161.80099487    4.90999985    2.75000000
   14.48166656  164.24200439    4.90999985    2.73000002
   14.48472214  147.63400269    4.90999985    2.73000002
   14.48805618  149.14599609    4.90999985    2.73000002
   14.49138927  154.75599670    4.90999985    2.73000002
   14.49444485  168.57499695    4.90999985    2.73000002
   14.49777794  190.46099854    4.90999985    2.71000004
   14.50083351  155.99400330    4.90999985    2.71000004
   14.50166702  169.07499695    4.90999985    2.71000004
   14.50722218  169.07499695    4.90999985    2.71000004
   14.51138878  174.02900696    4.90999985    2.71000004
   14.51472187  187.04899597    4.90999985    2.71000004
   14.51805496  219.13400269    4.90999985    2.71000004
   14.52111053  177.58500671    4.90999985    2.73000002
   14.52444458  193.93299866    4.90999985    2.71000004
   14.52750015  210.04699707    4.90999985    2.73000002
   14.53083324  221.88099670    4.90999985    2.71000004
   14.53416729  217.72500610    4.90999985    2.73000002
   14.53500080  205.75300598    4.90999985    2.73000002
   14.53777790  211.91900635    4.90999985    2.73000002
   14.54083347  176.46000671    4.90999985    2.73000002
   14.54416752  180.41600037    4.90999985    2.71000004
   14.55027771  180.41600037    4.90999985    2.73000002
   14.55444431  201.39300537    4.90999985    2.73000002
   14.55749989  207.77200317    4.90999985    2.71000004
   14.56083393  219.13699341    4.90999985    2.73000002
   14.56388950  212.77000427    4.90999985    2.73000002
   14.56722260  193.64500427    4.90999985    2.73000002
   14.56833363  199.23199463    4.90999985    2.73000002
   14.57083321  221.59300232    4.90999985    2.75000000
   14.57388878  183.73199463    4.90999985    2.73000002
   14.57722187  153.45100403    4.90999985    2.75000000
   14.58055592  170.91099548    4.90999985    2.75000000
   14.58361053  194.80000305    4.90999985    2.75000000
   14.58694458  172.94299316    4.90999985    2.75000000
   14.59305477  172.94299316    4.90999985    2.73000002
   14.59722233  179.97999573    4.90999985    2.75000000
   14.60027790  177.45700073    4.90999985    2.75000000
   14.60166740  187.91099548    4.90999985    2.73000002
   14.60416698  175.06199646    4.90999985    2.75000000
   14.60750008  185.65100098    4.90999985    2.75000000
   14.61055565  167.96299744    4.90999985    2.75000000
   14.61388969  191.69200134    4.90999985    2.73000002
   14.61694431  164.57200623    4.90999985    2.75000000
   14.62027836  169.39500427    4.90999985    2.75000000
   14.62361145  171.37800598    4.90999985    2.75000000
   14.62666702  183.26699829    4.90999985    2.75000000
   14.63000011  180.39900208    4.90999985    2.75000000
   14.63583279  180.39900208    4.90999985    2.73000002
   14.64000034  183.32000732    4.90999985    2.73000002
   14.64333344  195.57499695    4.90999985    2.73000002
   14.64638901  176.78799438    4.90999985    2.75000000
   14.64972210  189.45100403    4.90999985    2.75000000
   14.65305519  178.32299805    4.90999985    2.75000000
   14.65611076  192.75599670    4.90999985    2.73000002
   14.65944386  192.61099243    4.90999985    2.73000002
   14.66277695  196.75399780    4.90999985    2.73000002
   14.66583252  183.48699951    4.90999985    2.73000002
   14.66833401  175.47399902    4.90999985    2.73000002
   14.66972256  174.39100647    4.90999985    2.73000002
   14.67305565  179.05599976    4.90999985    2.73000002
   14.67861176  179.05599976    4.90999985    2.76999998
   14.68277836  184.17799377    4.90999985    2.75000000
   14.68611145  190.35899353    4.90999985    2.73000002
   14.68944454  178.50700378    4.90999985    2.73000002
   14.69250011  168.60099792    4.90999985    2.73000002
   14.69583321  182.34700012    4.90999985    2.73000002
   14.69888878  181.11599731    4.90999985    2.75000000
   14.70166683  179.61300659    4.90999985    2.75000000
   14.70277786  182.47000122    4.90999985    2.76999998
   14.70611095  181.90800476    4.90999985    2.75000000
   14.70916653  185.88299561    4.90999985    2.75000000
   14.71249962  167.31300354    4.90999985    2.75000000
   14.71555519  175.41700745    4.90999985    2.76999998
   14.72166634  175.41700745    4.90999985    2.75000000
   14.72583294  161.24699402    4.90999985    2.73000002
   14.72888851  159.49800110    4.90999985    2.73000002
   14.73222160  167.34899902    4.90999985    2.76999998
   14.73500061  171.44500732    4.90999985    2.75000000
   14.73583317  164.43400574    4.90999985    2.75000000
   14.73916721  168.17300415    4.90999985    2.75000000
   14.74222279  164.26100159    4.90999985    2.76999998
   14.74555588  174.78999329    4.90999985    2.76999998
   14.74861145  176.62399292    4.90999985    2.76999998
   14.75194454  163.00799561    4.90999985    2.75000000
   14.75527763  154.42399597    4.90999985    2.75000000
   14.75833321  168.30099487    4.90999985    2.76999998
   14.76444435  168.30099487    4.90999985    2.71000004
   14.76861095  165.70700073    4.90999985    2.75000000
   14.77166653  171.63999939    4.90999985    2.71000004
   14.77499962  176.99600220    4.90999985    2.71000004
   14.77833271  167.61000061    4.90999985    2.71000004
   14.78138828  160.14300537    4.90999985    2.69000006
   14.78472233  165.08700562    4.90999985    2.71000004
   14.78805637  163.28500366    4.90999985    2.71000004
   14.79111195  166.16700745    4.90999985    2.69000006
   14.79444504  172.77799988    4.90999985    2.71000004
   14.79750061  149.52400208    4.90999985    2.73000002
   14.80083370  166.52499390    4.90999985    2.71000004
   14.80166721  161.92700195    4.90999985    2.73000002
   14.82250023  161.92700195    4.90999985    2.73000002
   14.82666683  155.65400696    4.90999985    2.75000000
   14.82972240  148.20199585    4.90999985    2.75000000
   14.83305550  140.85299683    4.90999985    2.73000002
   14.83500004  131.43499756    4.90999985    2.73000002
   14.83666611  143.48500061    4.90999985    2.73000002
   14.84000015  134.99800110    4.90999985    2.73000002
   14.84305477  145.22599792    4.90999985    2.71000004
   14.84638882  142.96299744    4.90999985    2.73000002
   14.84972191  150.68800354    4.90999985    2.73000002
   14.85277843  148.57899475    4.90999985    2.73000002
   14.85611153  143.06599426    4.90999985    2.73000002
   14.85916710  141.35299683    4.90999985    2.75000000
   14.86527824  141.35299683    4.90999985    2.75000000
   14.86944485  142.57800293    4.90999985    2.73000002
   14.87250042  147.95500183    4.90999985    2.73000002
   14.87583351  137.06700134    4.90999985    2.73000002
   14.87916660  138.38099670    4.90999985    2.73000002
   14.88222218  133.26400757    4.90999985    2.73000002
   14.88555527  136.08500671    4.90999985    2.73000002
   14.88861084  137.51100159    4.90999985    2.73000002
   14.89194393  138.55099487    4.90999985    2.71000004
   14.89527798  133.89700317    4.90999985    2.75000000
   14.89833355  138.71899414    4.90999985    2.71000004
   14.90166664  119.26200104    4.90999985    2.71000004
   14.90222168  127.77500153    4.90999985    2.71000004
   14.90805531  127.77500153    4.90999985    2.71000004
   14.91222191  128.96499634    4.90999985    2.71000004
   14.91555500  136.41600037    4.90999985    2.71000004
   14.91861153  138.44200134    4.90999985    2.71000004
   14.92194462  141.50599670    4.90999985    2.73000002
   14.92500019  152.20300293    4.90999985    2.73000002
   14.92833328  137.10899353    4.90999985    2.71000004
   14.93166733  138.19999695    4.90999985    2.71000004
   14.93472195  135.65199280    4.90999985    2.71000004
   14.93555546  138.47999573    4.90999985    2.71000004
   14.93861103  137.15899658    4.90999985    2.69000006
   14.94166660  142.72799683    4.90999985    2.71000004
   14.94499969  135.40899658    4.90999985    2.71000004
   14.95083332  135.40899658    4.90999985    2.73000002
   14.95499992  131.98699951    4.90999985    2.71000004
   14.95833302  129.40499878    4.90999985    2.73000002
   14.96138859  143.91799927    4.90999985    2.73000002
   14.96472168  126.76000214    4.90999985    2.73000002
   14.96805477  131.37100220    4.90999985    2.73000002
   14.96888828  127.66500092    4.90999985    2.73000002
   14.97166634  131.24299622    4.90999985    2.73000002
   14.97472191  133.72500610    4.90999985    2.73000002
   14.97805500  134.78599548    4.90999985    2.75000000
   14.98111057  134.14900208    4.90999985    2.75000000
   14.98444462  125.16799927    4.90999985    2.75000000
   14.98777771  127.36399841    4.90999985    2.73000002
   14.99388885  127.36399841    4.90999985    2.76999998
   14.99777794  131.00500488    4.90999985    2.76999998
   15.00111103  129.23800659    4.90999985    2.75000000
   15.00222206  124.85099792    4.90999985    2.75000000
   15.00472260  123.02300262    4.90999985    2.75000000
   15.00777817  127.27999878    4.90999985    2.75000000
   15.01111126  127.29399872    4.90999985    2.76999998
   15.01416683  129.20500183    4.90999985    2.76999998
   15.01749992  134.57600403    4.90999985    2.78999996
   15.02083302  134.40699768    4.90999985    2.78999996
   15.02388859  127.73600006    4.90999985    2.78999996
   15.02722168  132.07299805    4.90999985    2.80999994
   15.03055573  132.39700317    4.90999985    2.78999996
   15.03666687  132.39700317    4.90999985    2.80999994
   15.04083347  124.16999817    4.90999985    2.80999994
   15.04388905  117.56400299    4.90999985    2.82999992
   15.04722309  141.87600708    4.90999985    2.80999994
   15.05055618  134.55599976    4.90999985    2.80999994
   15.05361176  133.14199829    4.90999985    2.82999992
   15.05694485  121.47599792    4.90999985    2.82999992
   15.06000042  125.52500153    4.90999985    2.82999992
   15.06333351  127.33599854    4.90999985    2.82999992
   15.06666660  126.66999817    4.90999985    2.80999994
   15.06888866  136.17900085    4.90999985    2.82999992
   15.07027817  129.11999512    4.90999985    2.82999992
   15.07333374  123.64700317    4.90999985    2.82999992
   15.07944393  123.64700317    4.90999985    2.80999994
   15.08361053  124.89099884    4.90999985    2.82999992
   15.08666611  125.43099976    4.90999985    2.80999994
   15.09000015  135.18200684    4.90999985    2.80999994
   15.09333324  138.47799683    4.90999985    2.82999992
   15.09638882  123.56400299    4.90999985    2.84999990
   15.09972191  127.40699768    4.90999985    2.82999992
   15.10222244  130.54800415    4.90999985    2.82999992
   15.10333347  120.89499664    4.90999985    2.82999992
   15.10638905  140.91000366    4.90999985    2.82999992
   15.10972214  133.36900330    4.90999985    2.82999992
   15.11277771  127.51499939    4.90999985    2.82999992
   15.11611176  135.48899841    4.90999985    2.80999994
   15.12222195  135.48899841    4.90999985    2.82999992
   15.12638855  131.77499390    4.90999985    2.80999994
   15.12972260  129.27999878    4.90999985    2.80999994
   15.13277817  123.30999756    4.90999985    2.80999994
   15.13555527  125.36000061    4.90999985    2.82999992
   15.13666630  133.59399414    4.90999985    2.82999992
   15.13972187  146.37500000    4.90999985    2.82999992
   15.14305496  128.70500183    4.90999985    2.82999992
   15.14611053  139.73300171    4.90999985    2.80999994
   15.14944458  127.54399872    4.90999985    2.80999994
   15.15277767  129.26600647    4.90999985    2.80999994
   15.15611076  126.17800140    4.90999985    2.80999994
   15.15916634  132.92399597    4.90999985    2.82999992
   15.16527748  132.92399597    4.90999985    2.82999992
   15.16916656  158.93800354    4.90999985    2.82999992
   15.17250061  133.05999756    4.90999985    2.82999992
   15.17583370  123.49400330    4.90999985    2.82999992
   15.17888927  140.63000488    4.90999985    2.82999992
   15.18222237  133.64599609    4.90999985    2.80999994
   15.18527794  140.03100586    4.90999985    2.80999994
   15.18861103  121.99199677    4.90999985    2.80999994
   15.19194412  131.59399414    4.90999985    2.82999992
   15.19499969  126.78700256    4.90999985    2.82999992
   15.19833374  127.27100372    4.90999985    2.80999994
   15.20166683  152.91099548    4.90999985    2.80999994
   15.20222187  152.75300598    4.90999985    2.80999994
   15.20805550  152.75300598    4.90999985    2.80999994
   15.21222210  157.55299377    4.90999985    2.82999992
   15.21527767  119.44200134    4.90999985    2.80999994
   15.21861076  158.82800293    4.90999985    2.80999994
   15.22166634  161.74299622    4.90999985    2.78999996
   15.22499943  157.72000122    4.90999985    2.78999996
   15.22833252  149.32499695    4.90999985    2.78999996
   15.23138809  157.75399780    4.90999985    2.80999994
   15.23472214  163.10099792    4.90999985    2.80999994
   15.23555565  159.91000366    4.90999985    2.80999994
   15.23833370  143.62600708    4.90999985    2.80999994
   15.24138927  135.70199585    4.90999985    2.80999994
   15.24472237  139.71099854    4.90999985    2.80999994
   15.25083351  139.71099854    4.90999985    2.78999996
   15.25527763  135.65100098    4.90999985    2.80999994
   15.25861073  141.48500061    4.90999985    2.80999994
   15.26166630  129.66400146    4.90999985    2.78999996
   15.26500034  141.66600037    4.90999985    2.80999994
   15.26805496  129.62500000    4.90999985    2.78999996
   15.26888847  122.02400208    4.90999985    2.82999992
   15.27194405  147.45899963    4.90999985    2.80999994
   15.27499962  143.31300354    4.90999985    2.80999994
   15.27833271  136.30000305    4.90999985    2.80999994
   15.28166676  132.86599731    4.90999985    2.80999994
   15.28472233  124.13600159    4.90999985    2.82999992
   15.28805637  123.90299988    4.90999985    2.80999994
   15.29361153  123.90299988    4.90999985    2.80999994
   15.29777813  148.25199890    4.90999985    2.80999994
   15.30111122  132.56799316    4.90999985    2.78999996
   15.30222225  147.17500305    4.90999985    2.80999994
   15.30472279  136.26899719    4.90999985    2.80999994
   15.30777836  132.59300232    4.90999985    2.78999996
   15.31111145  135.94200134    4.90999985    2.80999994
   15.31444454  140.13099670    4.90999985    2.80999994
   15.31750011  130.41400146    4.90999985    2.80999994
   15.32083321  132.23399353    4.90999985    2.82999992
   15.32416630  122.19300079    4.90999985    2.80999994
   15.32722187  150.73100281    4.90999985    2.80999994
   15.33055592  139.83399963    4.90999985    2.80999994
   15.33638859  139.83399963    4.90999985    2.80999994
   15.34055519  131.73300171    4.90999985    2.80999994
   15.34388828  123.44899750    4.90999985    2.80999994
   15.34722233  130.08599854    4.90999985    2.80999994
   15.35027790  120.95300293    4.90999985    2.80999994
   15.35361195  121.12799835    4.90999985    2.80999994
   15.35666752  130.70700073    4.90999985    2.80999994
   15.36000061  131.72099304    4.90999985    2.80999994
   15.36333370  128.36099243    4.90999985    2.80999994
   15.36638927  138.56900024    4.90999985    2.80999994
   15.36888885  140.82200623    4.90999985    2.80999994
   15.37027836  119.60399628    4.90999985    2.80999994
   15.37333393  119.63800049    4.90999985    2.80999994
   15.37944412  119.63800049    4.90999985    2.80999994
   15.38361073  123.54399872    4.90999985    2.80999994
   15.38666630  121.68000031    4.90999985    2.78999996
   15.39000034  128.27000427    4.90999985    2.78999996
   15.39305496  118.21499634    4.90999985    2.78999996
   15.39638901  121.16300201    4.90999985    2.78999996
   15.39972210  127.81099701    4.90999985    2.78999996
   15.40222168  131.03500366    4.90999985    2.78999996
   15.40333271  123.57399750    4.90999985    2.78999996
   15.40666676  134.40699768    4.90999985    2.76999998
   15.40972137  122.53199768    4.90999985    2.76999998
   15.41305542  129.47500610    4.90999985    2.76999998
   15.41611099  127.83899689    4.90999985    2.78999996
   15.42222214  127.83899689    4.90999985    2.75000000
   15.42638874  126.34999847    4.90999985    2.76999998
   15.42944431  126.25299835    4.90999985    2.75000000
   15.43277836  132.97900391    4.90999985    2.75000000
   15.43555546  121.34400177    4.90999985    2.75000000
   15.43638897  125.39800262    4.90999985    2.75000000
   15.43944454  121.06700134    4.90999985    2.76999998
   15.44277763  126.13999939    4.90999985    2.76999998
   15.44611073  125.37100220    4.90999985    2.76999998
   15.44916630  131.64799500    4.90999985    2.76999998
   15.45249939  129.66600037    4.90999985    2.76999998
   15.45555496  133.30499268    4.90999985    2.76999998
   15.45888901  136.49800110    4.90999985    2.75000000
   15.46500015  136.49800110    4.90999985    2.76999998
   15.46916580  127.89299774    4.90999985    2.76999998
   15.47249985  132.75500488    4.90999985    2.75000000
   15.47555542  142.71400452    4.90999985    2.75000000
   15.47888851  141.88600159    4.90999985    2.76999998
   15.48222160  131.30499268    4.90999985    2.76999998
   15.48527813  132.01400757    4.90999985    2.76999998
   15.48861122  131.24600220    4.90999985    2.76999998
   15.49166679  121.50800323    4.90999985    2.78999996
   15.49499989  133.82800293    4.90999985    2.78999996
   15.49833393  135.33000183    4.90999985    2.76999998
   15.50138855  127.65100098    4.90999985    2.76999998
   15.50222206  126.62400055    4.90999985    2.76999998
   15.50777817  126.62400055    4.90999985    2.76999998
   15.51194477  129.12600708    4.90999985    2.76999998
   15.51527786  130.68099976    4.90999985    2.76999998
   15.51861095  131.28599548    4.90999985    2.76999998
   15.52166653  134.77799988    4.90999985    2.75000000
   15.52499962  135.23599243    4.90999985    2.76999998
   15.52805519  134.67399597    4.90999985    2.76999998
   15.53138828  127.91200256    4.90999985    2.78999996
   15.53472233  131.53399658    4.90999985    2.78999996
   15.53555584  125.03299713    4.90999985    2.76999998
   15.53833389  122.02799988    4.90999985    2.78999996
   15.54138947  119.59600067    4.90999985    2.78999996
   15.54472256  127.58399963    4.90999985    2.78999996
   15.55083370  127.58399963    4.90999985    2.80999994
   15.55500031  124.70099640    4.90999985    2.78999996
   15.55805588  128.16200256    4.90999985    2.80999994
   15.56138897  136.11799622    4.90999985    2.80999994
   15.56444454  132.95199585    4.90999985    2.78999996
   15.56777763  136.65400696    4.90999985    2.78999996
   15.56888866  126.45899963    4.90999985    2.80999994
   15.57138920  140.04100037    4.90999985    2.78999996
   15.57444477  126.10700226    4.90999985    2.80999994
   15.57777786  142.19500732    4.90999985    2.80999994
   15.58111095  137.47799683    4.90999985    2.80999994
   15.58416653  122.70200348    4.90999985    2.80999994
   15.58749962  130.14799500    4.90999985    2.80999994
   15.59361076  130.14799500    4.90999985    2.80999994
   15.59777737  137.32400513    4.90999985    2.78999996
   15.60083389  132.93400574    4.90999985    2.78999996
   15.60222244  139.44099426    4.90999985    2.80999994
   15.60472298  137.76400757    4.90999985    2.80999994
   15.60777855  132.63000488    4.90999985    2.78999996
   15.61111164  128.36199951    4.90999985    2.80999994
   15.61444473  133.35899353    4.90999985    2.80999994
   15.61750031  138.98599243    4.90999985    2.80999994
   15.62083340  135.04400635    4.90999985    2.80999994
   15.62416649  133.46400452    4.90999985    2.80999994
   15.62722206  144.63499451    4.90999985    2.80999994
   15.63055611  142.03799438    4.90999985    2.80999994
   15.63638878  142.03799438    4.90999985    2.80999994
   15.64055538  128.49899292    4.90999985    2.80999994
   15.64388847  130.53900146    4.90999985    2.82999992
   15.64694405  138.12100220    4.90999985    2.80999994
   15.65027714  137.61900330    4.90999985    2.78999996
   15.65361118  126.54199982    4.90999985    2.80999994
   15.65666676  118.80400085    4.90999985    2.80999994
   15.65999985  139.35899353    4.90999985    2.80999994
   15.66333294  156.80000305    4.90999985    2.80999994
   15.66638851  136.60499573    4.90999985    2.80999994
   15.66888905  133.67100525    4.90999985    2.80999994
   15.67000008  132.50999451    4.90999985    2.80999994
   15.67333412  119.04399872    4.90999985    2.80999994
   15.67916679  119.04399872    4.90999985    2.80999994
   15.68333340  123.86399841    4.90999985    2.80999994
   15.68666649  126.50299835    4.90999985    2.78999996
   15.69000053  129.12399292    4.90999985    2.80999994
   15.69305515  135.69099426    4.90999985    2.78999996
   15.69638920  142.06599426    4.90999985    2.78999996
   15.69944477  126.68699646    4.90999985    2.80999994
   15.70222187  134.43200684    4.90999985    2.80999994
   15.70333290  138.03199768    4.90999985    2.78999996
   15.70666695  151.74699402    4.90999985    2.78999996
   15.70972157  142.69299316    4.90999985    2.78999996
   15.71305561  133.72300720    4.90999985    2.80999994
   15.71611118  127.89900208    4.90999985    2.80999994
   15.72222137  127.89900208    4.90999985    2.80999994
   15.72638798  145.92500305    4.90999985    2.80999994
   15.72944355  136.42599487    4.90999985    2.78999996
   15.73277760  137.05999756    4.90999985    2.80999994
   15.73555565  138.23100281    4.90999985    2.80999994
   15.73638916  124.84700012    4.90999985    2.80999994
   15.73972225  130.68099976    4.90999985    2.82999992
   15.74277782  132.88800049    4.90999985    2.82999992
   15.74611092  133.37600708    4.90999985    2.80999994
   15.74916649  140.90899658    4.90999985    2.80999994
   15.75249958  142.45700073    4.90999985    2.80999994
   15.75583363  132.74200439    4.90999985    2.80999994
   15.75888920  129.84700012    4.90999985    2.80999994
   15.76500034  129.84700012    4.90999985    2.80999994
   15.76916599  139.51699829    4.90999985    2.82999992
   15.77222157  118.25199890    4.90999985    2.80999994
   15.77555561  128.21699524    4.90999985    2.82999992
   15.77888870  139.27299500    4.90999985    2.80999994
   15.78194427  134.27799988    4.90999985    2.80999994
   15.78527832  127.19200134    4.90999985    2.80999994
   15.78861141  128.87399292    4.90999985    2.80999994
   15.79166698  125.68299866    4.90999985    2.80999994
   15.79500008  124.30400085    4.90999985    2.80999994
   15.79805565  121.66600037    4.90999985    2.82999992
   15.80138874  115.64800262    4.90999985    2.82999992
   15.80222225  123.20500183    4.90999985    2.82999992
   15.80777836  123.20500183    4.90999985    2.82999992
   15.81194496  128.01499939    4.90999985    2.82999992
   15.81527805  126.32299805    4.90999985    2.80999994
   15.81833363  138.50900269    4.90999985    2.80999994
   15.83611107  127.36100006    4.90999985    2.82999992
   15.83833313  136.61000061    4.90999985    2.82999992
   15.84166622  125.55599976    4.90999985    2.82999992
   15.84499931  128.24899292    4.90999985    2.80999994
   15.85083389  128.24899292    4.90999985    2.80999994
   15.85500050  129.60099792    4.90999985    2.82999992
   15.85833359  124.38099670    4.90999985    2.82999992
   15.86138916  133.92399597    4.90999985    2.82999992
   15.86472225  130.94999695    4.90999985    2.82999992
   15.86777782  126.24600220    4.90999985    2.82999992
   15.86916637  134.56700134    4.90999985    2.82999992
   15.87166691  129.25999451    4.90999985    2.82999992
   15.87500000  131.52600098    4.90999985    2.82999992
   15.87805557  129.46600342    4.90999985    2.82999992
   15.88138866  124.43399811    4.90999985    2.84999990
   15.88472176  128.28999329    4.90999985    2.82999992
   15.88777733  124.84500122    4.90999985    2.84999990
   15.89361095  124.84500122    4.90999985    2.82999992
   15.89777756  127.92299652    4.90999985    2.82999992
   15.90111065  118.22799683    4.90999985    2.84999990
   15.90249920  125.68099976    4.90999985    2.82999992
   15.90472221  122.18900299    4.90999985    2.84999990
   15.90805531  131.18499756    4.90999985    2.82999992
   15.91111088  111.84300232    4.90999985    2.82999992
   15.91444397  112.13099670    4.90999985    2.84999990
   15.91777802  124.91400146    4.90999985    2.82999992
   15.92083359  128.72300720    4.90999985    2.82999992
   15.92416668  119.14800262    4.90999985    2.84999990
   15.92750072  131.74699402    4.90999985    2.84999990
   15.93055630  118.56800079    4.90999985    2.84999990
   15.93666649  118.56800079    4.90999985    2.84999990
   15.94055557  123.95200348    4.90999985    2.84999990
   15.94388866  115.90799713    4.90999985    2.86999989
   15.94722271  126.14099884    4.90999985    2.82999992
   15.95027733  123.44499969    4.90999985    2.82999992
   15.95361137  128.81599426    4.90999985    2.84999990
   15.95694447  122.96499634    4.90999985    2.84999990
   15.96000004  127.44499969    4.90999985    2.84999990
   15.96333313  128.32499695    4.90999985    2.82999992
   15.96638870  120.03399658    4.90999985    2.82999992
   15.96916580  125.14399719    4.90999985    2.84999990
   15.97027779  130.49499512    4.90999985    2.84999990
   15.97361088  128.03100586    4.90999985    2.84999990
   15.97944355  128.03100586    4.90999985    2.82999992
   15.98361111  118.55300140    4.90999985    2.84999990
   15.98666668  124.16899872    4.90999985    2.84999990
   15.99000072  121.28800201    4.90999985    2.82999992
   15.99333382  123.31300354    4.90999985    2.80999994
   15.99638939  126.41799927    4.90999985    2.80999994
   15.99972248  119.03500366    4.90999985    2.80999994
   16.00250053  125.79900360    4.90999985    2.80999994
   16.00333405  120.13999939    4.90999985    2.80999994
   16.00666618  123.63600159    4.90999985    2.82999992
   16.00972176  122.11100006    4.90999985    2.80999994
   16.01305580  127.06099701    4.90999985    2.82999992
   16.01638794  130.01800537    4.90999985    2.80999994
   16.02222252  130.01800537    4.90999985    2.80999994
   16.02638817  121.85399628    4.90999985    2.82999992
   16.02972221  127.47200012    4.90999985    2.82999992
   16.03277779  119.95600128    4.90999985    2.80999994
   16.03583336  119.91899872    4.90999985    2.82999992
   16.03638840  132.33500671    4.90999985    2.82999992
   16.03972244  127.64600372    4.90999985    2.82999992
   16.04277802  130.53799438    4.90999985    2.80999994
   16.04611015  130.50500488    4.90999985    2.80999994
   16.04944420  132.31199646    4.90999985    2.80999994
   16.05249977  131.17100525    4.90999985    2.82999992
   16.05583191  137.65400696    4.90999985    2.82999992
   16.05888748  129.73399353    4.90999985    2.80999994
   16.06499863  129.73399353    4.90999985    2.80999994
   16.06916809  127.28600311    4.90999985    2.80999994
   16.06972313  129.33599854    4.90999985    2.80999994
   16.07305717  122.98799896    4.90999985    2.80999994
   16.07611275  125.96099854    4.90999985    2.80999994
   16.07944489  123.21399689    4.90999985    2.80999994
   16.08277893  128.72999573    4.90999985    2.80999994
   16.08583450  115.68699646    4.90999985    2.80999994
   16.08916664  123.35600281    4.90999985    2.80999994
   16.09250069  118.64700317    4.90999985    2.82999992
   16.09555626  119.86599731    4.90999985    2.80999994
   16.09889030  128.41999817    4.90999985    2.80999994
   16.10194397  131.38400269    4.90999985    2.80999994
   16.10250092  131.76400757    4.90999985    2.80999994
   16.10805511  131.76400757    4.90999985    2.80999994
   16.11194420  129.96600342    4.90999985    2.78999996
   16.11527824  139.35800171    4.90999985    2.80999994
   16.11861038  127.67500305    4.90999985    2.80999994
   16.12166595  131.18899536    4.90999985    2.80999994
   16.12500000  116.56300354    4.90999985    2.78999996
   16.12833405  121.63899994    4.90999985    2.82999992
   16.13138962  128.55799866    4.90999985    2.80999994
   16.13472176  134.26100159    4.90999985    2.80999994
   16.13583374  129.24800110    4.90999985    2.78999996
   16.13833237  128.76600647    4.90999985    2.80999994
   16.14166641  133.02299500    4.90999985    2.80999994
   16.14472198  132.80999756    4.90999985    2.80999994
   16.15083313  132.80999756    4.90999985    2.82999992
   16.15499878  126.80300140    4.90999985    2.80999994
   16.15805435  140.26800537    4.90999985    2.80999994
   16.16138840  130.70799255    4.90999985    2.82999992
   16.16472244  139.05999756    4.90999985    2.82999992
   16.16777802  126.96900177    4.90999985    2.82999992
   16.16916656  126.82399750    4.90999985    2.80999994
   16.17138863  137.21499634    4.90999985    2.82999992
   16.17472076  123.25800323    4.90999985    2.82999992
   16.17777634  129.72000122    4.90999985    2.84999990
   16.18111038  126.80000305    4.90999985    2.84999990
   16.18444443  121.17199707    4.90999985    2.84999990
   16.18750000  122.05899811    4.90999985    2.84999990
   16.19361115  122.05899811    4.90999985    2.84999990
   16.19777679  129.32000732    4.90999985    2.84999990
   16.20111275  125.50399780    4.90999985    2.84999990
   16.20277786  125.35700226    4.90999985    2.84999990
   16.20472336  133.46600342    4.90999985    2.84999990
   16.20805550  125.28900146    4.90999985    2.84999990
   16.21111107  135.72399902    4.90999985    2.86999989
   16.21444511  129.89300537    4.90999985    2.84999990
   16.21777916  131.86000061    4.90999985    2.82999992
   16.22083473  127.91100311    4.90999985    2.84999990
   16.22416687  130.39599609    4.90999985    2.84999990
   16.22750092  122.96800232    4.90999985    2.84999990
   16.23055649  111.87899780    4.90999985    2.82999992
   16.23638916  111.87899780    4.90999985    2.82999992
   16.24055672  124.76799774    4.90999985    2.82999992
   16.24388885  129.45500183    4.90999985    2.82999992
   16.24694443  132.66900635    4.90999985    2.82999992
   16.25027847  127.15100098    4.90999985    2.82999992
   16.25361061  129.89199829    4.90999985    2.82999992
   16.25666618  138.08099365    4.90999985    2.82999992
   16.26000023  136.26600647    4.90999985    2.82999992
   16.26333427  140.69099426    4.90999985    2.84999990
   16.26638794  136.89100647    4.90999985    2.82999992
   16.26944351  133.43800354    4.90999985    2.84999990
   16.27000046  132.26600647    4.90999985    2.84999990
   16.27333260  127.47000122    4.90999985    2.82999992
   16.27944374  127.47000122    4.90999985    2.82999992
   16.28333282  130.29499817    4.90999985    2.82999992
   16.28666687  132.24099731    4.90999985    2.84999990
   16.28999901  134.96499634    4.90999985    2.82999992
   16.29305458  138.47599792    4.90999985    2.82999992
   16.29638863  133.56599426    4.90999985    2.84999990
   16.29972076  137.18299866    4.90999985    2.84999990
   16.30277634  129.68600464    4.90999985    2.82999992
   16.30305481  129.91200256    4.90999985    2.82999992
   16.30638885  131.50000000    4.90999985    2.80999994
   16.30944443  144.00000000    4.90999985    2.82999992
   16.31277657  145.41900635    4.90999985    2.80999994
   16.31611061  141.32099915    4.90999985    2.82999992
   16.32222366  141.32099915    4.90999985    2.80999994
   16.32638931  145.67999268    4.90999985    2.82999992
   16.32944489  141.62699890    4.90999985    2.82999992
   16.33277893  146.55599976    4.90999985    2.80999994
   16.33611107  146.56900024    4.90999985    2.82999992
   16.33638954  141.30400085    4.90999985    2.82999992
   16.33972359  149.54400635    4.90999985    2.80999994
   16.34277916  142.64399719    4.90999985    2.82999992
   16.34611130  139.38900757    4.90999985    2.80999994
   16.34944534  138.71299744    4.90999985    2.82999992
   16.35250092  135.93499756    4.90999985    2.80999994
   16.35583305  148.25399780    4.90999985    2.80999994
   16.35916710  156.96000671    4.90999985    2.78999996
   16.36499977  156.96000671    4.90999985    2.78999996
   16.36916733  150.75300598    4.90999985    2.78999996
   16.36972237  143.24200439    4.90999985    2.78999996
   16.37305641  157.91999817    4.90999985    2.80999994
   16.37611198  155.22500610    4.90999985    2.80999994
   16.37944412  142.59199524    4.90999985    2.78999996
   16.38249969  148.54600525    4.90999985    2.78999996
   16.38583374  175.57899475    4.90999985    2.76999998
   16.38916588  145.79899597    4.90999985    2.78999996
   16.39222145  146.42100525    4.90999985    2.78999996
   16.39555550  146.35299683    4.90999985    2.76999998
   16.39888954  168.11700439    4.90999985    2.75000000
   16.40194321  146.86000061    4.90999985    2.76999998
   16.40305519  142.17399597    4.90999985    2.78999996
   16.40777779  142.17399597    4.90999985    2.78999996
   16.41194344  143.34100342    4.90999985    2.76999998
   16.41527748  144.25199890    4.90999985    2.76999998
   16.41833305  134.20700073    4.90999985    2.78999996
   16.42166519  132.55400085    4.90999985    2.76999998
   16.42499924  124.03500366    4.90999985    2.78999996
   16.42833328  144.41799927    4.90999985    2.78999996
   16.43138885  153.26100159    4.90999985    2.78999996
   16.43472099  143.62300110    4.90999985    2.76999998
   16.43638802  155.37899780    4.90999985    2.78999996
   16.43833160  244.55400085    4.90999985    2.73000002
   16.44138718  188.12600708    4.90999985    2.11999989
   16.44472122  366.00299072    4.90999985    2.05999994
   16.45083427  366.00299072    4.90999985    2.59999990
   16.45472336  151.33099365    4.90999985    2.67000008
   16.45805550  139.22500610    4.90999985    2.76999998
   16.46138954  149.27200317    4.90999985    2.76999998
   16.46444511  173.14100647    4.90999985    2.66000009
   16.46777916  165.70300293    4.90999985    2.42000008
   16.46972275  148.56100464    4.90999985    2.51999998
   16.47166634  150.24899292    4.90999985    2.53999996
   16.47472191  182.08000183    4.90999985    2.46000004
   16.47805595  188.48899841    4.90999985    2.48000002
   16.48111153  152.60600281    4.90999985    2.34999990
   16.48444557  151.82600403    4.90999985    2.57999992
   16.48777771  139.92199707    4.90999985    2.75000000
   16.49361229  139.92199707    4.90999985    2.46000004
   16.49777794  181.84100342    4.90999985    2.44000006
   16.50083351  112.09400177    4.90999985    2.28999996
   16.50305557  295.23699951    4.90999985    2.03999996
   16.50472260  239.51600647    4.90999985    2.26999998
   16.50777817  303.58401489    4.90999985    2.17000008
   16.51111031  228.73199463    4.90999985    2.23000002
   16.51416588  206.17399597    4.90999985    2.34999990
   16.51749992  166.66099548    4.90999985    2.39000010
   16.52083397  169.86999512    4.90999985    2.64000010
   16.52388954  174.25999451    4.90999985    2.57999992
   16.52722168  143.55000305    4.90999985    2.39000010
   16.53055573  129.49000549    4.90999985    2.75000000
   16.53638840  129.49000549    4.90999985    2.66000009
   16.54055595  144.37899780    4.90999985    2.59999990
   16.54361153  142.60800171    4.90999985    2.69000006
   16.54694366  138.24899292    4.90999985    2.73000002
   16.55027771  140.30999756    4.90999985    2.69000006
   16.55333328  133.85400391    4.90999985    2.71000004
   16.55666542  127.13500214    4.90999985    2.73000002
   16.55999947  130.11099243    4.90999985    2.75000000
   16.56305504  129.09399414    4.90999985    2.75000000
   16.56638718  131.46200562    4.90999985    2.76999998
   16.56944466  128.94000244    4.90999985    2.75000000
   16.57139015  134.30900574    4.90999985    2.76999998
   16.57333374  139.61199951    4.90999985    2.78999996
   16.57916832  139.61199951    4.90999985    2.78999996
   16.58333397  133.01699829    4.90999985    2.78999996
   16.58666801  132.48899841    4.90999985    2.78999996
   16.58972359  123.93800354    4.90999985    2.76999998
   16.59305573  141.30799866    4.90999985    2.76999998
   16.59638977  133.57000732    4.90999985    2.76999998
   16.59944534  137.80400085    4.90999985    2.78999996
   16.60277748  152.85600281    4.90999985    2.76999998
   16.60472298  127.75399780    4.90999985    2.78999996
   16.60639000  132.80099487    4.90999985    2.76999998
   16.60944557  132.45399475    4.90999985    2.78999996
   16.61277771  143.62100220    4.90999985    2.78999996
   16.61611176  135.39199829    4.90999985    2.78999996
   16.62194443  135.39199829    4.90999985    2.78999996
   16.62611198  150.21499634    4.90999985    2.76999998
   16.62944412  140.02200317    4.90999985    2.78999996
   16.63277817  127.57599640    4.90999985    2.78999996
   16.63583374  132.17700195    4.90999985    2.78999996
   16.63833237  150.24699402    4.90999985    2.80999994
   16.63972282  127.48500061    4.90999985    2.80999994
   16.64277840  142.80299377    4.90999985    2.80999994
   16.64611053  140.07899475    4.90999985    2.80999994
   16.64916611  118.93800354    4.90999985    2.82999992
   16.65250015  129.33900452    4.90999985    2.80999994
   16.65583229  135.56599426    4.90999985    2.78999996
   16.65888786  126.73600006    4.90999985    2.80999994
   16.66499901  126.73600006    4.90999985    2.80999994
   16.66916656  122.85600281    4.90999985    2.82999992
   16.67166519  121.75299835    4.90999985    2.82999992
   16.67277718  114.42400360    4.90999985    2.80999994
   16.67583275  121.30999756    4.90999985    2.82999992
   16.67916679  129.78900146    4.90999985    2.80999994
   16.68222237  140.64300537    4.90999985    2.82999992
   16.68555450  135.05200195    4.90999985    2.82999992
   16.68888855  124.97399902    4.90999985    2.82999992
   16.69194412  147.36999512    4.90999985    2.84999990
   16.69527626  119.05999756    4.90999985    2.82999992
   16.69861031  117.44899750    4.90999985    2.82999992
   16.70166779  122.55300140    4.90999985    2.80999994
   16.70777893  122.55300140    4.90999985    2.84999990
   16.71194458  121.11900330    4.90999985    2.82999992
   16.71500015  122.72599792    4.90999985    2.82999992
   16.71833420  129.48800659    4.90999985    2.84999990
   16.72166634  117.62799835    4.90999985    2.82999992
   16.72472191  124.97799683    4.90999985    2.82999992
   16.72805595  125.71600342    4.90999985    2.82999992
   16.73139000  125.12899780    4.90999985    2.82999992
   16.73444557  127.75000000    4.90999985    2.84999990
   16.73777771  122.36299896    4.90999985    2.82999992
   16.73861122  122.08999634    4.90999985    2.82999992
   16.74138832  122.75099945    4.90999985    2.84999990
   16.74444389  125.12999725    4.90999985    2.89000010
   16.75472260   -1.00000000    4.90999985    0.52999997
   16.75777817   -1.00000000    4.90999985    0.23000000
   16.76111031   -1.00000000    4.90999985    0.38000000
   16.76416588   -1.00000000    4.90999985    0.34000000
   16.76749992  210.20700073    4.90999985    2.28999996
   16.77083397  185.17799377    4.90999985    2.44000006
   16.77194405  153.19000244    4.90999985    2.46000004
   16.77444458  133.02200317    4.90999985    2.55999994
   16.77750015  164.27999878    4.90999985    2.51999998
   16.78083229  125.64099884    4.90999985    2.57999992
   16.78416634  140.64199829    4.90999985    2.59999990
   16.78722191  169.53199768    4.90999985    2.48000002
   16.79333305  169.53199768    4.90999985    2.44000006
   16.79749870  168.12399292    4.90999985    2.25000000
   16.80083275  166.34399414    4.90999985    2.46000004
   16.80388832  137.30999756    4.90999985    2.61999989
   16.80555534  139.53399658    4.90999985    2.53999996
   16.80777740  134.39599609    4.90999985    2.78999996
   16.81083298  206.87800598    4.90999985    2.80999994
   16.81416512  131.19900513    4.90999985    2.66000009
   16.81722260   -1.00000000    4.90999985    2.13000011
   16.82055664  233.48500061    4.90999985    1.58000004
   16.82361221  238.63200378    4.90999985    1.71000004
   16.82694626  203.69900513    4.90999985    2.69000006
   16.83027840   -1.00000000    4.90999985    1.96000004
   16.85472298   -1.00000000    4.90999985    0.15000001
   16.85777855   -1.00000000    4.90999985    0.58999997
   16.86111069   -1.00000000    4.90999985    0.28000000
   16.86416626  145.78300476    4.90999985    0.94000000
   16.86750031  134.00599670    4.90999985    2.94000006
   16.87083435   76.16120148    4.90999985    1.30999994
   16.87388992  130.96499634    4.90999985    1.60000002
   16.87944412  130.96499634    4.90999985    2.84999990
   16.88333321  148.80000305    4.90999985    2.76999998
   16.88666725  120.68399811    4.90999985    2.75000000
   16.88777733  119.07299805    4.90999985    2.82999992
   16.89027786  122.06999969    4.90999985    2.82999992
   16.89361191  131.03500366    4.90999985    2.82999992
   16.89694405  123.33699799    4.90999985    2.84999990
   16.89999962  124.69000244    4.90999985    2.82999992
   16.90333366  151.91700745    4.90999985    2.82999992
   16.90666580  155.49600220    4.90999985    2.84999990
   16.90972137  151.07099915    4.90999985    2.84999990
   16.91305542  136.48599243    4.90999985    2.84999990
   16.91611099  131.68200684    4.90999985    2.84999990
   16.92222214  131.68200684    4.90999985    2.84999990
   16.92638779  141.12399292    4.90999985    2.86999989
   16.92944336  144.95199585    4.90999985    2.84999990
   16.93277740  136.72099304    4.90999985    2.86999989
   16.93610954  135.65499878    4.90999985    2.84999990
   16.93916512  126.94599915    4.90999985    2.84999990
   16.94249916  127.54499817    4.90999985    2.82999992
   16.94555473  154.72200012    4.90999985    2.82999992
   16.94888878  128.64300537    4.90999985    2.82999992
   16.95222282  138.83500671    4.90999985    2.80999994
   16.95444489  136.56100464    4.90999985    2.80999994
   16.95583344  134.61999512    4.90999985    2.78999996
   16.95916748  125.67900085    4.90999985    2.80999994
   16.96500015  125.67900085    4.90999985    2.76999998
   16.96916771  136.64500427    4.90999985    2.73000002
   16.97249985  131.79499817    4.90999985    2.75000000
   16.97555542  139.05000305    4.90999985    2.78999996
   16.97888947  136.65499878    4.90999985    2.80999994
   16.98222351  137.82000732    4.90999985    2.82999992
   16.98527718  139.63299561    4.90999985    2.82999992
   16.98777771  122.22699738    4.90999985    2.82999992
   16.98888969  115.90000153    4.90999985    2.82999992
   16.99222183  121.13999939    4.90999985    2.84999990
   16.99555588  116.91999817    4.90999985    2.84999990
   16.99861145  121.34899902    4.90999985    2.84999990
   17.00194359  124.68299866    4.90999985    2.86999989
   17.00777817  124.68299866    4.90999985    2.86999989
   17.01194382  119.33399963    4.90999985    2.84999990
   17.01527786  123.75299835    4.90999985    2.86999989
   17.01833344  116.93000031    4.90999985    2.86999989
   17.02111053  126.69799805    4.90999985    2.89000010
   17.02194405  118.76799774    4.90999985    2.86999989
   17.02527809  116.29299927    4.90999985    2.86999989
   17.02861023  114.55500031    4.90999985    2.86999989
   17.03166580  120.33100128    4.90999985    2.86999989
   17.03499985  113.29000092    4.90999985    2.86999989
   17.03805542  108.14099884    4.90999985    2.89000010
   17.04138756  119.04499817    4.90999985    2.89000010
   17.04472160  125.27100372    4.90999985    2.86999989
   17.05083275  125.27100372    4.90999985    2.89000010
   17.05472183  122.20899963    4.90999985    2.86999989
   17.05805397  125.01599884    4.90999985    2.86999989
   17.06138802  130.28199768    4.90999985    2.86999989
   17.06444359  127.84500122    4.90999985    2.86999989
   17.06777954  126.75499725    4.90999985    2.86999989
   17.07111168  122.70099640    4.90999985    2.86999989
   17.07416725  125.70800018    4.90999985    2.89000010
   17.07750130  117.66400146    4.90999985    2.89000010
   17.08055687  123.80500031    4.90999985    2.86999989
   17.08388901  116.77100372    4.90999985    2.86999989
   17.08722305  124.36100006    4.90999985    2.89000010
   17.08777809  135.18699646    4.90999985    2.86999989
   17.09361267  135.18699646    4.90999985    2.89000010
   17.09777832  122.33599854    4.90999985    2.89000010
   17.10083389  123.36599731    4.90999985    2.86999989
   17.10416794  130.93699646    4.90999985    2.86999989
   17.10750008  125.12899780    4.90999985    2.86999989
   17.11055565  127.99500275    4.90999985    2.86999989
   17.11388969  125.21700287    4.90999985    2.89000010
   17.11694527  119.27300262    4.90999985    2.86999989
   17.12027740  133.60299683    4.90999985    2.89000010
   17.12111092  125.81400299    4.90999985    2.89000010
   17.12388992  115.95800018    4.90999985    2.89000010
   17.12722206  113.95800018    4.90999985    2.89000010
   17.13055611  118.15599823    4.90999985    2.86999989
   17.13638878  118.15599823    4.90999985    2.86999989
   17.14055634  114.10600281    4.90999985    2.89000010
   17.14361191  121.88500214    4.90999985    2.89000010
   17.14694405  127.38899994    4.90999985    2.89000010
   17.15027809  120.21499634    4.90999985    2.86999989
   17.15333366  123.30500031    4.90999985    2.89000010
   17.15444374  125.07199860    4.90999985    2.89000010
   17.15694427  119.06900024    4.90999985    2.86999989
   17.16027832  122.37699890    4.90999985    2.89000010
   17.16361046  122.62400055    4.90999985    2.89000010
   17.16666603  112.70999908    4.90999985    2.89000010
   17.17000008  115.55699921    4.90999985    2.89000010
   17.17305565  119.58200073    4.90999985    2.89000010
   17.17916679  119.58200073    4.90999985    2.86999989
   17.18333244  122.27700043    4.90999985    2.86999989
   17.18666649  116.66699982    4.90999985    2.86999989
   17.18777657  117.05300140    4.90999985    2.86999989
   17.18999863  120.70899963    4.90999985    2.86999989
   17.19333267  117.10199738    4.90999985    2.86999989
   17.19666672  120.41799927    4.90999985    2.86999989
   17.19972038  119.02300262    4.90999985    2.86999989
   17.20305634  124.86599731    4.90999985    2.84999990
   17.20611191  120.37100220    4.90999985    2.86999989
   17.20944595  128.11999512    4.90999985    2.84999990
   17.21277809  123.04599762    4.90999985    2.86999989
   17.21583366  127.71700287    4.90999985    2.86999989
   17.22222328  127.71700287    4.90999985    2.86999989
   17.22611237  124.70400238    4.90999985    2.86999989
   17.22944450  129.58299255    4.90999985    2.86999989
   17.23277855  123.16899872    4.90999985    2.86999989
   17.23583412  125.49600220    4.90999985    2.84999990
   17.23916626  120.02500153    4.90999985    2.84999990
   17.24222183  117.72799683    4.90999985    2.84999990
   17.24555588  113.07700348    4.90999985    2.86999989
   17.24888992  129.27200317    4.90999985    2.86999989
   17.25194359  123.72899628    4.90999985    2.84999990
   17.25444412  125.23699951    4.90999985    2.86999989
   17.25555611  123.16300201    4.90999985    2.86999989
   17.25888824  128.72399902    4.90999985    2.86999989
   17.26499939  128.72399902    4.90999985    2.86999989
   17.26916695  125.48100281    4.90999985    2.86999989
   17.27222252  130.43600464    4.90999985    2.86999989
   17.27555466  131.63699341    4.90999985    2.86999989
   17.27861023  125.17600250    4.90999985    2.86999989
   17.28194427  114.96700287    4.90999985    2.86999989
   17.28527641  123.01999664    4.90999985    2.86999989
   17.28777695  130.80499268    4.90999985    2.84999990
   17.28861046  126.30300140    4.90999985    2.86999989
   17.29194450  124.79699707    4.90999985    2.86999989
   17.29527664  124.32599640    4.90999985    2.84999990
   17.29833221  124.27899933    4.90999985    2.86999989
   17.30166626  130.50799561    4.90999985    2.84999990
   17.30777740  130.50799561    4.90999985    2.84999990
   17.31194305  122.63300323    4.90999985    2.86999989
   17.31499863  118.95600128    4.90999985    2.86999989
   17.31833458  128.32000732    4.90999985    2.86999989
   17.32111168  130.71099854    4.90999985    2.86999989
   17.32194519  122.30999756    4.90999985    2.86999989
   17.32527924  119.73600006    4.90999985    2.86999989
   17.32861137  124.93399811    4.90999985    2.86999989
   17.33166695  116.87999725    4.90999985    2.82999992
   17.33500099  127.50499725    4.90999985    2.80999994
   17.33833313  120.23699951    4.90999985    2.84999990
   17.34138870  121.93800354    4.90999985    2.84999990
   17.34472275  126.62000275    4.90999985    2.84999990
   17.35055542  126.62000275    4.90999985    2.86999989
   17.35472298  138.24400330    4.90999985    2.86999989
   17.35805511  125.72200012    4.90999985    2.86999989
   17.36111069  128.85099792    4.90999985    2.84999990
   17.36444473  131.35800171    4.90999985    2.84999990
   17.36777878  127.96900177    4.90999985    2.84999990
   17.37083435  134.14799500    4.90999985    2.84999990
   17.37416649  129.78900146    4.90999985    2.82999992
   17.37722206  136.45899963    4.90999985    2.84999990
   17.38055611  131.94299316    4.90999985    2.84999990
   17.38388824  125.76100159    4.90999985    2.84999990
   17.38694382  128.53300476    4.90999985    2.84999990
   17.38777733  135.65299988    4.90999985    2.86999989
   17.39333344  135.65299988    4.90999985    2.84999990
   17.39749908  129.57400513    4.90999985    2.84999990
   17.40083313  121.12400055    4.90999985    2.84999990
   17.40416718  120.81199646    4.90999985    2.84999990
   17.40722275  120.93299866    4.90999985    2.84999990
   17.41055489  116.90200043    4.90999985    2.84999990
   17.41388893  116.21700287    4.90999985    2.84999990
   17.41694450  115.46800232    4.90999985    2.84999990
   17.42027664  118.37500000    4.90999985    2.84999990
   17.42111015  118.89800262    4.90999985    2.86999989
   17.42388916  123.39600372    4.90999985    2.84999990
   17.42722130  130.86900330    4.90999985    2.76999998
   17.43055534  135.32499695    4.90999985    2.76999998
   17.43638802  135.32499695    4.90999985    2.75000000
   17.44055557  131.18200684    4.90999985    2.75000000
   17.44361115  128.41799927    4.90999985    2.78999996
   17.44694328  140.96099854    4.90999985    2.76999998
   17.45000076  133.51699829    4.90999985    2.76999998
   17.45333481  125.21499634    4.90999985    2.82999992
   17.45444489  142.02999878    4.90999985    2.80999994
   17.45722389  116.23400116    4.90999985    2.80999994
   17.46027946  137.36900330    4.90999985    2.86999989
   17.46361160  145.37600708    4.90999985    2.66000009
   17.46666718  125.06300354    4.90999985    2.64000010
   17.47000122  134.57600403    4.90999985    2.76999998
   17.47333336  128.80799866    4.90999985    2.71000004
   17.47916794  128.80799866    4.90999985    2.78999996
   17.48333359  120.32399750    4.90999985    2.84999990
   17.48638916  136.00900269    4.90999985    2.84999990
   17.48777771  123.06800079    4.90999985    2.84999990
   17.49027824  128.68800354    4.90999985    2.84999990
   17.49333382  130.36099243    4.90999985    2.78999996
   17.49666786  137.15800476    4.90999985    2.71000004
   17.50000000  139.86500549    4.90999985    2.73000002
   17.50305557  130.65199280    4.90999985    2.50000000
   17.50638962  123.35299683    4.90999985    2.80999994
   17.50944519  122.37400055    4.90999985    2.86999989
   17.51277733  122.90299988    4.90999985    2.82999992
   17.51611137  111.22699738    4.90999985    2.86999989
   17.52194405  111.22699738    4.90999985    2.84999990
   17.52611160  121.66400146    4.90999985    2.86999989
   17.52944374  121.22000122    4.90999985    2.86999989
   17.53249931  123.63600159    4.90999985    2.84999990
   17.53583336  111.32099915    4.90999985    2.86999989
   17.53916550  122.77799988    4.90999985    2.84999990
   17.54222107  115.08499908    4.90999985    2.84999990
   17.54555511  123.72599792    4.90999985    2.80999994
   17.54861069  125.19200134    4.90999985    2.80999994
   17.55194283  130.86700439    4.90999985    2.82999992
   17.55444336  127.19999695    4.90999985    2.84999990
   17.55583191  124.37400055    4.90999985    2.84999990
   17.55888748  130.48699951    4.90999985    2.82999992
   17.56472206  130.48699951    4.90999985    2.75000000
   17.56888962  126.28399658    4.90999985    2.76999998
   17.57222366  132.01400757    4.90999985    2.78999996
   17.57555580  140.17500305    4.90999985    2.73000002
   17.57861137  152.05799866    4.90999985    2.57999992
   17.58194542  147.15499878    4.90999985    2.61999989
   17.58500099  134.26100159    4.90999985    2.44000006
   17.58777809  250.95100403    4.90999985    2.46000004
   17.58889008  150.64100647    4.90999985    2.39000010
   17.59194565  124.99400330    4.90999985    2.73000002
   17.59527779  137.78799438    4.90999985    2.78999996
   17.59833336  143.20199585    4.90999985    2.40000010
   17.60166740  340.95199585    4.90999985    2.25000000
   17.60777855  340.95199585    4.90999985    2.59999990
   17.61194420  128.42199707    4.90999985    2.78999996
   17.61499977  138.07299805    4.90999985    2.76999998
   17.61833382  125.23600006    4.90999985    2.61999989
   17.62111092  135.42599487    4.90999985    2.78999996
   17.62194443  136.10800171    4.90999985    2.78999996
   17.62500000  140.37300110    4.90999985    2.59999990
   17.62833405  136.56300354    4.90999985    2.84999990
   17.63138962  145.62399292    4.90999985    2.50000000
   17.63472176  137.80900574    4.90999985    2.66000009
   17.63805580  130.33500671    4.90999985    2.71000004
   17.64111137  156.49000549    4.90999985    2.75000000
   17.64444351  151.76100159    4.90999985    2.53999996
   17.65055466  151.76100159    4.90999985    2.42000008
   17.65472221  187.90499878    4.90999985    2.50000000
   17.65777779  278.90899658    4.90999985    2.15000010
   17.66110992  186.35699463    4.90999985    2.21000004
   17.66444397  129.95700073    4.90999985    2.48000002
   17.66749954  118.14600372    4.90999985    2.75000000
   17.67083359  120.58799744    4.90999985    2.86999989
   17.67416573  120.62599945    4.90999985    2.86999989
   17.67722130  127.55200195    4.90999985    2.84999990
   17.68055534  126.83699799    4.90999985    2.84999990
   17.68361092  120.78800201    4.90999985    2.84999990
   17.68694305  113.41899872    4.90999985    2.84999990
   17.68777657  122.37599945    4.90999985    2.84999990
   17.69333267  122.37599945    4.90999985    2.84999990
   17.69749832  126.76999664    4.90999985    2.84999990
   17.70083427  125.82299805    4.90999985    2.84999990
   17.70388985  124.29900360    4.90999985    2.86999989
   17.70722389  126.82299805    4.90999985    2.84999990
   17.71055603  117.07700348    4.90999985    2.84999990
   17.71361160  121.97399902    4.90999985    2.84999990
   17.71694565  119.38700104    4.90999985    2.84999990
   17.72000122  114.03500366    4.90999985    2.86999989
   17.72111130  113.17199707    4.90999985    2.86999989
   17.72389030  122.27600098    4.90999985    2.84999990
   17.72694588  125.62799835    4.90999985    2.84999990
   17.73027802  111.64199829    4.90999985    2.84999990
   17.73611069  111.64199829    4.90999985    2.86999989
   17.74027824  130.49600220    4.90999985    2.84999990
   17.74361229  129.73599243    4.90999985    2.84999990
   17.74694443  129.72799683    4.90999985    2.84999990
   17.75000000  123.55400085    4.90999985    2.84999990
   17.75333405  129.10099792    4.90999985    2.82999992
   17.75444412  123.28700256    4.90999985    2.82999992
   17.75694466  131.15600586    4.90999985    2.84999990
   17.76000023  127.05200195    4.90999985    2.84999990
   17.76333427  122.82900238    4.90999985    2.82999992
   17.76666641  127.69400024    4.90999985    2.84999990
   17.76972198  125.30400085    4.90999985    2.84999990
   17.77305603  126.92400360    4.90999985    2.84999990
   17.77916718  126.92400360    4.90999985    2.84999990
   17.78333282  117.15299988    4.90999985    2.84999990
   17.78638840  119.27300262    4.90999985    2.86999989
   17.78777695  118.36699677    4.90999985    2.86999989
   17.79027748  120.52799988    4.90999985    2.84999990
   17.79333305  115.76599884    4.90999985    2.84999990
   17.79666710  118.71099854    4.90999985    2.84999990
   17.79999924  118.97899628    4.90999985    2.84999990
   17.80305481  116.74299622    4.90999985    2.84999990
   17.80638885  119.21800232    4.90999985    2.84999990
   17.80944443  118.21900177    4.90999985    2.82999992
   17.81277657  124.55999756    4.90999985    2.82999992
   17.81611061  128.33299255    4.90999985    2.84999990
   17.82194519  128.33299255    4.90999985    2.84999990
   17.82611275  124.78900146    4.90999985    2.84999990
   17.82916832  114.39700317    4.90999985    2.84999990
   17.83250046  123.47599792    4.90999985    2.82999992
   17.83583450  122.76599884    4.90999985    2.82999992
   17.83889008  125.26799774    4.90999985    2.86999989
   17.84222221  125.08799744    4.90999985    2.86999989
   17.84555626  112.45800018    4.90999985    2.82999992
   17.84861183  117.32299805    4.90999985    2.86999989
   17.85194397  112.58899689    4.90999985    2.86999989
   17.85444450  109.94100189    4.90999985    2.84999990
   17.87500000  109.94100189    4.90999985    2.84999990
   17.87916756  124.88899994    4.90999985    2.84999990
   17.88249969  126.16899872    4.90999985    2.84999990
   17.88555527  123.72699738    4.90999985    2.84999990
   17.88777733  120.20999908    4.90999985    2.84999990
   17.88944435  125.19599915    4.90999985    2.84999990
   17.89249992  124.66300201    4.90999985    2.84999990
   17.89583397  128.63299561    4.90999985    2.84999990
   17.89916611  120.88800049    4.90999985    2.84999990
   17.90222168  122.95500183    4.90999985    2.84999990
   17.90555573  109.63999939    4.90999985    2.84999990
   17.90861130  124.85299683    4.90999985    2.82999992
   17.91194344  131.93800354    4.90999985    2.84999990
   17.91777802  131.93800354    4.90999985    2.84999990
   17.92194366  118.01399994    4.90999985    2.82999992
   17.92527771  117.14499664    4.90999985    2.84999990
   17.92833328  115.53500366    4.90999985    2.84999990
   17.93166542  121.88600159    4.90999985    2.82999992
   17.93499947  117.72799683    4.90999985    2.84999990
   17.93805504  117.06199646    4.90999985    2.82999992
   17.94138718  122.78099823    4.90999985    2.84999990
   17.94444275  123.93099976    4.90999985    2.84999990
   17.94777679  119.89900208    4.90999985    2.86999989
   17.95111275  122.27700043    4.90999985    2.86999989
   17.95416832  128.34800720    4.90999985    2.84999990
   17.95472336  127.23400116    4.90999985    2.84999990
   17.96055603  127.23400116    4.90999985    2.84999990
   17.96472359  130.15299988    4.90999985    2.84999990
   17.96805573  133.61500549    4.90999985    2.82999992
   17.97138977  132.52099609    4.90999985    2.82999992
   17.97444534  130.71699524    4.90999985    2.80999994
   17.97777748  133.26300049    4.90999985    2.84999990
   17.98083305  121.20400238    4.90999985    2.78999996
   17.98416710  207.71499634    4.90999985    2.59999990
   17.98750114  133.64799500    4.90999985    2.21000004
   17.98805618  160.20599365    4.90999985    2.39000010
   17.99111176  161.41600037    4.90999985    2.21000004
   17.99444389  140.27200317    4.90999985    2.69000006
   17.99749947  137.44099426    4.90999985    2.82999992
   18.00361061  137.44099426    4.90999985    2.78999996
   18.00777817  174.10299683    4.90999985    2.69000006
   18.01083374  125.90200043    4.90999985    2.40000010
   18.01416588  187.37899780    4.90999985    2.57999992
   18.01722145  194.11199951    4.90999985    2.55999994
   18.02055550  284.06100464    4.90999985    2.28999996
   18.02138901  199.30900574    4.90999985    2.28999996
   18.02416611   -1.00000000    4.90999985    1.85000002
   18.02750015   -1.00000000    4.90999985    1.63000000
   18.03055573  113.35199738    4.90999985    1.80999994
   18.03388786  153.69000244    4.90999985    2.46000004
   18.03694344  156.41799927    4.90999985    2.66000009
   18.04027748   -1.00000000    4.90999985    2.48000002
   18.04638863   -1.00000000    4.90999985    2.03999996
   18.05055428  174.48399353    4.90999985    2.00000000
   18.05360985  140.44999695    4.90999985    2.55999994
   18.05472183  121.43099976    4.90999985    2.57999992
   18.05749893  130.03100586    4.90999985    2.67000008
   18.06083298  126.80500031    4.90999985    2.64000010
   18.06388855  147.52799988    4.90999985    2.57999992
   18.06722260  117.94000244    4.90999985    2.73000002
   18.07027817  133.25500488    4.90999985    2.78999996
   18.07361221  135.36700439    4.90999985    2.80999994
   18.07694626  127.50900269    4.90999985    2.75000000
   18.08000183  124.97699738    4.90999985    2.76999998
   18.08333397   -1.00000000    4.90999985    1.00000000
   18.09333420   -1.00000000    4.90999985    0.13000000
   18.09638977   -1.00000000    4.90999985    0.17000000
   18.09972191   -1.00000000    4.90999985    0.51999998
   18.10305595   -1.00000000    4.90999985    0.36000001
   18.10611153   -1.00000000    4.90999985    0.25000000
   18.10944557   -1.00000000    4.90999985    0.25999999
   18.11250114   -1.00000000    4.90999985    0.23000000
   18.11583328   -1.00000000    4.90999985    0.38000000
   18.11916733   -1.00000000    4.90999985    0.46000001
   18.12277794  290.05200195    4.90999985    1.34000003
   18.12583351  175.97900391    4.90999985    2.67000008
   18.13194466  175.97900391    4.90999985    2.55999994
   18.13611031  153.27000427    4.90999985    2.76999998
   18.13944435  143.80599976    4.90999985    2.84999990
   18.14277840  135.71200562    4.90999985    2.84999990
   18.14583397  153.77299500    4.90999985    2.84999990
   18.14916611  346.08300781    4.90999985    2.51999998
   18.15222168   -1.00000000    4.90999985    1.73000002
   18.15611076   -1.00000000    4.90999985    1.55999994
   18.15916634   -1.00000000    4.90999985    0.75000000
   18.16250038   -1.00000000    4.90999985    0.31999999
   18.16583252   -1.00000000    4.90999985    0.23000000
   18.16888809   -1.00000000    4.90999985    0.09000000
   18.17888832   -1.00000000    4.90999985    0.19000000
   18.18222237   -1.00000000    4.90999985    0.31999999
   18.18527603   -1.00000000    4.90999985    0.38000000
   18.18916512   -1.00000000    4.90999985    0.51999998
   18.19222069   -1.00000000    4.90999985    0.34000000
   18.19555473   -1.00000000    4.90999985    0.31999999
   18.19888878   -1.00000000    4.90999985    0.46000001
   18.20194435   -1.00000000    4.90999985    0.47999999
   18.20527840   -1.00000000    4.90999985    0.44000000
   18.20833397   -1.00000000    4.90999985    0.50000000
   18.21166801   -1.00000000    4.90999985    0.30000001
   18.22166634   -1.00000000    4.90999985    0.25999999
   18.22500038   -1.00000000    4.90999985    0.20999999
   18.22833443   -1.00000000    4.90999985    0.20999999
   18.23139000   -1.00000000    4.90999985    0.23000000
   18.23472214   -1.00000000    4.90999985    0.19000000
   18.23805618   -1.00000000    4.90999985    0.20999999
   18.24111176   -1.00000000    4.90999985    0.23000000
   18.24444389   -1.00000000    4.90999985    0.30000001
   18.24749947   -1.00000000    4.90999985    0.38000000
   18.25083351   -1.00000000    4.90999985    0.38000000
   18.25416756   -1.00000000    4.90999985    0.46000001
   18.26472282   -1.00000000    4.90999985    0.58999997
   18.26777840   -1.00000000    4.90999985    0.83999997
   18.27111053   -1.00000000    4.90999985    1.14999998
   18.27444458   -1.00000000    4.90999985    1.33000004
   18.27750015  119.99400330    4.90999985    1.78999996
   18.28083229   -1.00000000    4.90999985    1.86000001
   18.28388786   -1.00000000    4.90999985    1.33000004
   18.28722191   -1.00000000    4.90999985    1.76999998
   18.29083252   -1.00000000    4.90999985    1.64999998
   18.29388809   -1.00000000    4.90999985    1.83000004
   18.29722214   -1.00000000    4.90999985    1.66999996
   18.30749893   -1.00000000    4.90999985    1.00000000
   18.31083298   -1.00000000    4.90999985    0.70999998
   18.31388855   -1.00000000    4.90999985    0.47999999
   18.31722260   -1.00000000    4.90999985    0.34000000
   18.32027817   -1.00000000    4.90999985    0.38000000
   18.32389069   -1.00000000    4.90999985    0.51999998
   18.32694626   -1.00000000    4.90999985    0.51999998
   18.33027840   -1.00000000    4.90999985    0.51999998
   18.33361244   -1.00000000    4.90999985    0.51999998
   18.33666801   -1.00000000    4.90999985    0.61000001
   18.34000015   -1.00000000    4.90999985    0.67000002
   18.35027885   -1.00000000    4.90999985    1.39999998
   18.35361099   -1.00000000    4.90999985    1.46000004
   18.35722351   -1.00000000    4.90999985    1.26999998
   18.36027908   -1.00000000    4.90999985    1.23000002
   18.36361122   -1.00000000    4.90999985    1.23000002
   18.36694527   -1.00000000    4.90999985    1.26999998
   18.37000084   -1.00000000    4.90999985    1.38000000
   18.37333298   -1.00000000    4.90999985    1.33000004
   18.37666702   -1.00000000    4.90999985    1.03999996
   18.37972260   -1.00000000    4.90999985    0.50000000
   18.38305473   -1.00000000    4.90999985    0.44000000
   18.39333344   -1.00000000    4.90999985    0.41999999
   18.39638901   -1.00000000    4.90999985    0.34000000
   18.39972115   -1.00000000    4.90999985    0.46000001
   18.40277672   -1.00000000    4.90999985    0.40000001
   18.40611076   -1.00000000    4.90999985    0.40000001
   18.40944481   -1.00000000    4.90999985    0.25999999
   18.41250038   -1.00000000    4.90999985    0.13000000
   18.41583252   -1.00000000    4.90999985    0.11000000
   18.41916656   -1.00000000    4.90999985    0.09000000
   18.42277718   -1.00000000    4.90999985    0.09000000
   18.42583275   -1.00000000    4.90999985    0.11000000
   18.43610954   -1.00000000    4.90999985    0.30000001
   18.43916512   -1.00000000    4.90999985    0.31999999
   18.44249916   -1.00000000    4.90999985    0.41999999
   18.44583321   -1.00000000    4.90999985    0.30000001
   18.44888878   -1.00000000    4.90999985    0.41999999
   18.45222282   -1.00000000    4.90999985    0.38000000
   18.45583344   -1.00000000    4.90999985    0.17000000
   18.45888901   -1.00000000    4.90999985    0.28000000
   18.46222305   -1.00000000    4.90999985    0.25000000
   18.46555710   -1.00000000    4.90999985    0.25000000
   18.46861076   -1.00000000    4.90999985    0.19000000
   18.47888947   -1.00000000    4.90999985    0.36000001
   18.48222351   -1.00000000    4.90999985    0.19000000
   18.48527718   -1.00000000    4.90999985    0.19000000
   18.48888969   -1.00000000    4.90999985    0.13000000
   18.49194527   -1.00000000    4.90999985    0.05000000
   18.49527740   -1.00000000    4.90999985    0.03000000
   18.49861145   -1.00000000    4.90999985    0.03000000
   18.50166702   -1.00000000    4.90999985    0.03000000
   18.50499916   -1.00000000    4.90999985    0.03000000
   18.50833321   -1.00000000    4.90999985    0.05000000
   18.51138878   -1.00000000    4.90999985    0.09000000
   18.52166557   -1.00000000    4.90999985    0.11000000
   18.52499962   -1.00000000    4.90999985    0.11000000
   18.52833366   -1.00000000    4.90999985    0.11000000
   18.53138924   -1.00000000    4.90999985    0.17000000
   18.53472137   -1.00000000    4.90999985    0.20999999
   18.53777695   -1.00000000    4.90999985    0.07000000
   18.54111099   -1.00000000    4.90999985    0.05000000
   18.54444313   -1.00000000    4.90999985    0.07000000
   18.54749870   -1.00000000    4.90999985    0.07000000
   18.55083275   -1.00000000    4.90999985    0.05000000
   18.55416679   -1.00000000    4.90999985    0.05000000
   18.56472206   -1.00000000    4.90999985    0.11000000
   18.56777954   -1.00000000    4.90999985    0.11000000
   18.57111168   -1.00000000    4.90999985    0.13000000
   18.57416725   -1.00000000    4.90999985    0.17000000
   18.57750130   -1.00000000    4.90999985    0.17000000
   18.58083344   -1.00000000    4.90999985    0.25999999
   18.58388901   -1.00000000    4.90999985    0.31999999
   18.58722305   -1.00000000    4.90999985    0.31999999
   18.59083366   -1.00000000    4.90999985    0.31999999
   18.59388924   -1.00000000    4.90999985    0.30000001
   18.59722328   -1.00000000    4.90999985    0.52999997
   18.60750008   -1.00000000    4.90999985    0.25999999
   18.61055565   -1.00000000    4.90999985    0.34000000
   18.61388969   -1.00000000    4.90999985    0.36000001
   18.61722183   -1.00000000    4.90999985    0.34000000
   18.62027740   -1.00000000    4.90999985    0.23000000
   18.62388992   -1.00000000    4.90999985    0.11000000
   18.62722206   -1.00000000    4.90999985    0.07000000
   18.63027763   -1.00000000    4.90999985    0.07000000
   18.63361168   -1.00000000    4.90999985    0.09000000
   18.63666725   -1.00000000    4.90999985    0.15000001
   18.63999939   -1.00000000    4.90999985    0.17000000
   18.65027809   -1.00000000    4.90999985    0.03000000
   18.65361023   -1.00000000    4.90999985    0.01000000
   18.65722275   -1.00000000    4.90999985    0.01000000
   18.66055489   -1.00000000    4.63999987    0.01000000
   18.66361046   -1.00000000    4.00000000    0.01000000
   18.66694450   -1.00000000    3.41000009    0.01000000
   18.67000008   -1.00000000    2.59999990    0.01000000
   18.67333221   -1.00000000    2.59999990    0.01000000
   18.67666626   -1.00000000    2.59999990    0.01000000
   18.67972183   -1.00000000    2.48000002    0.01000000
   18.68305397   -1.00000000    2.50000000    0.01000000
   18.69305420   -1.00000000    2.05999994    0.01000000
   18.69638824   -1.00000000    3.45000005    0.01000000
   18.69972038   -1.00000000    4.90999985    0.01000000
   18.70277786   -1.00000000    4.90999985    0.01000000
   18.70611191   -1.00000000    4.90999985    0.01000000
   18.70916748   -1.00000000    4.90999985    0.01000000
   18.71250153   -1.00000000    4.82999992    0.01000000
   18.71583366   -1.00000000    2.94000006    0.01000000
   18.71888924   -1.00000000    1.21000004    0.01000000
   18.72249985   -1.00000000    0.92000002    0.01000000
   18.72583389   -1.00000000    0.86000001    0.01000000
   18.73611069   -1.00000000    1.14999998    0.01000000
   18.73916626   -1.00000000    1.14999998    0.01000000
   18.74250031   -1.00000000    3.07999992    0.01000000
   18.74555588   -1.00000000    3.14000010    0.01000000
   18.74888992   -1.00000000    3.99000001    0.01000000
   18.75222206   -1.00000000    4.90999985    0.03000000
   18.75583267   -1.00000000    4.90999985    0.05000000
   18.75916672   -1.00000000    4.90999985    0.09000000
   18.76222229   -1.00000000    4.90999985    0.34000000
   18.76555634   -1.00000000    4.90999985    0.73000002
   18.76861000   -1.00000000    4.90999985    0.98000002
   18.77888870   -1.00000000    4.90999985    0.25999999
   18.78194427   -1.00000000    4.90999985    0.76999998
   18.78527641   -1.00000000    4.90999985    1.00000000
   18.78888893   -1.00000000    4.90999985    1.16999996
   18.79222107   -1.00000000    4.90999985    1.13000000
   18.79527664   -1.00000000    4.90999985    1.55999994
   18.79861069  101.29599762    4.90999985    1.91999996
   18.80166626  157.28199768    4.90999985    2.03999996
   18.80499840  238.49499512    4.90999985    2.11999989
   18.80833244  300.71701050    4.90999985    2.11999989
   18.81138802  323.88500977    4.90999985    2.15000010
   18.81777954  323.88500977    4.90999985    2.13000011
   18.82166672  261.49700928    4.90999985    2.17000008
   18.82500076  282.89700317    4.90999985    2.19000006
   18.82833481  279.49301147    4.90999985    2.17000008
   18.83139038  308.13198853    4.90999985    2.17000008
   18.83472252  342.04000854    4.90999985    2.11999989
   18.83805656  312.28500366    4.90999985    2.13000011
   18.84111214  238.95700073    4.90999985    2.19000006
   18.84444427  192.55700684    4.90999985    2.28999996
   18.84749985  184.38900757    4.90999985    2.44000006
   18.85083389  148.76800537    4.90999985    2.53999996
   18.85416794  141.83200073    4.90999985    2.71000004
   18.85499954  140.92900085    4.90999985    2.71000004
   18.86055565  140.92900085    4.90999985    2.61999989
   18.86472321  130.93400574    4.90999985    2.61999989
   18.86777878  129.96099854    4.90999985    2.64000010
   18.87111092  133.47300720    4.90999985    2.69000006
   18.88861084  135.31599426    4.90999985    2.71000004
   18.89111137  140.84500122    4.90999985    2.75000000
   18.89416695  140.71099854    4.90999985    2.75000000
   18.89749908  141.81100464    4.90999985    2.76999998
   18.90361023  141.81100464    4.90999985    2.76999998
   18.90777779  151.30700684    4.90999985    2.76999998
   18.91083336  136.05799866    4.90999985    2.76999998
   18.91416550  128.99899292    4.90999985    2.75000000
   18.91722107  137.98800659    4.90999985    2.75000000
   18.92055511  142.73399353    4.90999985    2.75000000
   18.92194366  139.38000488    4.90999985    2.75000000
   18.92416573  146.72599792    4.90999985    2.69000006
   18.92749977  143.19000244    4.90999985    2.71000004
   18.93083191  130.72799683    4.90999985    2.76999998
   18.93388748  132.50300598    4.90999985    2.76999998
   18.93722153  127.46499634    4.90999985    2.76999998
   18.94055557  138.35299683    4.90999985    2.76999998
   18.94638824  138.35299683    4.90999985    2.76999998
   18.95055580  138.63099670    4.90999985    2.78999996
   18.95361137  135.49000549    4.90999985    2.76999998
   18.95527840  136.44900513    4.90999985    2.76999998
   18.95722389  137.20500183    4.90999985    2.76999998
   18.96055603  134.48800659    4.90999985    2.76999998
   18.96389008  134.92300415    4.90999985    2.76999998
   18.96694565  128.64999390    4.90999985    2.76999998
   18.97027779  128.47200012    4.90999985    2.78999996
   18.97361183  138.40600586    4.90999985    2.76999998
   18.97666740  120.88200378    4.90999985    2.78999996
   18.98000145  130.78900146    4.90999985    2.76999998
   18.98305511  137.62600708    4.90999985    2.78999996
   18.98916626  137.62600708    4.90999985    2.76999998
   18.99333382  144.16400146    4.90999985    2.76999998
   18.99666786  128.46800232    4.90999985    2.76999998
   18.99972153  125.49199677    4.90999985    2.78999996
   19.00305557  134.04400635    4.90999985    2.76999998
   19.00638962  131.71299744    4.90999985    2.76999998
   19.00944519  134.63299561    4.90999985    2.76999998
   19.01277733  130.70199585    4.90999985    2.76999998
   19.01611137  132.54600525    4.90999985    2.78999996
   19.01916695  143.70399475    4.90999985    2.76999998
   19.02194405  135.57499695    4.90999985    2.76999998
   19.02277756  135.62899780    4.90999985    2.76999998
   19.02611160  119.14900208    4.90999985    2.78999996
   19.03194427  119.14900208    4.90999985    2.76999998
   19.03610992  127.54900360    4.90999985    2.76999998
   19.03944397  120.73999786    4.90999985    2.78999996
   19.04277802  132.35099792    4.90999985    2.76999998
   19.04583359  126.66699982    4.90999985    2.76999998
   19.04916573  122.91999817    4.90999985    2.76999998
   19.05222130  121.16600037    4.90999985    2.76999998
   19.05527687  118.87400055    4.90999985    2.76999998
   19.05583191  121.17900085    4.90999985    2.76999998
   19.05916595  127.01699829    4.90999985    2.76999998
   19.06250000  127.09799957    4.90999985    2.76999998
   19.06555557  125.43900299    4.90999985    2.76999998
   19.06888962  117.40599823    4.90999985    2.76999998
   19.07500076  117.40599823    4.90999985    2.78999996
   19.07916832  128.27099609    4.90999985    2.76999998
   19.08222389  121.69799805    4.90999985    2.76999998
   19.08555603  121.48600006    4.90999985    2.76999998
   19.08861160  127.55400085    4.90999985    2.76999998
   19.08889008  124.42400360    4.90999985    2.76999998
   19.09222221  119.98999786    4.90999985    2.76999998
   19.09555626  123.85199738    4.90999985    2.76999998
   19.09861183  123.26799774    4.90999985    2.78999996
   19.10194397  137.72900391    4.90999985    2.76999998
   19.10527802  134.04699707    4.90999985    2.76999998
   19.10833359  135.50399780    4.90999985    2.78999996
   19.11166763  128.98500061    4.90999985    2.76999998
   19.11777878  128.98500061    4.90999985    2.75000000
   19.12194443  126.65000153    4.90999985    2.76999998
   19.12500000  122.83300018    4.90999985    2.76999998
   19.12833405  117.73400116    4.90999985    2.76999998
   19.13166618  122.25199890    4.90999985    2.75000000
   19.13472176  129.13699341    4.90999985    2.76999998
   19.13805580  122.87300110    4.90999985    2.76999998
   19.14138794  127.66200256    4.90999985    2.76999998
   19.14444351  133.69799805    4.90999985    2.75000000
   19.14777756  126.46700287    4.90999985    2.75000000
   19.15083313  124.91999817    4.90999985    2.75000000
   19.15416718  127.87100220    4.90999985    2.73000002
   19.15527725  115.89900208    4.90999985    2.73000002
   19.16055489  115.89900208    4.90999985    2.76999998
   19.16472244  121.85399628    4.90999985    2.80999994
   19.16805458  118.87999725    4.90999985    2.84999990
   19.17111015  138.77099609    4.90999985    2.84999990
   19.17444420  148.31199646    4.90999985    2.82999992
   19.17777634  151.98599243    4.90999985    2.64000010
   19.18083191  141.48399353    4.90999985    2.51999998
   19.18416595  156.06100464    4.90999985    2.76999998
   19.18722153  144.21400452    4.90999985    2.48000002
   19.18861008  179.55999756    4.90999985    2.53999996
   19.19083214  170.39599609    4.90999985    2.30999994
   19.19416618  204.60200500    4.90999985    2.46000004
   19.19749832  171.31500244    4.90999985    2.46000004
   19.20333481  171.31500244    4.90999985    2.48000002
   19.20750046  144.78999329    4.90999985    2.48000002
   19.21083450  231.63900757    4.90999985    2.32999992
   19.21389008  281.95800781    4.90999985    2.32999992
   19.21722221  194.30799866    4.90999985    2.11999989
   19.22055626  264.59399414    4.90999985    2.25000000
   19.22194481  281.23901367    4.90999985    2.28999996
   19.22416687   57.24570084    4.90999985    2.03999996
   19.22722244   -1.00000000    4.90999985    1.30999994
   19.23055649   -1.00000000    4.90999985    1.25000000
   19.23361206   -1.00000000    4.90999985    1.03999996
   19.23694420  169.74099731    4.90999985    1.76999998
   19.24027824  256.01400757    4.90999985    1.73000002
   19.24638939  256.01400757    4.90999985    2.40000010
   19.25027847  233.66799927    4.90999985    2.28999996
   19.25361061  249.91299438    4.90999985    2.26999998
   19.25527763  189.84199524    4.90999985    2.26999998
   19.25749969  177.05999756    4.90999985    2.32999992
   19.26055527  201.51800537    4.90999985    2.42000008
   19.26388931  247.19000244    4.90999985    2.30999994
   19.26722145  248.07200623    4.90999985    2.19000006
   19.27027702   -1.00000000    4.90999985    1.85000002
   19.27361107   -1.00000000    4.90999985    1.36000001
   19.27666664   -1.00000000    4.90999985    1.23000002
   19.28000069   -1.00000000    4.90999985    0.67000002
   19.28333282   -1.00000000    4.90999985    0.52999997
   19.29305458   -1.00000000    4.90999985    0.15000001
   19.29638863   -1.00000000    4.90999985    0.19000000
   19.29972076   -1.00000000    4.90999985    0.20999999
   19.30277634   -1.00000000    4.90999985    0.23000000
   19.30611038   -1.00000000    4.90999985    0.25000000
   19.30944443   -1.00000000    4.90999985    0.23000000
   19.31250000   -1.00000000    4.90999985    0.13000000
   19.31583214   -1.00000000    4.90999985    0.09000000
   19.31888962   -1.00000000    4.90999985    0.13000000
   19.32250023   -1.00000000    4.90999985    0.09000000
   19.32583427   -1.00000000    4.90999985    0.09000000
   19.33611107   -1.00000000    4.90999985    0.46000001
   19.33916664   -1.00000000    4.90999985    0.41999999
   19.34250069   -1.00000000    4.90999985    0.52999997
   19.34583473   -1.00000000    4.90999985    0.76999998
   19.34889030   -1.00000000    4.90999985    1.00000000
   19.35222244   -1.00000000    4.90999985    0.83999997
   19.35555649   -1.00000000    4.90999985    0.81999999
   19.35888863   -1.00000000    4.90999985    1.05999994
   19.36194420   -1.00000000    4.90999985    0.92000002
   19.36527824   -1.00000000    4.90999985    0.86000001
   19.36861038   -1.00000000    4.90999985    0.79000002
   19.37888908   -1.00000000    4.90999985    0.70999998
   19.38222313   -1.00000000    4.90999985    0.92000002
   19.38527679   68.79789734    4.90999985    1.50000000
   19.38861084  239.41299438    4.90999985    2.01999998
   19.38916588  235.85200500    4.90999985    2.01999998
   19.39222145  246.34599304    4.90999985    2.32999992
   19.39555550  262.67999268    4.90999985    2.25000000
   19.39861107  199.66000366    4.90999985    2.28999996
   19.40194321  186.97500610    4.90999985    2.30999994
   19.40527725  170.37100220    4.90999985    2.48000002
   19.40833282  166.95599365    4.90999985    2.51999998
   19.41166687  180.43899536    4.90999985    2.53999996
   19.41777802  180.43899536    4.90999985    2.57999992
   19.42166519  198.78700256    4.90999985    2.50000000
   19.42222214  195.60699463    4.90999985    2.46000004
   19.42555428  292.65399170    4.90999985    2.32999992
   19.42888832  264.37899780    4.90999985    2.26999998
   19.43194389   44.71200180    4.90999985    2.00000000
   19.43527603   93.54440308    4.90999985    1.88000000
   19.43861008   -1.00000000    4.90999985    1.71000004
   19.44166565   -1.00000000    4.90999985    1.19000006
   19.44499969  119.37400055    4.90999985    1.83000004
   19.44805527   78.49819946    4.90999985    1.98000002
   19.45138931   -1.00000000    4.90999985    1.19000006
   19.45472336   -1.00000000    4.90999985    0.47999999
   19.46444511   -1.00000000    4.90999985    0.64999998
   19.46777916   -1.00000000    4.90999985    0.36000001
   19.47111130   -1.00000000    4.90999985    0.07000000
   19.47416687   -1.00000000    4.90999985    0.07000000
   19.47750092   -1.00000000    4.90999985    0.07000000
   19.48083305   -1.00000000    4.90999985    0.07000000
   19.48388863   -1.00000000    4.90999985    0.07000000
   19.48722267   -1.00000000    4.90999985    0.07000000
   19.49083328   -1.00000000    4.90999985    0.07000000
   19.49388885   -1.00000000    4.90999985    0.07000000
   19.49722290   -1.00000000    4.90999985    0.07000000
   19.50749969   -1.00000000    4.90999985    0.13000000
   19.51055527   -1.00000000    4.90999985    0.19000000
   19.51388931   -1.00000000    4.90999985    0.44000000
   19.51722145   -1.00000000    4.90999985    0.83999997
   19.52027702   -1.00000000    4.90999985    1.23000002
   19.52388954   -1.00000000    4.90999985    1.44000006
   19.52694511   -1.00000000    4.90999985    1.50000000
   19.53027725   -1.00000000    4.90999985    1.60000002
   19.53361130   -1.00000000    4.90999985    1.63000000
   19.53666687   -1.00000000    4.90999985    1.58000004
   19.53999901   -1.00000000    4.90999985    1.55999994
   19.55027771   -1.00000000    4.90999985    1.23000002
   19.55360985   -1.00000000    4.90999985    1.34000003
   19.55722237   -1.00000000    4.90999985    1.44000006
   19.56027794   -1.00000000    4.90999985    1.38000000
   19.56361008   -1.00000000    4.90999985    1.38000000
   19.56694603   -1.00000000    4.90999985    1.44000006
   19.57000160   -1.00000000    4.90999985    1.73000002
   19.57333374   -1.00000000    4.90999985    1.76999998
   19.57638931   -1.00000000    4.90999985    1.64999998
   19.57972336   -1.00000000    4.90999985    1.60000002
   19.58305550   -1.00000000    4.90999985    1.58000004
   19.58916664   -1.00000000    4.90999985    1.73000002
   19.59305573   -1.00000000    4.90999985    1.75000000
   19.59638977   -1.00000000    4.90999985    1.78999996
   19.59972191   -1.00000000    4.90999985    1.71000004
   19.60277748   -1.00000000    4.90999985    1.66999996
   19.60611153   -1.00000000    4.90999985    1.75000000
   19.60944557   95.39170074    4.90999985    1.85000002
   19.61250114   25.19759941    4.90999985    1.89999998
   19.61583328   76.91419983    4.90999985    1.88000000
   19.61888885   38.35100174    4.90999985    1.91999996
   19.62222290   -1.00000000    4.90999985    1.83000004
   19.62583351   23.57019997    4.90999985    1.86000001
   19.63194466   23.57019997    4.90999985    1.78999996
   19.63611031   -1.00000000    4.90999985    1.64999998
   19.63916588   -1.00000000    4.90999985    1.69000006
   19.64249992   -1.00000000   -1.00000000   -1.00000000
   19.64583397  107.08599854    4.90999985    1.91999996
   19.64888954  123.78299713    4.90999985    1.98000002
   19.65222168   90.98010254    4.90999985    1.91999996
   19.65527725   63.86050034    4.90999985    1.85000002
   19.65611076   51.84930038    4.90999985    1.85000002
   19.65916634  133.40100098    4.90999985    1.96000004
   19.66222191  134.37199402    4.90999985    2.05999994
   19.66555595   -1.00000000    4.90999985    1.94000006
   19.66888809   -1.00000000    4.90999985    1.86000001
   19.67472076   -1.00000000    4.90999985    1.86000001
   19.67888832  319.56600952    4.90999985    2.05999994
   19.68222237  315.90100098    4.90999985    2.13000011
   19.68527603  324.65701294    4.90999985    2.13000011
   19.68861008  308.43798828    4.90999985    2.15000010
   19.68944359  337.85400391    4.90999985    2.15000010
   19.69222069  344.14999390    4.90999985    2.17000008
   19.69527626  274.44799805    4.90999985    2.13000011
   19.69861031  258.81399536    4.90999985    2.25000000
   19.70194435  243.26699829    4.90999985    2.28999996
   19.70499992  226.61199951    4.90999985    2.30999994
   19.70833397  239.77000427    4.90999985    2.32999992
   19.71138954  219.50399780    4.90999985    2.30999994
   19.71750069  219.50399780    4.90999985    2.28999996
   19.72166634  276.24200439    4.90999985    2.23000002
   19.72277832  332.14999390    4.90999985    2.26999998
   19.72555542  143.20300293    4.90999985    2.01999998
   19.72861099  170.61500549    4.90999985    2.00000000
   19.73194504  137.75799561    4.90999985    2.09999990
   19.73527718  105.54199982    4.90999985    2.00000000
   19.73833275   -1.00000000    4.90999985    1.86000001
   19.74166679   67.85700226    4.90999985    1.85000002
   19.74472237  270.19799805    4.90999985    1.88000000
   19.74805641  272.04800415    4.90999985    2.17000008
   19.75138855  204.56900024    4.90999985    2.30999994
   19.75444412  220.44900513    4.90999985    2.32999992
   19.75611115  215.47300720    4.90999985    2.34999990
   19.76055527  215.47300720    4.90999985    2.36999989
   19.76444435  202.41099548    4.90999985    2.36999989
   19.76777840  200.88499451    4.90999985    2.39000010
   19.77111053  219.71699524    4.90999985    2.39000010
   19.77416611  316.01800537    4.90999985    2.32999992
   19.77750015   -1.00000000    4.90999985    0.63000000
   19.78083229   -1.00000000    4.90999985    0.07000000
   19.78388786   -1.00000000    4.90999985    0.05000000
   19.78722191   -1.00000000    4.90999985    0.07000000
   19.79055595   -1.00000000    4.90999985    0.11000000
   19.79388809   -1.00000000    4.90999985    0.11000000
   19.79722214   -1.00000000    4.90999985    0.07000000
   19.80722237   -1.00000000    4.90999985    0.09000000
