    HOUR (UT)   FLARE FACTOR    SKY TESTER    SUN TESTER
   11.79472256   -1.00000000   -1.00000000   -1.00000000
   11.88138866  279.08300781    3.05999994    2.15000010
   11.88472176  291.47399902    3.05999994    2.15000010
   11.88777733  299.00399780    3.05999994    2.15000010
   11.89111137  291.15798950    3.03999996    2.15000010
   11.89416695  293.20999146    3.03999996    2.15000010
   11.89750004  286.83801270    3.03999996    2.15000010
   11.90166664  286.83801270    3.01999998    2.15000010
   11.90583324  281.50000000    3.01999998    2.15000010
   11.90972137  285.02801514    3.00000000    2.17000008
   11.91305542  301.56600952    3.00000000    2.15000010
   11.91499996  300.53799438    3.00000000    2.17000008
   11.91638851  288.17800903    3.00000000    2.17000008
   11.91638851  291.47399902    3.05999994    2.15000010
   11.91638851  299.00399780    3.05999994    2.15000010
   11.91666698  291.15798950    3.03999996    2.15000010
   11.91666698  293.20999146    3.03999996    2.15000010
   11.91694450  286.83801270    3.03999996    2.15000010
   11.91694450  281.50000000    3.01999998    2.15000010
   11.91694450  285.02801514    3.00000000    2.17000008
   11.91722298  301.56600952    3.00000000    2.15000010
   11.96222210  278.47900391    2.89000010    2.19000006
   11.96555519  242.33799744    2.89000010    2.19000006
   11.96888828  247.61900330    2.89000010    2.19000006
   11.97194386  249.88000488    2.86999989    2.19000006
   11.97527695  232.43200684    2.86999989    2.19000006
   11.97861099  247.93400574    2.86999989    2.19000006
   11.98277760  247.93400574    2.84999990    2.21000004
   11.98666668  236.89799500    2.82999992    2.21000004
   11.99000072  232.44299316    2.82999992    2.19000006
   11.99333382  261.55200195    2.82999992    2.21000004
   11.99555588  251.88999939    2.80999994    2.21000004
   11.99694443  241.46800232    2.80999994    2.21000004
   12.00027752  241.61900330    2.80999994    2.21000004
   12.00333309  259.57699585    2.78999996    2.21000004
   12.00666714  254.34100342    2.78999996    2.21000004
   12.01000023  237.06199646    2.78999996    2.21000004
   12.01305580  229.75399780    2.78999996    2.21000004
   12.01638889  234.69099426    2.76999998    2.21000004
   12.01944447  245.80000305    2.76999998    2.23000002
   12.02555561  245.80000305    2.76999998    2.23000002
   12.02972221  247.62100220    2.75000000    2.23000002
   12.03277779  278.04400635    2.75000000    2.23000002
   12.03611183  264.43399048    2.75000000    2.23000002
   12.03916740  268.04598999    2.73000002    2.23000002
   12.04250050  295.44500732    2.73000002    2.23000002
   12.04583359  288.28100586    2.71000004    2.23000002
   12.04888916  288.37399292    2.73000002    2.23000002
   12.05222225  280.97500610    2.71000004    2.25000000
   12.05555534  245.09199524    2.71000004    2.25000000
   12.05861092  242.11799622    2.71000004    2.23000002
   12.06194496  227.70700073    2.69000006    2.25000000
   12.06250000  262.26400757    2.69000006    2.25000000
   12.06833363  262.26400757    2.69000006    2.25000000
   12.07250023  244.05400085    2.69000006    2.25000000
   12.07555580  252.85899353    2.67000008    2.25000000
   12.07888889  237.90400696    2.67000008    2.25000000
   12.08222198  246.54699707    2.67000008    2.26999998
   12.08527756  224.56300354    2.66000009    2.25000000
   12.08861065  222.70399475    2.66000009    2.26999998
   12.09194374  214.75399780    2.66000009    2.25000000
   12.09499931  210.18299866    2.64000010    2.26999998
   12.09583282  223.56500244    2.64000010    2.26999998
   12.09861088  192.87300110    2.64000010    2.26999998
   12.10194492  234.28700256    2.64000010    2.26999998
   12.10527802  202.33900452    2.61999989    2.25000000
   12.11111164  202.33900452    2.61999989    2.26999998
   12.11527824  199.95300293    2.61999989    2.26999998
   12.11861134  231.86099243    2.61999989    2.26999998
   12.12166691  211.66499329    2.61999989    2.28999996
   12.12500000  205.88499451    2.59999990    2.28999996
   12.12833309  213.87300110    2.59999990    2.28999996
   12.12916660  207.83399963    2.59999990    2.26999998
   12.13194466  231.85299683    2.59999990    2.26999998
   12.13527775  209.58299255    2.59999990    2.26999998
   12.13861084  203.05700684    2.57999992    2.28999996
   12.14166641  196.48899841    2.57999992    2.28999996
   12.14499950  206.12699890    2.57999992    2.28999996
   12.14833355  206.84199524    2.57999992    2.28999996
   12.15388870  206.84199524    2.55999994    2.28999996
   12.15805531  212.96400452    2.57999992    2.28999996
   12.16138840  225.22700500    2.55999994    2.28999996
   12.16249943  197.68600464    2.55999994    2.28999996
   12.16499996  196.03900146    2.55999994    2.28999996
   12.16833401  203.30900574    2.55999994    2.28999996
   12.17166710  193.07699585    2.53999996    2.28999996
   12.17472267  184.54299927    2.53999996    2.30999994
   12.17805576  203.56399536    2.53999996    2.30999994
   12.18138885  197.58000183    2.53999996    2.30999994
   12.18444443  198.69799805    2.53999996    2.30999994
   12.18777752  208.51400757    2.53999996    2.30999994
   12.19083309  199.64100647    2.51999998    2.30999994
   12.19694424  199.64100647    2.51999998    2.30999994
   12.20111084  193.21600342    2.51999998    2.30999994
   12.20416641  209.08700562    2.50000000    2.30999994
   12.20749950  220.49600220    2.50000000    2.30999994
   12.21055508  174.98500061    2.50000000    2.30999994
   12.21388912  194.88999939    2.50000000    2.30999994
   12.21722221  177.51899719    2.50000000    2.30999994
   12.22027779  207.71099854    2.48000002    2.30999994
   12.22361088  203.12600708    2.48000002    2.32999992
   12.22694397  202.45700073    2.48000002    2.32999992
   12.22916603  195.57000732    2.46000004    2.32999992
   12.23027706  206.71699524    2.48000002    2.32999992
   12.23361111  194.60099792    2.46000004    2.32999992
   12.23972225  194.60099792    2.46000004    2.32999992
   12.24388885  202.59700012    2.44000006    2.32999992
   12.24694443  180.07400513    2.44000006    2.32999992
   12.25027752  197.88900757    2.44000006    2.32999992
   12.25361156  203.68800354    2.44000006    2.32999992
   12.25666714  198.15899658    2.42000008    2.32999992
   12.26000023  196.75199890    2.42000008    2.34999990
   12.26249981  198.35400391    2.42000008    2.32999992
   12.26388931  195.75300598    2.42000008    2.34999990
   12.26694393  207.05200195    2.40000010    2.34999990
   12.27027798  209.57000732    2.40000010    2.34999990
   12.27333355  189.14300537    2.40000010    2.34999990
   12.27666664  193.80000305    2.40000010    2.34999990
   12.28249931  193.80000305    2.39000010    2.34999990
   12.28666687  187.46499634    2.39000010    2.34999990
   12.29000092  189.75799561    2.39000010    2.34999990
   12.29305553  210.77400208    2.36999989    2.34999990
   12.29583359  219.28900146    2.39000010    2.34999990
   12.29694462  191.98399353    2.36999989    2.34999990
   12.30000019  181.24899292    2.34999990    2.34999990
   12.30333328  201.59599304    2.34999990    2.36999989
   12.30638885  199.58500671    2.34999990    2.36999989
   12.30972195  193.58700562    2.34999990    2.34999990
   12.31305599  192.55599976    2.34999990    2.34999990
   12.31611156  213.13299561    2.32999992    2.36999989
   12.31944466  209.42799377    2.32999992    2.36999989
   12.32527733  209.42799377    2.32999992    2.36999989
   12.32944393  193.29299927    2.30999994    2.36999989
   12.33277798  188.83299255    2.30999994    2.36999989
   12.33611107  198.38200378    2.30999994    2.36999989
   12.33916664  193.80499268    2.30999994    2.36999989
   12.34249973  180.33599854    2.28999996    2.36999989
   12.34555531  182.06799316    2.28999996    2.36999989
   12.34888840  184.14500427    2.26999998    2.36999989
   12.35222244  182.40800476    2.26999998    2.36999989
   12.35527802  211.93800354    2.26999998    2.39000010
   12.35861111  200.99000549    2.26999998    2.39000010
   12.36194515  183.07299805    2.26999998    2.36999989
   12.36250019  173.62899780    2.26999998    2.36999989
   12.36833382  173.62899780    2.25000000    2.36999989
   12.37250042  183.40199280    2.25000000    2.39000010
   12.37555599  190.31300354    2.25000000    2.39000010
   12.37888908  188.39999390    2.25000000    2.39000010
   12.38222218  185.46000671    2.23000002    2.39000010
   12.38527775  181.50900269    2.23000002    2.39000010
   12.38861084  206.84100342    2.23000002    2.39000010
   12.39166641  191.07400513    2.23000002    2.39000010
   12.39499950  185.74000549    2.21000004    2.40000010
   12.39583302  220.63600159    2.21000004    2.40000010
   12.39888859  192.17799377    2.21000004    2.40000010
   12.40194416  192.46699524    2.21000004    2.40000010
   12.40527725  207.59199524    2.21000004    2.40000010
   12.41111088  207.59199524    2.19000006    2.40000010
   12.41527748  191.33799744    2.19000006    2.40000010
   12.41833401  163.76400757    2.19000006    2.40000010
   12.42166710  203.71699524    2.19000006    2.42000008
   12.42500019  157.86900330    2.19000006    2.40000010
   12.42805576  172.02499390    2.17000008    2.40000010
   12.42916679  176.80099487    2.17000008    2.40000010
   12.43194485  187.63699341    2.17000008    2.42000008
   12.43500042  179.64500427    2.17000008    2.40000010
   12.43833351  178.98300171    2.17000008    2.42000008
   12.44138908  188.34199524    2.17000008    2.40000010
   12.44472218  177.40100098    2.15000010    2.40000010
   12.44805527  186.13900757    2.15000010    2.40000010
   12.45388889  186.13900757    2.15000010    2.40000010
   12.45805550  186.75000000    2.15000010    2.42000008
   12.46138859  189.56900024    2.15000010    2.42000008
   12.46249962  171.89799500    2.15000010    2.40000010
   12.46500015  203.43099976    2.15000010    2.42000008
   12.46805477  170.13699341    2.15000010    2.42000008
   12.47138882  168.61700439    2.13000011    2.42000008
   12.47472191  166.44299316    2.13000011    2.42000008
   12.47777748  171.97999573    2.13000011    2.44000006
   12.48111057  153.95599365    2.11999989    2.42000008
   12.48444462  173.23399353    2.11999989    2.44000006
   12.48750019  172.43800354    2.11999989    2.44000006
   12.49083328  153.65699768    2.11999989    2.42000008
   12.49666691  153.65699768    2.11999989    2.42000008
   12.50083351  177.46899414    2.11999989    2.42000008
   12.50416660  167.01199341    2.09999990    2.42000008
   12.50749969  163.00000000    2.09999990    2.42000008
   12.51055527  169.97700500    2.09999990    2.44000006
   12.51388931  170.10899353    2.09999990    2.44000006
   12.51694393  170.00900269    2.09999990    2.44000006
   12.52027798  177.95300293    2.07999992    2.44000006
   12.52361107  179.41999817    2.07999992    2.44000006
   12.52666664  168.72500610    2.07999992    2.44000006
   12.52916622  169.81300354    2.07999992    2.44000006
   12.53055573  169.69799805    2.07999992    2.46000004
   12.53361130  181.03199768    2.05999994    2.44000006
   12.53972244  181.03199768    2.05999994    2.44000006
   12.54361153  163.50000000    2.03999996    2.44000006
   12.54694462  178.24600220    2.03999996    2.46000004
   12.55027771  159.84399414    2.03999996    2.44000006
   12.55333328  168.55099487    2.03999996    2.46000004
   12.55666733  175.73100281    2.03999996    2.46000004
   12.56000042  172.18200684    2.03999996    2.46000004
   12.56250000  161.41400146    2.03999996    2.46000004
   12.56361103  174.46099854    2.01999998    2.46000004
   12.56666660  173.03199768    2.01999998    2.46000004
   12.56999969  171.07099915    2.01999998    2.46000004
   12.57333374  165.60099792    2.01999998    2.46000004
   12.57638836  162.73699951    2.01999998    2.46000004
   12.58249950  162.73699951    2.00000000    2.46000004
   12.58666611  165.49600220    1.98000002    2.46000004
   12.58972168  161.87500000    1.98000002    2.46000004
   12.59305477  156.35499573    1.98000002    2.46000004
   12.59583282  155.25300598    1.98000002    2.46000004
   12.59666634  168.97700500    1.98000002    2.46000004
   12.60000038  155.41799927    1.98000002    2.46000004
   12.60305595  152.86599731    2.00000000    2.46000004
   12.60638905  166.47399902    1.98000002    2.48000002
   12.60972214  163.25900269    1.98000002    2.48000002
   12.61277771  151.67399597    1.98000002    2.48000002
   12.61611176  160.25599670    1.98000002    2.48000002
   12.61916637  177.82000732    1.98000002    2.48000002
   12.62527752  177.82000732    1.96000004    2.48000002
   12.62944412  149.00500488    1.96000004    2.48000002
   12.63277817  168.19500732    1.96000004    2.48000002
   12.63583279  160.04200745    1.96000004    2.46000004
   12.63916683  175.13299561    1.96000004    2.48000002
   12.64249992  171.27099609    1.94000006    2.48000002
   12.64555550  162.46400452    1.94000006    2.48000002
   12.64888859  154.34800720    1.94000006    2.48000002
   12.65222168  146.36900330    1.94000006    2.48000002
   12.65527725  158.76199341    1.94000006    2.50000000
   12.65861034  155.68600464    1.94000006    2.50000000
   12.66166592  147.46600342    1.94000006    2.50000000
   12.66249943  161.99400330    1.94000006    2.50000000
   12.66805553  161.99400330    1.91999996    2.50000000
   12.67222214  148.40600586    1.91999996    2.48000002
   12.67555618  143.39799500    1.91999996    2.48000002
   12.67861176  172.69799805    1.89999998    2.48000002
   12.68194485  153.46699524    1.91999996    2.50000000
   12.68527794  157.55400085    1.91999996    2.48000002
   12.68833351  158.54400635    1.89999998    2.50000000
   12.69166660  174.14999390    1.89999998    2.50000000
   12.69499969  149.96499634    1.89999998    2.50000000
   12.69583321  143.94799805    1.89999998    2.50000000
   12.69861126  143.92100525    1.88000000    2.50000000
   12.70166683  151.04600525    1.88000000    2.50000000
   12.70499992  166.26499939    1.88000000    2.50000000
   12.71111107  166.26499939    1.88000000    2.51999998
   12.71500015  146.11599731    1.88000000    2.50000000
   12.71833324  144.67399597    1.88000000    2.51999998
   12.72166634  140.57800293    1.86000001    2.51999998
   12.72472191  149.24600220    1.86000001    2.50000000
   12.72805500  147.79699707    1.86000001    2.51999998
   12.72916603  150.10699463    1.86000001    2.51999998
   12.73166656  147.53799438    1.86000001    2.51999998
   12.73472214  146.27900696    1.86000001    2.50000000
   12.73805618  142.79699707    1.86000001    2.51999998
   12.74138927  163.58700562    1.86000001    2.51999998
   12.74444485  149.78599548    1.86000001    2.50000000
   12.74777794  158.02299500    1.85000002    2.51999998
   12.75388908  158.02299500    1.85000002    2.51999998
   12.75805569  146.83599854    1.85000002    2.50000000
   12.76111126  149.36799622    1.85000002    2.51999998
   12.76249981  131.93899536    1.85000002    2.51999998
   12.76500034  167.28100586    1.83000004    2.53999996
   12.76805496  162.40499878    1.83000004    2.51999998
   12.77138901  151.31199646    1.83000004    2.51999998
   12.77472210  152.57600403    1.83000004    2.51999998
   12.77777767  149.98500061    1.80999994    2.51999998
   12.78111076  157.57800293    1.80999994    2.53999996
   12.78444481  141.29400635    1.80999994    2.51999998
   12.78750038  137.31900024    1.80999994    2.51999998
   12.79083347  138.65400696    1.78999996    2.53999996
   12.79666710  138.65400696    1.78999996    2.53999996
   12.80083370  141.25500488    1.76999998    2.53999996
   12.80416679  137.66700745    1.78999996    2.51999998
   12.80722237  148.15899658    1.76999998    2.51999998
   12.81055546  143.41999817    1.76999998    2.53999996
   12.81361103  147.31599426    1.76999998    2.53999996
   12.81694412  155.91999817    1.78999996    2.53999996
   12.82027817  143.28799438    1.76999998    2.53999996
   12.82333374  155.46600342    1.76999998    2.53999996
   12.82666683  141.60000610    1.76999998    2.53999996
   12.82916641  135.93299866    1.76999998    2.53999996
   12.83027744  143.53599548    1.76999998    2.53999996
   12.83333302  139.74600220    1.76999998    2.53999996
   12.83944416  139.74600220    1.75000000    2.55999994
   12.84361076  135.16999817    1.76999998    2.55999994
   12.84694386  145.79200745    1.75000000    2.53999996
   12.85000038  135.41700745    1.75000000    2.53999996
   12.85333347  139.85499573    1.75000000    2.55999994
   12.85666752  130.50799561    1.75000000    2.55999994
   12.85972214  149.26899719    1.75000000    2.55999994
   12.86250019  137.59399414    1.75000000    2.55999994
   12.86361122  132.67999268    1.75000000    2.53999996
   12.86666679  141.77799988    1.75000000    2.55999994
   12.86999989  157.67500305    1.73000002    2.55999994
   12.87333393  136.10800171    1.73000002    2.55999994
   12.87638855  156.42399597    1.73000002    2.55999994
   12.88249969  156.42399597    1.73000002    2.55999994
   12.88638878  149.02200317    1.73000002    2.53999996
   12.88972187  139.57499695    1.73000002    2.55999994
   12.89305496  147.97399902    1.73000002    2.55999994
   12.89583302  147.63999939    1.71000004    2.55999994
   12.89666653  141.31300354    1.71000004    2.55999994
   12.89972210  139.89700317    1.71000004    2.55999994
   12.90305519  142.11300659    1.71000004    2.55999994
   12.90638828  136.73599243    1.71000004    2.57999992
   12.90944386  161.14100647    1.71000004    2.57999992
   12.91277695  153.94599915    1.71000004    2.57999992
   12.91611099  145.23500061    1.71000004    2.57999992
   12.91916656  152.90199280    1.71000004    2.57999992
   12.92527771  152.90199280    1.69000006    2.57999992
   12.92944431  127.03700256    1.69000006    2.57999992
   12.93249989  134.52900696    1.66999996    2.55999994
   12.93583298  162.69500732    1.66999996    2.57999992
   12.93916702  149.24499512    1.66999996    2.55999994
   12.94222260  159.33599854    1.66999996    2.57999992
   12.94555569  169.59300232    1.69000006    2.57999992
   12.94861126  154.13200378    1.69000006    2.57999992
   12.95194435  139.46099854    1.69000006    2.57999992
   12.95527744  170.53100586    1.69000006    2.57999992
   12.95833302  147.00700378    1.69000006    2.57999992
   12.96166611  150.20700073    1.69000006    2.57999992
   12.96249962  146.34199524    1.69000006    2.57999992
   12.98333359  146.34199524    1.66999996    2.59999990
   12.98750019  145.35899353    1.66999996    2.59999990
   12.99055576  137.13999939    1.66999996    2.57999992
   12.99388885  140.91600037    1.66999996    2.59999990
   12.99583340  143.44799805    1.66999996    2.57999992
   12.99750042  145.04699707    1.66999996    2.57999992
   13.00083351  147.81300354    1.66999996    2.57999992
   13.00388908  150.08000183    1.66999996    2.57999992
   13.00722218  166.98199463    1.66999996    2.57999992
   13.01027775  170.29800415    1.66999996    2.57999992
   13.01361084  154.06300354    1.66999996    2.59999990
   13.01694393  154.74299622    1.66999996    2.59999990
   13.01999950  162.24200439    1.66999996    2.59999990
   13.02611065  162.24200439    1.66999996    2.59999990
   13.03027725  178.91200256    1.64999998    2.59999990
   13.03333378  176.28999329    1.64999998    2.59999990
   13.03666687  197.11099243    1.63000000    2.59999990
   13.03972244  181.47900391    1.63000000    2.57999992
   13.04305553  185.78599548    1.63000000    2.59999990
   13.04638958  175.23699951    1.64999998    2.59999990
   13.04944515  173.78999329    1.63000000    2.59999990
   13.05277824  169.56199646    1.64999998    2.61999989
   13.05611134  175.33799744    1.63000000    2.59999990
   13.05916691  154.20199585    1.63000000    2.57999992
   13.06250000  147.54400635    1.63000000    2.59999990
   13.06305599  140.21099854    1.63000000    2.59999990
   13.06888866  140.21099854    1.63000000    2.59999990
   13.07305527  149.10699463    1.63000000    2.59999990
   13.07611084  140.32899475    1.63000000    2.59999990
   13.07944393  154.07699585    1.63000000    2.59999990
   13.08277798  153.02400208    1.63000000    2.59999990
   13.08583260  147.34800720    1.63000000    2.59999990
   13.08916664  139.04299927    1.63000000    2.59999990
   13.09249973  149.50900269    1.63000000    2.59999990
   13.09555531  145.83200073    1.63000000    2.59999990
   13.09638882  138.27799988    1.63000000    2.59999990
   13.09916592  142.39199829    1.63000000    2.61999989
   13.10249996  138.82099915    1.63000000    2.61999989
   13.10583401  155.37199402    1.63000000    2.59999990
   13.11166668  155.37199402    1.61000001    2.59999990
   13.11583328  139.27400208    1.61000001    2.59999990
   13.11916637  138.72300720    1.61000001    2.59999990
   13.12222195  139.18600464    1.61000001    2.61999989
   13.12555599  160.26100159    1.61000001    2.59999990
   13.12888908  148.82000732    1.61000001    2.59999990
   13.12972260  154.39199829    1.61000001    2.59999990
   13.13222218  139.08500671    1.61000001    2.61999989
   13.13555527  144.26899719    1.61000001    2.61999989
   13.13888836  143.58999634    1.61000001    2.61999989
   13.14194393  141.26400757    1.61000001    2.61999989
   13.14527798  132.37699890    1.61000001    2.59999990
   13.14861107  141.72900391    1.61000001    2.61999989
   13.15444374  141.72900391    1.61000001    2.61999989
   13.15861034  157.06300354    1.61000001    2.61999989
   13.16194439  134.05999756    1.61000001    2.61999989
   13.16305542  152.16400146    1.60000002    2.59999990
   13.16527748  146.38400269    1.60000002    2.61999989
   13.16861153  144.53300476    1.61000001    2.61999989
   13.17194462  144.96899414    1.61000001    2.61999989
   13.17500019  151.05700684    1.61000001    2.64000010
   13.17833328  138.92599487    1.61000001    2.64000010
   13.18166733  135.78900146    1.60000002    2.64000010
   13.18472195  153.22000122    1.60000002    2.61999989
   13.18805599  153.07600403    1.60000002    2.61999989
   13.19111156  142.12100220    1.60000002    2.61999989
   13.19750023  142.12100220    1.60000002    2.61999989
   13.20166683  138.46000671    1.60000002    2.64000010
   13.20472240  143.15600586    1.60000002    2.64000010
   13.20805550  137.89999390    1.58000004    2.61999989
   13.21111107  146.66600037    1.58000004    2.64000010
   13.21444416  135.41400146    1.58000004    2.61999989
   13.21777725  144.75399780    1.60000002    2.64000010
   13.22083282  146.18800354    1.60000002    2.59999990
   13.22416592  144.43099976    1.58000004    2.61999989
   13.22749996  140.35699463    1.58000004    2.61999989
   13.22972202  145.90199280    1.58000004    2.61999989
   13.23083305  149.44700623    1.58000004    2.64000010
   13.23416710  146.13299561    1.58000004    2.64000010
   13.24027824  146.13299561    1.60000002    2.64000010
   13.24444485  129.25500488    1.58000004    2.61999989
   13.24750042  137.32800293    1.60000002    2.64000010
   13.25083351  138.27200317    1.58000004    2.61999989
   13.25416660  163.77200317    1.58000004    2.61999989
   13.25722218  166.72700500    1.58000004    2.61999989
   13.26055527  152.12100220    1.58000004    2.61999989
   13.26305580  152.46800232    1.58000004    2.61999989
   13.26388931  159.73100281    1.58000004    2.64000010
   13.26722240  150.89999390    1.55999994    2.64000010
   13.27055550  159.25500488    1.55999994    2.64000010
   13.27361107  153.06399536    1.55999994    2.64000010
   13.27694416  161.21499634    1.55999994    2.64000010
   13.28305531  161.21499634    1.55999994    2.64000010
   13.28722286  170.81300354    1.55999994    2.64000010
   13.29055595  147.52000427    1.53999996    2.64000010
   13.29361153  166.66499329    1.53999996    2.61999989
   13.29638958  171.50799561    1.53999996    2.64000010
   13.29722309  201.61300659    1.53999996    2.64000010
   13.30055618  178.78700256    1.53999996    2.64000010
   13.30388927  190.90600586    1.53999996    2.61999989
   13.30694485  193.95300293    1.53999996    2.66000009
   13.31027794  162.17799377    1.51999998    2.66000009
   13.31361103  186.61199951    1.51999998    2.64000010
   13.31666660  185.02699280    1.51999998    2.64000010
   13.31999969  203.33399963    1.51999998    2.64000010
   13.32583332  203.33399963    1.51999998    2.66000009
   13.32999992  181.89999390    1.51999998    2.64000010
   13.33333302  163.09300232    1.51999998    2.64000010
   13.33638859  174.74499512    1.51999998    2.66000009
   13.33972168  174.52000427    1.51999998    2.66000009
   13.34305477  201.30700684    1.51999998    2.66000009
   13.34611034  216.69299316    1.51999998    2.66000009
   13.34944439  188.55299377    1.51999998    2.66000009
   13.35277843  176.46299744    1.51999998    2.66000009
   13.35583401  210.04699707    1.51999998    2.66000009
   13.35916710  182.89100647    1.51999998    2.64000010
   13.36222267  195.05099487    1.50000000    2.66000009
   13.36305618  210.08999634    1.50000000    2.64000010
   13.36888885  210.08999634    1.50000000    2.64000010
   13.37277794  202.07000732    1.50000000    2.64000010
   13.37611103  188.99499512    1.50000000    2.66000009
   13.37944412  186.48800659    1.50000000    2.64000010
   13.38249969  179.17399597    1.50000000    2.66000009
   13.38583279  200.40199280    1.50000000    2.66000009
   13.38916683  202.04800415    1.50000000    2.66000009
   13.39222240  204.20899963    1.50000000    2.66000009
   13.39555550  193.49699402    1.50000000    2.66000009
   13.39666653  237.30000305    1.50000000    2.66000009
   13.39944458  213.41000366    1.50000000    2.64000010
   13.40249920  190.50500488    1.50000000    2.66000009
   13.40583324  227.06399536    1.51999998    2.66000009
   13.41166592  227.06399536    1.51999998    2.64000010
   13.41583252  245.77699280    1.51999998    2.66000009
   13.41888905  261.24600220    1.51999998    2.66000009
   13.42222214  267.30700684    1.53999996    2.64000010
   13.42555618  225.45799255    1.53999996    2.64000010
   13.42861176  245.62199402    1.53999996    2.66000009
   13.42972279  260.24600220    1.53999996    2.66000009
   13.43249989  256.38900757    1.53999996    2.66000009
   13.43555546  267.54998779    1.53999996    2.64000010
   13.43888855  234.65400696    1.53999996    2.66000009
   13.44194412  227.20399475    1.53999996    2.66000009
   13.44527817  279.23800659    1.53999996    2.66000009
   13.44861126  261.72900391    1.53999996    2.67000008
   13.45444393  261.72900391    1.53999996    2.66000009
   13.45861053  265.24700928    1.53999996    2.66000009
   13.46194458  366.09399414    1.53999996    2.66000009
   13.46388912  361.18798828    1.53999996    2.67000008
   13.46500015  386.12899780    1.53999996    2.67000008
   13.46638870  265.76400757    1.53999996    2.67000008
   13.46777725  347.63000488    1.53999996    2.66000009
   13.46916580  332.08700562    1.53999996    2.66000009
   13.47055531  359.38101196    1.53999996    2.66000009
   13.47194386  395.70800781    1.53999996    2.66000009
   13.47333336  357.54098511    1.53999996    2.66000009
   13.47472191  409.70700073    1.53999996    2.66000009
   13.47611046  388.51300049    1.53999996    2.66000009
   13.47749996  381.25601196    1.53999996    2.66000009
   13.47888851  451.29699707    1.53999996    2.66000009
   13.48027706  407.02999878    1.53999996    2.66000009
   13.48166656  387.14300537    1.53999996    2.66000009
   13.48305511  467.47100830    1.53999996    2.66000009
   13.48444462  396.39401245    1.53999996    2.66000009
   13.48583317  410.69100952    1.53999996    2.66000009
   13.48722267  496.10101318    1.53999996    2.66000009
   13.48861122  528.68798828    1.53999996    2.66000009
   13.49000072  412.20901489    1.53999996    2.66000009
   13.49138927  483.85900879    1.53999996    2.66000009
   13.49277782  522.07501221    1.53999996    2.67000008
   13.49416733  464.21899414    1.53999996    2.66000009
   13.49555588  479.12100220    1.53999996    2.67000008
   13.49694443  510.20199585    1.53999996    2.67000008
   13.49833393  549.94000244    1.53999996    2.67000008
   13.49972248  525.61401367    1.53999996    2.67000008
   13.50111103  507.82598877    1.53999996    2.67000008
   13.50249958  423.68399048    1.53999996    2.66000009
   13.50388908  492.87100220    1.53999996    2.66000009
   13.50527763  430.13000488    1.53999996    2.66000009
   13.50666714  364.84500122    1.53999996    2.66000009
   13.50805569  348.94100952    1.53999996    2.66000009
   13.50944424  345.98199463    1.53999996    2.66000009
   13.51083374  309.05300903    1.53999996    2.66000009
   13.51222229  246.27000427    1.53999996    2.66000009
   13.51249981  261.72900391    1.53999996    2.67000008
   13.51249981  265.24700928    1.53999996    2.66000009
   13.51277733  366.09399414    1.53999996    2.66000009
   13.51277733  245.62199402    1.53999996    2.66000009
   13.51277733  256.38900757    1.53999996    2.66000009
   13.51305580  267.54998779    1.53999996    2.64000010
   13.51305580  234.65400696    1.53999996    2.66000009
   13.51305580  227.20399475    1.53999996    2.66000009
   13.51333332  279.23800659    1.53999996    2.66000009
   13.51388931  189.25500488    1.51999998    2.67000008
   13.51694393  182.49499512    1.51999998    2.66000009
   13.52027798  162.64900208    1.51999998    2.66000009
   13.52361107  155.06500244    1.51999998    2.67000008
   13.52666664  154.17900085    1.50000000    2.67000008
   13.53305531  154.17900085    1.51999998    2.67000008
   13.53722286  119.33999634    1.50000000    2.67000008
   13.54055595  149.37600708    1.50000000    2.67000008
   13.54388905  167.19500732    1.51999998    2.66000009
   13.54611111  135.85600281    1.50000000    2.66000009
   13.54750061  102.55300140    1.50000000    2.66000009
   13.55083370  111.56999969    1.50000000    2.66000009
   13.55388927   65.65419769    1.50000000    2.67000008
   13.55722237   76.37400055    1.50000000    2.67000008
   13.56055546   -1.00000000    1.50000000    2.67000008
   13.56361103   37.07059860    1.50000000    2.67000008
   13.56694412   -1.00000000    1.50000000    2.67000008
   13.56999969   -1.00000000    1.50000000    2.67000008
   13.57611084   -1.00000000    1.50000000    2.67000008
   13.57999992   -1.00000000    1.50000000    2.66000009
   13.58333302   -1.00000000    1.50000000    2.66000009
   13.58666611   -1.00000000    1.48000002    2.67000008
   13.58972168   -1.00000000    1.48000002    2.69000006
   13.59305477   -1.00000000    1.48000002    2.67000008
   13.59638882   -1.00000000    1.48000002    2.67000008
   13.59944439   -1.00000000    1.48000002    2.67000008
   13.60277843   -1.00000000    1.48000002    2.67000008
   13.60583401   -1.00000000    1.46000004    2.67000008
   13.60916710   -1.00000000    1.46000004    2.69000006
   13.61250019   -1.00000000    1.46000004    2.67000008
   13.62277794   -1.00000000    1.44000006    2.69000006
   13.62611103   -1.00000000    1.44000006    2.67000008
   13.62944412   -1.00000000    1.44000006    2.67000008
   13.63249969   -1.00000000    1.44000006    2.69000006
   13.63583279   -1.00000000    1.41999996    2.67000008
   13.63916683   -1.00000000    1.41999996    2.67000008
   13.64222240   -1.00000000    1.41999996    2.69000006
   13.64555550   -1.00000000    1.41999996    2.69000006
   13.64916611   -1.00000000    1.41999996    2.69000006
   13.65249920   -1.00000000    1.39999998    2.69000006
   13.65555477   -1.00000000    1.39999998    2.67000008
   13.66583252   -1.00000000    1.38000000    2.69000006
   13.66888905   -1.00000000    1.36000001    2.69000006
   13.67222214   -1.00000000    1.36000001    2.69000006
   13.67555618   -1.00000000    1.36000001    2.69000006
   13.67861176   -1.00000000    1.38000000    2.69000006
   13.68222237   -1.00000000    1.36000001    2.69000006
   13.68555546   -1.00000000    1.36000001    2.67000008
   13.68861103   -1.00000000    1.36000001    2.67000008
   13.69194412   -1.00000000    1.36000001    2.69000006
   13.69527817  175.61300659    1.38000000    2.69000006
   13.69833374  141.30400085    1.38000000    2.69000006
   13.70444393  141.30400085    1.38000000    2.69000006
   13.70861053  163.11900330    1.36000001    2.69000006
   13.71194458  166.96600342    1.36000001    2.69000006
   13.71305561  162.76199341    1.38000000    2.69000006
   13.71555519  174.46099854    1.36000001    2.69000006
   13.71888828  163.32899475    1.38000000    2.71000004
   13.72222137  152.23100281    1.36000001    2.69000006
   13.72527695  152.58900452    1.36000001    2.69000006
   13.72861099  166.24499512    1.36000001    2.69000006
   13.73194408  167.77900696    1.36000001    2.69000006
   13.73500061  154.52200317    1.36000001    2.71000004
   13.73833370  172.35099792    1.36000001    2.71000004
   13.74138927  150.93699646    1.36000001    2.69000006
   13.74750042  150.93699646    1.36000001    2.71000004
   13.75138855  158.48599243    1.36000001    2.71000004
   13.75472260  157.20599365    1.36000001    2.69000006
   13.75805569  151.94900513    1.36000001    2.69000006
   13.93194485   -1.00000000   -1.00000000   -1.00000000
   13.96749973  157.79100037    1.36000001    2.71000004
   13.97055531  150.26800537    1.36000001    2.71000004
   13.97388840  148.32200623    1.36000001    2.71000004
   13.97694397  158.27200317    1.36000001    2.71000004
   13.98027706  164.14300537    1.36000001    2.71000004
   13.98361111  149.91299438    1.36000001    2.71000004
   13.98777771  149.91299438    1.36000001    2.71000004
   13.99166679  146.39900208    1.36000001    2.71000004
   13.99499989  155.27699280    1.36000001    2.71000004
   13.99833393  151.67500305    1.36000001    2.71000004
   14.00055599  147.27499390    1.36000001    2.71000004
   14.00194454  157.80700684    1.36000001    2.71000004
   14.00527763  152.08500671    1.36000001    2.71000004
   14.00833321  157.86399841    1.36000001    2.71000004
   14.01166630  154.89799500    1.36000001    2.71000004
   14.01500034  150.36799622    1.36000001    2.71000004
   14.01805496  150.27499390    1.36000001    2.71000004
   14.02138901  151.84899902    1.36000001    2.71000004
   14.02444458  152.81599426    1.36000001    2.71000004
   14.03055573  152.81599426    1.36000001    2.71000004
   14.03472233  152.41700745    1.36000001    2.71000004
   14.03777790  156.00500488    1.36000001    2.71000004
   14.04111195  144.46299744    1.36000001    2.71000004
   14.04444504  154.42900085    1.36000001    2.71000004
   14.04750061  162.43299866    1.36000001    2.71000004
   14.05083370  149.38400269    1.36000001    2.71000004
   14.05388927  153.88000488    1.36000001    2.71000004
   14.05722237  153.88999939    1.36000001    2.71000004
   14.06055546  145.87699890    1.36000001    2.71000004
   14.06361103  143.83099365    1.36000001    2.71000004
   14.06694412  151.22599792    1.36000001    2.71000004
   14.06750011  150.69700623    1.36000001    2.71000004
   14.07333374  150.69700623    1.36000001    2.71000004
   14.07750034  147.77299500    1.36000001    2.71000004
   14.08083344  147.41000366    1.36000001    2.71000004
   14.08388901  148.14199829    1.36000001    2.71000004
   14.08722210  147.30200195    1.36000001    2.71000004
   14.09055519  153.11999512    1.36000001    2.71000004
   14.09361076  153.25599670    1.36000001    2.71000004
   14.09694386  151.50999451    1.36000001    2.71000004
   14.10027790  153.29899597    1.36000001    2.71000004
   14.10083389  155.57600403    1.36000001    2.71000004
   14.10388947  150.94700623    1.36000001    2.71000004
   14.10694504  152.00000000    1.36000001    2.71000004
   14.11027813  144.74499512    1.36000001    2.71000004
   14.11638927  144.74499512    1.36000001    2.71000004
   14.12027836  153.55700684    1.36000001    2.71000004
   14.12361145  148.07800293    1.36000001    2.71000004
   14.12694454  148.08000183    1.36000001    2.71000004
   14.13000011  152.69299316    1.36000001    2.71000004
   14.13333321  156.38800049    1.36000001    2.69000006
   14.13416672  152.25799561    1.36000001    2.69000006
   14.13694477  153.57499695    1.16999996    2.73000002
   14.14000034  160.33500671    1.16999996    2.73000002
   14.14333344  158.19099426    1.16999996    2.75000000
   14.14666653  153.16200256    1.16999996    2.75000000
   14.14972210  153.33299255    1.16999996    2.75000000
   14.15305519  145.55900574    1.16999996    2.75000000
   14.15916634  145.55900574    1.16999996    2.75000000
   14.16333294  149.53700256    1.14999998    2.75000000
   14.16638851  154.03300476    1.14999998    2.75000000
   14.16750050  152.59800720    1.14999998    2.75000000
   14.17027855  155.33200073    1.14999998    2.75000000
   14.17333412  151.40100098    1.14999998    2.75000000
   14.17666721  151.58799744    1.14999998    2.76999998
   14.18000031  149.99899292    1.14999998    2.75000000
   14.18305588  149.55099487    1.14999998    2.75000000
   14.18638897  151.65499878    1.14999998    2.75000000
   14.18944454  151.65899658    1.14999998    2.75000000
   14.19277763  143.62800598    1.14999998    2.75000000
   14.19611073   -1.00000000    1.14999998    2.76999998
   14.20611095  149.56100464    1.14999998    2.75000000
   14.20916653  166.84100342    1.14999998    2.75000000
   14.21249962  145.73500061    1.14999998    2.76999998
   14.21555519  148.39500427    1.14999998    2.75000000
   14.21888828  153.36900330    1.14999998    2.75000000
   14.22222137  145.62100220    1.14999998    2.75000000
   14.22527695  154.72399902    1.14999998    2.75000000
   14.22861099  158.56799316    1.14999998    2.75000000
   14.23194408  160.75000000    1.14999998    2.75000000
   14.23416710  160.67399597    1.14999998    2.75000000
   14.23555565  158.71600342    1.14999998    2.75000000
   14.23861122  160.40100098    1.14999998    2.75000000
   14.24472237  160.40100098    1.16999996    2.75000000
   14.24888897   -1.00000000    1.16999996    2.75000000
   14.25222206  226.83299255    1.16999996    2.75000000
   14.25527763  153.33099365    1.14999998    2.73000002
   14.25861073  153.64900208    1.14999998    2.75000000
   14.26194477  153.69999695    1.14999998    2.75000000
   14.26500034  146.66400146    1.14999998    2.76999998
   14.26749992  155.05299377    1.14999998    2.75000000
   14.26888847  155.41400146    1.14999998    2.75000000
   14.27194405  146.99800110    1.14999998    2.75000000
   14.27527714  144.92599487    1.14999998    2.76999998
   14.27861118  164.38900757    1.14999998    2.76999998
   14.28166676  154.77799988    1.14999998    2.75000000
   14.28750038  154.77799988    1.14999998    2.76999998
   14.29166698  165.78999329    1.14999998    2.75000000
   14.29500008  154.31300354    1.14999998    2.75000000
   14.29833412  158.70799255    1.14999998    2.75000000
   14.30083370  158.11300659    1.14999998    2.76999998
   14.30194473  162.52999878    1.14999998    2.76999998
   14.30500031  168.68600464    1.14999998    2.76999998
   14.30833340  145.64900208    1.16999996    2.76999998
   14.31166649  156.45700073    1.16999996    2.76999998
   14.31472206  158.20599365    1.16999996    2.76999998
   14.31805515  145.30499268    1.14999998    2.75000000
   14.32138920  152.76600647    1.16999996    2.76999998
   14.32444477  153.43600464    1.14999998    2.75000000
   14.33055592  153.43600464    1.14999998    2.75000000
   14.33472157  169.15800476    1.14999998    2.76999998
   14.33777714  157.07699585    1.14999998    2.76999998
   14.34111118  156.93299866    1.14999998    2.76999998
   14.34416676  155.11099243    1.14999998    2.76999998
   14.34749985  161.44299316    1.14999998    2.76999998
   14.35083389  165.76499939    1.14999998    2.76999998
   14.35388947  157.91200256    1.14999998    2.76999998
   14.35722256  158.50799561    1.16999996    2.76999998
   14.36055565  154.43400574    1.16999996    2.76999998
   14.36361122  164.42100525    1.16999996    2.76999998
   14.36694431  158.66400146    1.16999996    2.75000000
   14.36750031  158.68499756    1.16999996    2.75000000
   14.37333393  158.68499756    1.16999996    2.76999998
   14.37750053  162.94200134    1.16999996    2.76999998
   14.38055611  160.66600037    1.16999996    2.76999998
   14.38388920  162.81599426    1.16999996    2.76999998
   14.38722229  153.86000061    1.16999996    2.76999998
   14.39027786  165.60899353    1.16999996    2.75000000
   14.39361095  159.52400208    1.16999996    2.75000000
   14.39694405  163.78199768    1.16999996    2.75000000
   14.39999962  164.01100159    1.16999996    2.75000000
   14.40083313  153.98899841    1.16999996    2.75000000
   14.40361118  155.62699890    1.16999996    2.76999998
   14.40694427  156.42799377    1.16999996    2.75000000
   14.40999985  161.20599365    1.19000006    2.76999998
   14.41611099  161.20599365    1.16999996    2.76999998
   14.42027855  159.44500732    1.16999996    2.75000000
   14.42361164  159.99299622    1.16999996    2.76999998
   14.42666721  144.21200562    1.16999996    2.76999998
   14.43000031  148.84800720    1.16999996    2.76999998
   14.43333340  154.99400330    1.16999996    2.76999998
   14.43416691  148.45899963    1.16999996    2.76999998
   14.43694496  161.48100281    1.16999996    2.76999998
   14.44000053  145.19000244    1.16999996    2.76999998
   14.44333363  149.99200439    1.14999998    2.76999998
   14.44666672  152.21200562    1.16999996    2.76999998
   14.44972229  157.51899719    1.16999996    2.76999998
   14.45305538  150.13099670    1.16999996    2.76999998
   14.45888901  150.13099670    1.16999996    2.76999998
   14.46305561  148.58500671    1.19000006    2.76999998
   14.46638870  158.34500122    1.21000004    2.75000000
   14.46749973  153.17100525    1.21000004    2.75000000
   14.46999931  148.37600708    1.21000004    2.76999998
   14.47305489  148.15299988    1.21000004    2.75000000
   14.56888866   -1.00000000   -1.00000000   -1.00000000
   14.68333340   -1.00000000   -1.00000000   -1.00000000
   14.83722210   -1.00000000   -1.00000000   -1.00000000
   14.89305496   91.09580231    0.98000002    2.80999994
   14.89638901  159.27699280    1.00000000    2.80999994
   14.89972210  159.03799438    1.00000000    2.80999994
   14.90277767  158.46800232    1.00000000    2.80999994
   14.90611076  165.08000183    1.00000000    2.80999994
   14.90944386  150.36300659    1.00000000    2.82999992
   14.91333294  150.36300659    0.98000002    2.80999994
   14.91750050  155.16900635    0.98000002    2.82999992
   14.92083359  148.73399353    0.98000002    2.82999992
   14.92416668  154.69400024    0.98000002    2.82999992
   14.92638874  148.64999390    0.98000002    2.82999992
   14.92777824  153.36000061    1.00000000    2.80999994
   14.93111134  151.24099731    1.00000000    2.80999994
   14.93416691  154.30000305    1.00000000    2.80999994
   14.93750000  153.53500366    1.00000000    2.80999994
   14.94083309  151.06300354    1.00000000    2.80999994
   14.94388866  152.93499756    1.01999998    2.80999994
   14.94722271  157.75599670    1.01999998    2.80999994
   14.95027733  148.24499512    1.01999998    2.82999992
   14.95638847  148.24499512    1.03999996    2.82999992
   14.96055508  149.63499451    1.03999996    2.80999994
   14.96361065  140.10200500    1.05999994    2.80999994
   14.96694374  152.03500366    1.05999994    2.80999994
   14.96999931  153.53500366    1.05999994    2.80999994
   14.97333336  149.36799622    1.07000005    2.80999994
   14.97666645  147.40699768    1.07000005    2.82999992
   14.97972202  158.36199951    1.09000003    2.80999994
   14.98305511  148.51199341    1.09000003    2.82999992
   14.98638916  155.37399292    1.09000003    2.80999994
   14.98944473  159.57899475    1.09000003    2.80999994
   14.99277782  153.47099304    1.09000003    2.80999994
   14.99333382  161.33799744    1.09000003    2.80999994
   14.99916649  161.33799744    1.09000003    2.80999994
   15.00333309  153.18699646    1.09000003    2.80999994
   15.00638866  153.45599365    1.09000003    2.80999994
   15.00972176  150.90100098    1.09000003    2.80999994
   15.01305580  146.63499451    1.09000003    2.80999994
   15.01611137  149.40199280    1.07000005    2.80999994
   15.01944447  154.88400269    1.07000005    2.80999994
   15.02277756  150.35800171    1.07000005    2.80999994
   15.02583313  159.87199402    1.07000005    2.80999994
   15.02666664  156.66799927    1.07000005    2.80999994
   15.02944374  164.96800232    1.07000005    2.80999994
   15.03277779  155.40600586    1.07000005    2.80999994
   15.03611183  162.97200012    1.07000005    2.82999992
   15.04194450  162.97200012    1.05999994    2.80999994
   15.04611111  162.76699829    1.05999994    2.82999992
   15.04944515  161.70599365    1.05999994    2.80999994
   15.05249977  161.98199463    1.05999994    2.80999994
   15.05583382  150.81799316    1.05999994    2.80999994
   15.05916691  146.32099915    1.05999994    2.82999992
   15.06000042  156.36500549    1.05999994    2.82999992
   15.06250000  151.36599731    1.03999996    2.82999992
   15.06583309  161.30099487    1.03999996    2.80999994
   15.06916618  162.94500732    1.03999996    2.80999994
   15.07222176  153.64999390    1.03999996    2.80999994
   15.07555580  156.23100281    1.01999998    2.80999994
   15.07888889  151.70500183    1.01999998    2.80999994
   15.08472157  151.70500183    1.01999998    2.80999994
   15.08888817  152.15400696    1.01999998    2.80999994
   15.09222221  161.54200745    1.01999998    2.80999994
   15.09333324  152.83500671    1.01999998    2.80999994
   15.09583282  154.02699280    1.00000000    2.80999994
   15.09916592  151.22799683    1.00000000    2.82999992
   15.10249996  161.58200073    1.00000000    2.82999992
   15.10555553  161.91600037    0.98000002    2.80999994
   15.10888958  163.24400330    0.98000002    2.80999994
   15.11222267  150.13400269    0.98000002    2.80999994
   15.11527824  150.58999634    1.00000000    2.80999994
   15.11861134  144.11000061    1.00000000    2.80999994
   15.12166691  151.21000671    1.00000000    2.82999992
   15.12777805  151.21000671    1.01999998    2.82999992
   15.13194466  153.83399963    1.01999998    2.80999994
   15.13500023  148.02600098    1.01999998    2.80999994
   15.13833332  150.57099915    1.01999998    2.82999992
   15.14138889  151.27299500    1.01999998    2.82999992
   15.14472198  156.49800110    1.01999998    2.82999992
   15.14805508  150.11599731    1.01999998    2.80999994
   15.15111065  151.68400574    1.01999998    2.82999992
   15.15444374  147.31599426    1.01999998    2.80999994
   15.15777779  153.12699890    1.01999998    2.80999994
   15.15999985  150.42900085    1.01999998    2.82999992
   15.16111088  152.48100281    1.01999998    2.82999992
   15.16444397  149.75599670    1.01999998    2.82999992
   15.17055607  149.75599670    1.00000000    2.80999994
   15.17472267  151.41000366    1.00000000    2.82999992
   15.17777824  153.95500183    0.98000002    2.82999992
   15.18111134  155.47700500    0.98000002    2.80999994
   15.18444443  164.45700073    0.98000002    2.82999992
   15.18750000  151.38600159    0.98000002    2.80999994
   15.19083309  157.80400085    0.98000002    2.82999992
   15.19333363  161.65199280    0.98000002    2.82999992
   15.19444466  159.17199707    0.98000002    2.82999992
   15.19777775  153.15800476    0.98000002    2.82999992
   15.20111084  150.64700317    0.98000002    2.82999992
   15.20416641  153.02900696    0.98000002    2.82999992
   15.20749950  146.88600159    0.98000002    2.82999992
   15.21333313  146.88600159    0.98000002    2.82999992
   15.21749973  171.33700562    0.98000002    2.82999992
   15.22083282  157.88200378    0.98000002    2.82999992
   15.22388840  155.87500000    0.98000002    2.82999992
   15.22666645  151.51600647    0.98000002    2.82999992
   15.22749996  149.56700134    0.98000002    2.82999992
   15.23083305  142.37300110    0.98000002    2.82999992
   15.23416710  152.35699463    0.98000002    2.82999992
   15.23722267  147.32400513    0.98000002    2.82999992
   15.24055576  150.93400574    1.00000000    2.80999994
   15.24388885  147.90699768    1.00000000    2.82999992
   15.24694443  153.39199829    1.00000000    2.82999992
   15.25027752  153.38000488    1.00000000    2.82999992
   15.25611115  153.38000488    1.01999998    2.82999992
   15.26027775  155.46899414    1.00000000    2.82999992
   15.26361084  147.30900574    1.00000000    2.82999992
   15.26694393  151.00100708    1.00000000    2.82999992
   15.26999950  152.60200500    0.98000002    2.80999994
   15.27333355  154.68800354    0.98000002    2.80999994
   15.27638817  152.79899597    0.98000002    2.82999992
   15.27972221  151.48699951    0.95999998    2.82999992
   15.28305531  149.23100281    0.98000002    2.82999992
   15.28611183  152.45300293    0.98000002    2.82999992
   15.28944492  157.22200012    0.98000002    2.82999992
   15.29277802  157.13200378    0.98000002    2.82999992
   15.29333401  153.50599670    0.98000002    2.82999992
   15.29916668  153.50599670    0.95999998    2.82999992
   15.30333328  156.17500305    0.95999998    2.82999992
   15.30638885  154.26300049    0.95999998    2.82999992
   15.30972195  157.23199463    0.94000000    2.82999992
   15.31277752  159.65699768    0.94000000    2.84999990
   15.31611156  159.95500183    0.94000000    2.84999990
   15.31944466  157.15899658    0.94000000    2.82999992
   15.32277775  166.24699402    0.94000000    2.82999992
   15.32583332  154.34199524    0.94000000    2.82999992
   15.32666683  154.83200073    0.95999998    2.82999992
   15.32972240  151.68200684    0.95999998    2.84999990
   15.33277798  158.36999512    0.95999998    2.82999992
   15.33611107  157.75000000    0.98000002    2.82999992
   15.34194374  157.75000000    0.98000002    2.82999992
   15.34611034  150.03399658    0.98000002    2.80999994
   15.34916592  160.51899719    0.98000002    2.82999992
   15.35249996  149.48300171    0.98000002    2.82999992
   15.35583401  151.70300293    0.98000002    2.82999992
   15.35888958  145.73599243    0.98000002    2.82999992
   15.36000061  152.44299316    0.98000002    2.82999992
   15.36277771  152.56199646    0.98000002    2.82999992
   15.36583328  153.09500122    0.98000002    2.84999990
   15.36916637  149.46200562    0.98000002    2.82999992
   15.37222195  151.74000549    0.98000002    2.82999992
   15.37555599  149.36000061    0.98000002    2.82999992
   15.37888908  156.63099670    0.98000002    2.82999992
   15.38472176  156.63099670    0.95999998    2.84999990
   15.38888836  148.21499634    0.95999998    2.84999990
   15.39222240  146.08099365    0.95999998    2.82999992
   15.39333344  146.16000366    0.95999998    2.82999992
   15.39583302  151.06700134    0.95999998    2.82999992
   15.39888859  154.14700317    0.94000000    2.82999992
   15.40222168  153.43699646    0.95999998    2.84999990
   15.40527725  151.17100525    0.95999998    2.82999992
   15.40861034  148.05099487    0.95999998    2.82999992
   15.41194439  153.64199829    0.98000002    2.82999992
   15.41499996  146.16099548    0.98000002    2.80999994
   15.41833401  147.85699463    0.98000002    2.82999992
   15.42166710  147.43600464    0.98000002    2.82999992
   15.42750072  147.43600464    0.98000002    2.82999992
   15.43166733  151.71200562    0.95999998    2.82999992
   15.43500042  151.49099731    0.95999998    2.82999992
   15.43805599  151.39500427    0.95999998    2.82999992
   15.44138908  142.82600403    0.98000002    2.82999992
   15.44472218  141.92999268    0.95999998    2.82999992
   15.44777775  150.07299805    0.95999998    2.84999990
   15.45111084  150.00000000    0.98000002    2.82999992
   15.45444393  138.68400574    0.95999998    2.82999992
   15.45749950  169.29899597    0.95999998    2.82999992
   15.46000004  154.17999268    0.95999998    2.82999992
   15.46138859  146.90899658    0.95999998    2.82999992
   15.46444416  154.71299744    0.95999998    2.82999992
   15.47055531  154.71299744    0.94000000    2.84999990
   15.47444439  147.43499756    0.94000000    2.82999992
   15.47777748  153.98300171    0.94000000    2.84999990
   15.48111057  144.58000183    0.94000000    2.82999992
   15.48416710  147.22900391    0.94000000    2.82999992
   15.48750019  155.91299438    0.94000000    2.82999992
   15.49083328  146.31100464    0.94000000    2.82999992
   15.49333382  153.65699768    0.94000000    2.84999990
   15.49444485  151.97599792    0.94000000    2.84999990
   15.49750042  150.47700500    0.94000000    2.82999992
   15.50083351  145.11399841    0.94000000    2.84999990
   15.50388908  144.62899780    0.94000000    2.82999992
   15.50722218  147.92500305    0.94000000    2.84999990
   15.51333332  147.92500305    0.94000000    2.84999990
   15.51749992  152.82600403    0.94000000    2.82999992
   15.52055550  151.70700073    0.94000000    2.82999992
   15.52388859  145.42399597    0.94000000    2.84999990
   15.52666664  151.94999695    0.94000000    2.82999992
   15.52750015  148.64799500    0.94000000    2.84999990
   15.53055573  152.66400146    0.94000000    2.84999990
   15.53388977  142.71400452    0.94000000    2.84999990
   15.53694534  147.70899963    0.94000000    2.84999990
   15.54027843  149.98599243    0.94000000    2.84999990
   15.54361153  142.50100708    0.94000000    2.84999990
   15.54666710  156.02999878    0.94000000    2.84999990
   15.55000019  152.21200562    0.92000002    2.84999990
   15.55611134  152.21200562    0.92000002    2.84999990
   15.56027794  157.10400391    0.92000002    2.84999990
   15.56361103  148.92100525    0.89999998    2.84999990
   15.56666660  153.33200073    0.92000002    2.84999990
   15.56999969  151.03500366    0.89999998    2.84999990
   15.57333374  152.80299377    0.89999998    2.84999990
   15.57638836  158.55700684    0.92000002    2.84999990
   15.57972240  153.81199646    0.92000002    2.84999990
   15.58277798  148.50000000    0.92000002    2.84999990
   15.58611107  150.13699341    0.92000002    2.84999990
   15.58944416  147.99699402    0.92000002    2.84999990
   15.59249973  145.98599243    0.92000002    2.84999990
   15.59333324  147.74400330    0.92000002    2.84999990
   15.59888840  147.74400330    0.92000002    2.84999990
   15.60305595  142.28500366    0.92000002    2.84999990
   15.60638905  145.99499512    0.94000000    2.84999990
   15.60944462  143.61500549    0.92000002    2.84999990
   15.61277771  147.35699463    0.92000002    2.86999989
   15.61611176  141.45199585    0.92000002    2.84999990
   15.61916637  150.27499390    0.92000002    2.84999990
   15.62250042  143.60099792    0.92000002    2.84999990
   15.62583351  152.14599609    0.92000002    2.84999990
   15.62666702  153.27999878    0.92000002    2.84999990
   15.62944412  148.66000366    0.92000002    2.84999990
   15.63249969  146.88900757    0.92000002    2.84999990
   15.63583279  146.15400696    0.92000002    2.82999992
   15.64194393  146.15400696    0.92000002    2.84999990
   15.64583302  155.29800415    0.92000002    2.84999990
   15.64916611  149.39300537    0.92000002    2.84999990
   15.65249920  149.66999817    0.94000000    2.84999990
   15.65555477  148.86099243    0.94000000    2.84999990
   15.65888882  148.75399780    0.94000000    2.84999990
   15.65999985  146.91700745    0.94000000    2.84999990
   15.66249943  146.52799988    0.94000000    2.84999990
   15.66555500  148.64399719    0.94000000    2.84999990
   15.66888905  149.19999695    0.94000000    2.84999990
   15.67222214  146.87500000    0.94000000    2.82999992
   15.67527771  144.39999390    0.94000000    2.84999990
   15.67861176  145.60200500    0.94000000    2.84999990
   15.68472195  145.60200500    0.94000000    2.84999990
   15.68888855  151.26400757    0.95999998    2.84999990
   15.69194412  154.70599365    0.95999998    2.82999992
   15.69333363  143.38099670    0.95999998    2.82999992
   15.69583321  147.51400757    0.95999998    2.82999992
   15.69888878  149.37100220    0.95999998    2.84999990
   15.70222187  148.34199524    0.95999998    2.84999990
   15.70555496  150.28500366    0.98000002    2.84999990
   15.70861053  142.38400269    0.98000002    2.82999992
   15.71194458  150.64100647    0.98000002    2.84999990
   15.71500015  148.69799805    0.95999998    2.84999990
   15.71833324  146.24600220    0.95999998    2.82999992
   15.72166634  150.78399658    0.95999998    2.82999992
   15.72749996  150.78399658    0.95999998    2.84999990
   15.73166656  155.75399780    0.94000000    2.84999990
   15.73500061  155.32699585    0.94000000    2.84999990
   15.73805618  148.98800659    0.94000000    2.84999990
   15.74138927  152.11199951    0.94000000    2.84999990
   15.74444485  152.85099792    0.94000000    2.82999992
   15.74777794  151.29499817    0.94000000    2.86999989
   15.75111103  147.91000366    0.94000000    2.86999989
   15.75416660  146.03500366    0.94000000    2.84999990
   15.75749969  144.50000000    0.89999998    2.86999989
   15.76000023  141.22999573    0.89999998    2.84999990
   15.76111126  144.49899292    0.89999998    2.86999989
   15.76416683  148.32299805    0.89999998    2.84999990
   15.77027798  148.32299805    0.88000000    2.84999990
   15.77444458  151.11799622    0.86000001    2.84999990
   15.77777767  134.19900513    0.86000001    2.86999989
   15.78083324  146.71400452    0.86000001    2.86999989
   15.78416729  149.88299561    0.86000001    2.86999989
   15.78750038  138.56599426    0.86000001    2.84999990
   15.79055595  145.63099670    0.86000001    2.84999990
   15.79333401  140.19799805    0.86000001    2.84999990
   15.79444504  142.78500366    0.86000001    2.84999990
   15.79750061  143.35099792    0.86000001    2.84999990
   15.80083370  151.21600342    0.86000001    2.86999989
   15.80416679  144.48399353    0.86000001    2.86999989
   15.80722237  152.49299622    0.86000001    2.86999989
   15.81333351  152.49299622    0.86000001    2.86999989
   15.81722260  146.05900574    0.86000001    2.86999989
   15.82055569  150.38299561    0.86000001    2.86999989
   15.82388878  150.15199280    0.86000001    2.86999989
   15.82666683  148.51300049    0.86000001    2.86999989
   15.82750034  147.58799744    0.86000001    2.86999989
   15.83055592  154.19599915    0.86000001    2.86999989
   15.83388901  148.81500244    0.86000001    2.86999989
   15.83722210  141.98300171    0.86000001    2.86999989
   15.84027767  146.15299988    0.86000001    2.86999989
   15.84361076  150.42399597    0.86000001    2.84999990
   15.84694386  154.25900269    0.86000001    2.84999990
   15.85000038  149.79400635    0.86000001    2.84999990
   15.85611153  149.79400635    0.89999998    2.86999989
   15.86027813  148.42300415    0.86000001    2.86999989
   15.86333370  146.22399902    0.86000001    2.86999989
   15.86666679  153.47900391    0.86000001    2.86999989
   15.86999989  150.27400208    0.86000001    2.86999989
   15.87305546  146.21600342    0.86000001    2.86999989
   15.87638855  149.55799866    0.86000001    2.86999989
   15.87944412  150.20799255    1.03999996    2.86999989
   15.88277817  152.65899658    1.01999998    2.86999989
   15.88611126  153.20599365    0.86000001    2.86999989
   15.88916683  171.38000488    0.86000001    2.86999989
   15.89249992  161.67199707    0.83999997    2.86999989
   15.89333344  161.71200562    0.83999997    2.86999989
   15.91416645  161.71200562    0.86000001    2.86999989
   15.91833401  144.36199951    0.86000001    2.86999989
   15.92138958  152.10200500    0.86000001    2.86999989
   15.92472267  150.24899292    0.86000001    2.84999990
   15.92666721  155.09500122    0.86000001    2.86999989
   15.92833328  148.50500488    0.86000001    2.84999990
   15.93166733  152.58200073    0.88000000    2.86999989
   15.93472195  151.37300110    0.86000001    2.86999989
   15.93805599  156.62199402    0.67000002    2.84999990
   15.94111156  147.13299561    0.67000002    2.84999990
   15.94444466  144.38000488    0.86000001    2.86999989
   15.94777775  149.16799927    0.86000001    2.84999990
   15.95083332  140.84599304    0.86000001    2.82999992
   15.95694447  140.84599304    0.86000001    2.84999990
   15.96111107  152.95300293    0.56999999    2.84999990
   15.96416664  146.93299866    0.56999999    2.84999990
   15.96749973  151.97099304    0.86000001    2.86999989
   15.97055531  153.55900574    0.86000001    2.86999989
   15.97388840  153.97099304    0.86000001    2.86999989
   15.97722149  145.50000000    0.86000001    2.86999989
   15.98027706  157.06500244    0.94000000    2.84999990
   15.98361111  141.30200195    0.50000000    0.73000002
   15.98694515  151.34100342    0.86000001    2.86999989
   15.99000072  163.65100098    0.86000001    2.86999989
   15.99333382  137.85800171    0.86000001    2.84999990
   15.99388885  157.25199890    0.86000001    2.84999990
   15.99972248  157.25199890    1.07000005    2.86999989
   16.00388908  147.57099915    1.09000003    2.86999989
   16.00694466  157.39399719    1.11000001    2.86999989
   16.01027870  153.51199341    0.89999998    2.84999990
   16.01361084  147.46699524    0.89999998    2.86999989
   16.01666641  149.77099609    0.89999998    2.86999989
   16.02000046  146.13699341    1.09000003    2.84999990
   16.02305603  154.45899963    1.09000003    2.84999990
   16.02638817  149.43099976    1.07000005    2.84999990
   16.02722168  149.31300354    1.07000005    2.84999990
   16.03000069  142.54100037    0.89999998    2.84999990
   16.03333282  143.55799866    0.89999998    2.86999989
   16.03666687  153.97099304    0.89999998    2.86999989
   16.04249954  153.97099304    0.89999998    2.86999989
   16.04666710  149.75300598    0.88000000    2.84999990
   16.04999924  149.02099609    0.88000000    2.86999989
   16.05305481  153.30599976    0.88000000    2.86999989
   16.05638885  158.75500488    0.73000002    2.84999990
   16.05972099  146.32899475    0.73000002    2.84999990
   16.06055450  157.26300049    0.73000002    2.84999990
   16.06305504  153.93499756    0.89999998    2.84999990
   16.06638718  146.07200623    0.89999998    2.84999990
   16.06972313  145.46699524    0.88000000    2.86999989
   16.07277870  141.86300659    0.88000000    2.86999989
   16.07611275  145.87800598    0.69000000    2.50000000
   16.07944489  144.31500244    0.89999998    2.84999990
   16.08527756  144.31500244    0.89999998    2.84999990
   16.08944511  153.25399780    0.61000001    0.34000000
   16.09277916  154.65699768    0.89999998    2.84999990
   16.09388924  163.50300598    0.89999998    2.86999989
   16.09611130  169.90100098    0.89999998    2.84999990
   16.09944534  160.27099609    0.89999998    2.84999990
   16.10277748  155.13999939    0.89999998    2.84999990
   16.10583305  143.11900330    0.89999998    2.84999990
   16.10916710  149.40199280    0.89999998    2.86999989
   16.11250114  145.24600220    0.92000002    2.86999989
   16.11555672  147.23899841    0.89999998    2.86999989
   16.11888885  144.80799866    0.89999998    2.86999989
   16.12194443  157.42999268    0.89999998    2.86999989
   16.12833405  157.42999268    0.73000002    2.84999990
   16.13249969  160.35499573    0.92000002    2.84999990
   16.13555527  160.92100525    0.89999998    2.84999990
   16.13888931  151.79100037    0.89999998    2.84999990
   16.14194489  172.63200378    0.89999998    2.84999990
   16.14527702  165.66600037    0.89999998    2.84999990
   16.14861107  162.94299316    0.89999998    2.86999989
   16.15166664  155.18600464    0.89999998    2.86999989
   16.15499878  181.97599792    0.89999998    2.86999989
   16.15833282  158.70599365    0.89999998    2.86999989
   16.16055489  165.87699890    0.89999998    2.82999992
   16.16166687  156.38699341    0.67000002    2.84999990
   16.16499901  165.28900146    0.89999998    2.84999990
   16.17111015  165.28900146    0.89999998    2.86999989
   16.17527771  162.59800720    0.89999998    2.86999989
   16.17833328  176.25100708    0.89999998    2.86999989
   16.18166542  182.59800720    1.05999994    2.84999990
   16.18499947  187.85600281    0.89999998    2.84999990
   16.18805504  153.00999451    0.89999998    2.84999990
   16.19138718  157.62500000    0.89999998    2.84999990
   16.19388771  161.28999329    0.89999998    2.84999990
   16.19472122  159.29600525    0.89999998    2.84999990
   16.19805527  161.77499390    0.89999998    2.82999992
   16.20138931  159.98199463    0.95999998    2.84999990
   16.20444489  158.10899353    0.88000000    2.84999990
   16.20777893  158.63400269    0.88000000    2.84999990
   16.21389008  158.63400269    0.88000000    2.84999990
   16.21805573  156.81100464    0.88000000    2.84999990
   16.22138977  153.11399841    0.88000000    2.84999990
   16.22444534  152.17999268    0.88000000    2.84999990
   16.22722244  153.66900635    0.88000000    2.84999990
   16.22805595  155.99899292    0.88000000    2.84999990
   16.23139000  157.12199402    0.88000000    2.84999990
   16.23472214  149.97799683    0.88000000    2.86999989
   16.23777771  146.13800049    0.88000000    2.86999989
   16.24111176  152.97999573    0.88000000    2.86999989
   16.24444389  151.66900635    0.88000000    2.86999989
   16.24749947  156.04499817    0.86000001    0.50000000
   16.25083351  152.86799622    0.88000000    2.86999989
   16.25666618  152.86799622    0.88000000    2.84999990
   16.26083374  155.96200562    0.88000000    2.84999990
   16.26416588  152.76499939    0.88000000    2.84999990
   16.26749992  149.70599365    0.88000000    2.84999990
   16.27055550  158.79899597    0.86000001    2.86999989
   16.27388954  154.30000305    0.86000001    2.86999989
   16.27694511  158.61199951    0.86000001    2.86999989
   16.28027725  155.00900269    0.86000001    2.86999989
   16.28361130  156.82099915    0.86000001    2.86999989
   16.28666687  151.91600037    0.86000001    2.84999990
   16.28999901  159.42300415    0.86000001    2.84999990
   16.29333305  159.85400391    0.86000001    2.84999990
   16.29388809  158.77900696    0.86000001    2.84999990
   16.29972076  158.77900696    0.86000001    2.84999990
   16.30360985  139.56700134    0.86000001    2.84999990
   16.30694389  155.44099426    0.89999998    2.84999990
   16.31027794  152.16400146    0.88000000    2.82999992
   16.31333351  151.30999756    0.88000000    2.82999992
   16.31666756  156.09300232    0.88000000    2.82999992
   16.32000160  154.05200195    0.89999998    2.82999992
   16.32305717  145.10099792    0.92000002    2.82999992
   16.32638931  160.88000488    0.92000002    2.82999992
   16.32722282  152.03700256    0.92000002    2.82999992
   16.33000183  150.71699524    0.92000002    2.82999992
   16.33305550  157.60600281    0.92000002    2.82999992
   16.33638954  158.95799255    0.92000002    2.82999992
   16.34250069  158.95799255    0.89999998    2.82999992
   16.34666824  156.16799927    0.89999998    2.82999992
   16.34972191  151.25799561    0.89999998    2.82999992
   16.35333443  158.56199646    0.89999998    2.82999992
   16.35666656  157.43200684    0.89999998    1.41999996
   16.35972214  159.71099854    1.01999998    2.00000000
   16.36055565  158.44099426    1.01999998    2.00000000
   16.36361122  155.05000305    1.01999998    2.00000000
   16.36666679  155.27299500    1.01999998    2.00000000
   16.37000084  154.06300354    1.01999998    2.00000000
   16.37305641  159.95599365    1.03999996    1.94000006
   16.37638855  153.89399719    1.13000000    0.13000000
   16.37972260  155.59100342    1.13000000    0.07000000
   16.38527679  155.59100342    1.13000000    0.07000000
   16.38944435  150.14100647    1.13000000    0.07000000
   16.39277840  154.59599304    1.13000000    0.07000000
   16.39388847  154.48199463    1.13000000    0.07000000
   16.39638901  159.52699280    1.13000000    0.07000000
   16.39944458  157.92900085    1.13000000    0.07000000
   16.40277672  151.93400574    1.13000000    0.07000000
   16.40583229  167.35699463    1.13000000    0.07000000
   16.40916634  164.18200684    1.13000000    0.07000000
   16.41250038  152.50599670    1.13000000    0.07000000
   16.41583252  154.22500610    1.13000000    0.07000000
   16.41888809  157.93499756    1.13000000    0.07000000
   16.42222214  151.38099670    1.13000000    0.07000000
   16.42805481  151.38099670    1.13000000    0.07000000
   16.43222237  150.10600281    1.13000000    0.07000000
   16.43555450  160.02799988    1.13000000    0.07000000
   16.43861008  157.59100342    1.13000000    0.07000000
   16.44194412  159.68499756    1.13000000    0.07000000
   16.44527626  158.59399414    1.13000000    0.07000000
   16.44833183  155.85099792    1.13000000    0.07000000
   16.45166779  152.07400513    1.13000000    0.07000000
   16.45499992  162.75000000    1.13000000    0.07000000
   16.45805550  153.25199890    1.13000000    0.07000000
   16.46055603  199.02999878    1.13000000    0.07000000
   16.46194458  159.13099670    1.13000000    0.07000000
   16.46500015  162.33700562    1.13000000    0.07000000
   16.47111130  162.33700562    1.13000000    0.07000000
   16.47500038  179.57800293    1.13000000    0.07000000
   16.47833443  175.07600403    1.13000000    0.07000000
   16.48166656  167.00100708    1.13000000    0.07000000
   16.48472214  145.68200684    1.13000000    0.07000000
   16.48805618  181.14999390    1.13000000    0.07000000
   16.49138832  147.96200562    1.13000000    0.07000000
   16.49388885  150.96699524    1.13000000    0.07000000
   16.49500084  143.82800293    1.13000000    0.07000000
   16.49805641  176.93600464    1.13000000    0.07000000
   16.50138855  162.42399597    1.13000000    0.07000000
   16.50472260  185.32499695    1.13000000    0.07000000
   16.50777817  163.97799683    1.13000000    0.07000000
   16.51388931  163.97799683    1.13000000    0.07000000
   16.51805496  165.72399902    1.13000000    0.07000000
   16.52111053  195.25000000    1.13000000    0.07000000
   16.52444458  203.37600708    1.13000000    0.07000000
   16.52722168  198.89399719    1.13000000    0.07000000
   16.52805519  198.57699585    1.13000000    0.07000000
   16.53111076  178.48699951    1.13000000    0.07000000
   16.53444481  167.63600159    1.13000000    0.07000000
   16.53750038  198.03399658    1.13000000    0.07000000
   16.54083252  163.10499573    1.13000000    0.07000000
   16.54416656  217.73199463    1.13000000    0.07000000
   16.54722214  160.30900574    1.13000000    0.07000000
   16.55055428  179.56100464    1.13000000    0.07000000
   16.55666542  179.56100464    1.13000000    0.07000000
   16.56083298  189.49299622    1.13000000    0.07000000
   16.56416512  195.48899841    1.13000000    0.07000000
   16.56722260  163.57200623    1.13000000    0.07000000
   16.57055664  159.59899902    1.13000000    0.07000000
   16.57361221  168.90299988    1.13000000    0.07000000
   16.57694626  177.75000000    1.13000000    0.07000000
   16.58027840  184.34300232    1.13000000    0.07000000
   16.58333397  166.94999695    1.13000000    0.07000000
   16.58666801  160.71899414    1.13000000    0.07000000
   16.59000015  165.73100281    1.13000000    0.07000000
   16.59305573  181.98699951    1.13000000    0.07000000
   16.59388924  179.10899353    1.13000000    0.07000000
   16.59944534  179.10899353    1.13000000    0.07000000
   16.60361099  169.45599365    1.13000000    0.07000000
   16.60694504  166.85600281    1.13000000    0.07000000
   16.61000061  189.04600525    1.13000000    0.07000000
   16.61333466  159.73500061    1.13000000    0.07000000
   16.61666679  173.05400085    1.13000000    0.07000000
   16.61972237  176.91099548    1.13000000    0.07000000
   16.62305641  170.43400574    1.13000000    0.07000000
   16.62638855  193.28500366    1.13000000    0.07000000
   16.62722206  180.43800354    1.13000000    0.07000000
   16.63000107  179.52699280    1.13000000    0.07000000
   16.63305473  186.53500366    1.13000000    0.07000000
   16.63638878  182.01100159    1.13000000    0.07000000
   16.64249992  182.01100159    1.13000000    0.07000000
   16.64638901  187.24899292    1.13000000    0.07000000
   16.64972115  175.88499451    1.13000000    0.07000000
   16.65305519  192.95799255    1.13000000    0.07000000
   16.65611076  178.21200562    1.13000000    0.07000000
   16.65944481  177.59800720    1.13000000    0.07000000
   16.66055489  182.12300110    1.13000000    0.07000000
   16.66305542  178.03399658    1.13000000    0.07000000
   16.66611099  175.32299805    1.13000000    0.07000000
   16.66944313  160.66099548    1.13000000    0.07000000
   16.67277718  182.19900513    1.13000000    0.07000000
   16.67583275  167.69799805    1.13000000    0.07000000
   16.67916679  173.43099976    1.13000000    0.07000000
   16.68527603  173.43099976    1.13000000    0.07000000
   16.68944359  187.28900146    1.13000000    0.07000000
   16.69249916  162.06799316    1.13000000    0.07000000
   16.69388771  170.84599304    1.13000000    0.07000000
   16.69638824  175.70500183    1.13000000    0.07000000
   16.69944382  173.11199951    1.13000000    0.07000000
   16.70277786  170.40100098    1.13000000    0.07000000
   16.70611191  174.05499268    1.13000000    0.07000000
   16.70916748  170.60200500    1.13000000    0.07000000
   16.71250153  167.10600281    1.13000000    0.07000000
   16.71555710  178.77600098    1.13000000    0.07000000
   16.71888924  165.68699646    1.13000000    0.07000000
   16.72222328  177.83500671    1.13000000    0.07000000
   16.72805595  177.83500671    1.13000000    0.07000000
   16.73222351  188.97000122    1.13000000    0.07000000
   16.73555565  165.06700134    1.13000000    0.07000000
   16.73861122  172.18800354    1.13000000    0.07000000
   16.74194527  167.80900574    1.13000000    0.07000000
   16.74500084  164.74699402    1.13000000    0.07000000
   16.74833298  151.10200500    1.13000000    0.07000000
   16.75166702  159.84700012    1.13000000    0.07000000
   16.75472260  162.76600647    1.13000000    0.07000000
   16.75805473  155.11399841    1.13000000    0.07000000
   16.76055527  154.77900696    1.13000000    0.07000000
   16.76166725  170.95300293    1.13000000    0.07000000
   16.76472282  157.32499695    1.13000000    0.07000000
   16.77083397  157.32499695    1.13000000    0.07000000
   16.77499962  160.19200134    1.13000000    0.07000000
   16.77833366  166.79100037    1.13000000    0.07000000
   16.78138924  172.79200745    1.13000000    0.07000000
   16.78472137  165.45300293    1.13000000    0.07000000
   16.78805542  162.16000366    1.13000000    0.07000000
   16.79111099  163.95799255    1.13000000    0.07000000
   16.79388809  164.44500732    1.13000000    0.07000000
   16.79500008  177.04499817    1.13000000    0.07000000
   16.79805565  166.38200378    1.13000000    0.07000000
   16.80138779  155.98500061    1.13000000    0.07000000
   16.80472183  155.39799500    1.13000000    0.07000000
   16.80777740  161.38200378    1.13000000    0.07000000
   16.81388855  161.38200378    1.13000000    0.07000000
   16.81777954  166.71000671    1.13000000    0.07000000
   16.82111168  160.85899353    1.13000000    0.07000000
   16.82444572  167.63900757    1.13000000    0.07000000
   16.82722282  165.38400269    1.13000000    0.07000000
   16.82805634  171.56700134    1.13000000    0.07000000
   16.83111191  161.59500122    1.13000000    0.07000000
   16.83444595  168.84700012    1.13000000    0.07000000
   16.83777809  164.83799744    1.13000000    0.07000000
   16.84083366  160.51100159    1.13000000    0.07000000
   16.84416771  160.67700195    1.13000000    0.07000000
   16.84722328  164.18200684    1.13000000    0.07000000
   16.85055542  177.58000183    1.13000000    0.07000000
   16.85666656  177.58000183    1.13000000    0.07000000
   16.86083412  161.69200134    1.13000000    0.07000000
   16.86388969  156.10299683    1.13000000    0.07000000
   16.86722183  157.79800415    1.13000000    0.07000000
   16.87027740  175.07400513    1.13000000    0.07000000
   16.87361145  163.67199707    1.13000000    0.07000000
   16.87694550  162.91600037    1.13000000    0.07000000
   16.88000107  165.71600342    1.13000000    0.07000000
   16.88333321  167.50700378    1.13000000    0.07000000
   16.88666725  166.19500732    1.13000000    0.07000000
   16.88972282  160.02099609    1.13000000    0.07000000
   16.89305496  163.54699707    1.13000000    0.07000000
   16.89388847  159.33299255    1.13000000    0.07000000
   16.89944458  159.33299255    1.13000000    0.07000000
   16.90361023  162.23800659    1.13000000    0.07000000
   16.90666580  156.69799805    1.13000000    0.07000000
   16.90999985  162.70199585    1.13000000    0.07000000
   16.92777634  156.33900452    1.13000000    0.07000000
   16.93000031  157.79100037    1.13000000    0.07000000
   16.93333244  151.76199341    1.13000000    0.07000000
   16.93638802  167.01100159    1.13000000    0.07000000
   16.94249916  167.01100159    1.13000000    0.07000000
   16.94666672  163.13099670    1.13000000    0.07000000
   16.94972038  155.44299316    1.13000000    0.07000000
   16.95305634  151.25700378    1.13000000    0.07000000
   16.95639038  155.74600220    1.13000000    0.07000000
   16.95944595  156.84700012    1.13000000    0.07000000
   16.96083450  155.36300659    1.13000000    0.07000000
   16.96333504  154.17700195    1.13000000    0.07000000
   16.96638870  154.24299622    1.13000000    0.07000000
   16.96972275  153.92999268    1.13000000    0.07000000
   16.97305679  234.43400574    1.13000000    0.07000000
   16.97611237  157.96499634    1.13000000    0.07000000
   16.97944450  159.36399841    1.13000000    0.07000000
   16.98527718  159.36399841    1.13000000    0.07000000
   16.98944473  157.29299927    1.13000000    0.07000000
   16.99277878  156.04299927    1.13000000    0.07000000
   16.99416733  165.54400635    1.13000000    0.07000000
   16.99638939  170.08299255    1.13000000    0.07000000
   16.99944496  153.95500183    1.13000000    0.07000000
   17.00277710  152.72700500    1.13000000    0.07000000
   17.00611115  151.95399475    1.13000000    0.07000000
   17.00916672  147.18699646    1.13000000    0.07000000
   17.01250076  154.29400635    1.13000000    0.07000000
   17.01583290  154.49600220    1.13000000    0.07000000
   17.01888847  141.42700195    1.13000000    0.07000000
   17.02222252  163.38099670    1.13000000    0.07000000
   17.02805519  163.38099670    1.13000000    0.07000000
   17.03222275  148.12500000    1.13000000    0.07000000
   17.03555489  156.30599976    1.13000000    0.07000000
   17.03861046  154.85000610    1.13000000    0.07000000
   17.04194450  156.78900146    1.13000000    0.07000000
   17.04527664  154.00199890    1.13000000    0.07000000
   17.04833221  159.65199280    1.13000000    0.07000000
   17.05166626  156.34800720    1.13000000    0.07000000
   17.05499840  155.98300171    1.13000000    0.07000000
   17.05805397  150.32800293    1.13000000    0.07000000
   17.06083298  156.77200317    1.13000000    0.07000000
   17.06194305  158.58900452    1.13000000    0.07000000
   17.06499863  149.35000610    1.13000000    0.07000000
   17.07111168  149.35000610    1.13000000    0.07000000
   17.07500076  154.66000366    1.13000000    0.07000000
   17.07833481  150.59800720    1.13000000    0.07000000
   17.08166695  147.70199585    1.13000000    0.07000000
   17.08472252  156.71499634    1.13000000    0.07000000
   17.08805656  148.90499878    1.13000000    0.07000000
   17.09138870  137.03399658    1.13000000    0.07000000
   17.09416771  153.69900513    1.13000000    0.07000000
   17.09500122  145.76800537    1.13000000    0.07000000
   17.09805679  150.21600342    1.13000000    0.07000000
   17.10138893  158.26100159    1.13000000    0.07000000
   17.10472298  154.57600403    1.13000000    0.07000000
   17.10777855  156.61099243    1.13000000    0.07000000
   17.11388969  156.61099243    1.13000000    0.07000000
   17.11805534  153.58599854    1.13000000    0.07000000
   17.12111092  175.53500366    1.13000000    0.07000000
   17.12444496  157.19400024    1.13000000    0.07000000
   17.12750053  154.07099915    1.13000000    0.07000000
   17.12805557  158.40699768    1.13000000    0.07000000
   17.13111115  158.77000427    1.13000000    0.07000000
   17.13444519  155.69799805    1.13000000    0.07000000
   17.13777733  162.31799316    1.13000000    0.07000000
   17.14083290  158.30700684    1.13000000    0.07000000
   17.14416695  148.15100098    1.13000000    0.07000000
   17.14749908  148.81599426    1.13000000    0.07000000
   17.15055466  160.69799805    1.13000000    0.07000000
   17.15666580  160.69799805    1.13000000    0.07000000
   17.16083336  149.14500427    1.13000000    0.07000000
   17.16138840  155.72599792    1.13000000    0.07000000
   17.16444397  150.96000671    1.13000000    0.07000000
   17.16777802  156.47500610    1.13000000    0.07000000
   17.17111015  147.72300720    1.13000000    0.07000000
   17.17416573  147.20899963    1.13000000    0.07000000
   17.17749977  148.11500549    1.13000000    0.07000000
   17.18083191  152.01800537    1.13000000    0.07000000
   17.18388748  152.90800476    1.13000000    0.07000000
   17.18722153  151.26400757    1.13000000    0.07000000
   17.19055557  152.53500366    1.13000000    0.07000000
   17.19361115  153.51800537    1.13000000    0.07000000
   17.19416618  157.41600037    1.13000000    0.07000000
   17.19944382  157.41600037    1.13000000    0.07000000
   17.20361137  147.85299683    1.13000000    0.07000000
   17.20694542  151.05499268    1.13000000    0.07000000
   17.21000099  152.68299866    1.13000000    0.07000000
   17.21333504  154.04200745    1.13000000    0.07000000
   17.21666718  153.05400085    1.13000000    0.07000000
   17.21972275  147.69000244    1.13000000    0.07000000
   17.22305679  144.37600708    1.13000000    0.07000000
   17.22638893  149.79899597    1.13000000    0.07000000
   17.22750092  153.35400391    1.13000000    0.07000000
   17.23000145  144.15499878    1.13000000    0.07000000
   17.23333359  142.64799500    1.13000000    0.07000000
   17.23638916  144.45899963    1.13000000    0.07000000
   17.24250031  144.45899963    1.13000000    0.07000000
   17.24638939  142.01800537    1.13000000    0.07000000
   17.24972153  144.87500000    1.13000000    0.07000000
   17.25305557  143.63400269    1.13000000    0.07000000
   17.25611115  143.03500366    1.13000000    0.07000000
   17.25944519  146.15899658    1.13000000    0.07000000
   17.26083374  148.93800354    1.13000000    0.07000000
   17.26305580  148.27200317    1.13000000    0.07000000
   17.26638794  149.42599487    1.13000000    0.07000000
   17.26944351  144.88299561    1.13000000    0.07000000
   17.27277756  148.41900635    1.13000000    0.07000000
   17.27583313  157.07600403    1.13000000    0.07000000
   17.27916718  153.94200134    1.13000000    0.07000000
   17.28527641  153.94200134    1.13000000    0.07000000
   17.28944397  146.55700684    1.13000000    0.07000000
   17.29249954  150.68099976    1.13000000    0.07000000
   17.29416656  160.93800354    1.13000000    0.07000000
   17.29638863  153.22500610    1.13000000    0.07000000
   17.29972076  149.53300476    1.13000000    0.07000000
   17.30277634  149.03300476    1.13000000    0.07000000
   17.30611038  151.46200562    1.13000000    0.07000000
   17.30916595  142.99600220    1.13000000    0.07000000
   17.31250000  151.71499634    1.13000000    0.07000000
   17.31583214  146.00000000    1.13000000    0.07000000
   17.31888962  146.36700439    1.13000000    0.07000000
   17.32222366  149.20799255    1.13000000    0.07000000
   17.32805634  149.20799255    1.13000000    0.07000000
   17.33222389  147.06500244    1.13000000    0.07000000
   17.33555603  153.36900330    1.13000000    0.07000000
   17.33861160  154.27299500    1.13000000    0.07000000
   17.34194565  159.22999573    1.13000000    0.07000000
   17.34500122  145.97799683    1.13000000    0.07000000
   17.34833336  150.39599609    1.13000000    0.07000000
   17.35166740  152.13499451    1.13000000    0.07000000
   17.35472298  150.28399658    1.13000000    0.07000000
   17.35805511  151.67500305    1.13000000    0.07000000
   17.36083412  148.09199524    1.13000000    0.07000000
   17.36166763  161.44400024    1.13000000    0.07000000
   17.36499977  149.32699585    1.13000000    0.07000000
   17.37083435  149.32699585    1.13000000    0.07000000
   17.37500000  150.31599426    1.13000000    0.07000000
   17.37833405  143.91799927    1.13000000    0.07000000
   17.38138962  143.48699951    1.13000000    0.07000000
   17.38472176  147.83200073    1.13000000    0.07000000
   17.38805580  152.27900696    1.13000000    0.07000000
   17.39111137  152.32699585    1.13000000    0.07000000
   17.39416695  143.46699524    1.13000000    0.07000000
   17.39472198  150.00700378    1.13000000    0.07000000
   17.39805603  150.36099243    1.13000000    0.07000000
   17.40111160  155.76199341    1.13000000    0.07000000
   17.40444374  146.93099976    1.13000000    0.07000000
   17.40749931  153.25900269    1.13000000    0.07000000
   17.41388893  153.25900269    1.13000000    0.07000000
   17.41777802  156.84300232    1.13000000    0.07000000
   17.42111015  153.49600220    1.13000000    0.07000000
   17.42444420  157.77299500    1.13000000    0.07000000
   17.42749977  149.30799866    1.13000000    0.07000000
   17.42805481  151.12300110    1.13000000    0.07000000
   17.43138885  151.46200562    1.13000000    0.07000000
   17.43444443  146.09300232    1.13000000    0.07000000
   17.43777657  156.67999268    1.13000000    0.07000000
   17.44083214  152.80299377    1.13000000    0.07000000
   17.44416618  152.68600464    1.13000000    0.07000000
   17.44749832  152.52799988    1.13000000    0.07000000
   17.45055580  155.27600098    1.13000000    0.07000000
   17.45666695  155.27600098    1.13000000    0.07000000
   17.46083450  151.30900574    1.13000000    0.07000000
   17.46138954  149.13400269    1.13000000    0.07000000
   17.46444511  155.06900024    1.13000000    0.07000000
   17.46777916  150.22500610    1.13000000    0.07000000
   17.47083473  155.96099854    1.13000000    0.07000000
   17.47416687  154.27200317    1.13000000    0.07000000
   17.47750092  150.05599976    1.13000000    0.07000000
   17.48055649  152.44400024    1.13000000    0.07000000
   17.48388863  145.86099243    1.13000000    0.07000000
   17.48722267  135.35800171    1.13000000    0.07000000
   17.49027824  140.69000244    1.13000000    0.07000000
   17.49361229  145.18099976    1.13000000    0.07000000
   17.49472237  147.01199341    1.13000000    0.07000000
   17.49944496  147.01199341    1.13000000    0.07000000
   17.50361061  150.17999268    1.13000000    0.07000000
   17.50666618  144.69500732    1.13000000    0.07000000
   17.51000023  148.18899536    1.13000000    0.07000000
   17.51333427  145.65800476    1.13000000    0.07000000
   17.51666641  144.90600586    1.13000000    0.07000000
   17.51972198  149.17599487    1.13000000    0.07000000
   17.52305603  148.74600220    1.13000000    0.07000000
   17.52611160  152.02200317    1.13000000    0.07000000
   17.52805519  146.91299438    1.13000000    0.07000000
   17.52972221  150.24299622    1.13000000    0.07000000
   17.53305435  148.06700134    1.13000000    0.07000000
   17.53610992  159.67500305    1.13000000    0.07000000
   17.54222107  159.67500305    1.13000000    0.07000000
   17.54638863  156.41099548    1.13000000    0.07000000
   17.54972076  159.88200378    1.13000000    0.07000000
   17.55277634  158.33399963    1.13000000    0.07000000
   17.55611038  154.87399292    1.13000000    0.07000000
   17.55944443  162.37800598    1.13000000    0.07000000
   17.56138802  154.48899841    1.13000000    0.07000000
   17.56305504  154.42399597    1.13000000    0.07000000
   17.56638718  156.10499573    1.13000000    0.07000000
   17.56944466  143.66900635    1.13000000    0.07000000
   17.57277870  154.74800110    1.13000000    0.07000000
   17.57611275  155.35200500    1.13000000    0.07000000
   17.57916832  150.29299927    1.13000000    0.07000000
   17.58527756  150.29299927    1.13000000    0.07000000
   17.58916664  153.57899475    1.13000000    0.07000000
   17.59250069  152.55099487    1.13000000    0.07000000
   17.59472275  148.81599426    1.13000000    0.07000000
   17.59611130  150.21600342    1.13000000    0.07000000
   17.59944534  148.70300293    1.13000000    0.07000000
   17.60250092  152.69500732    1.13000000    0.07000000
   17.60583305  149.99299622    1.13000000    0.07000000
   17.60916710  155.70399475    1.13000000    0.07000000
   17.61222267  151.27999878    1.13000000    0.07000000
   17.61555672  147.89399719    1.13000000    0.07000000
   17.61888885  157.15600586    1.13000000    0.07000000
   17.62194443  149.91600037    1.13000000    0.07000000
   17.62805557  149.91600037    1.13000000    0.07000000
   17.63222313  156.40400696    1.13000000    0.07000000
   17.63527679  147.36099243    1.13000000    0.07000000
   17.63861084  176.76100159    1.13000000    0.07000000
   17.64166641  190.11700439    1.13000000    0.07000000
   17.64500046  146.28900146    1.13000000    0.07000000
   17.64833260  151.64300537    1.13000000    0.07000000
   17.65138817  145.73199463    1.13000000    0.07000000
   17.65472221  154.95799255    1.13000000    0.07000000
   17.65805435  157.33500671    1.13000000    0.07000000
   17.66110992  159.08000183    1.13000000    0.07000000
   17.66166687  149.38600159    1.13000000    0.07000000
   17.66499901  154.06399536    1.13000000    0.07000000
   17.67083359  154.06399536    1.13000000    0.07000000
   17.67499924  238.43400574    0.89999998    2.84999990
   17.67805481  151.26499939    0.92000002    2.84999990
   17.68138885  153.03399658    1.01999998    2.84999990
   17.68472099  147.96400452    1.03999996    2.84999990
   17.68777657  148.18400574    1.11000001    2.84999990
   17.69111061  153.46000671    1.05999994    2.84999990
   17.69444275  150.44200134    0.98000002    2.84999990
   17.69499969  154.29100037    0.98000002    2.84999990
   17.69805527  148.61700439    0.98000002    2.84999990
   17.70111275  139.55999756    0.94000000    2.84999990
   17.70444489  147.66700745    0.98000002    2.86999989
   17.70777893  148.13900757    1.01999998    2.84999990
   17.71361160  148.13900757    0.95999998    2.86999989
   17.71777916   -1.00000000    0.98000002    2.86999989
   17.72111130  203.24200439    0.98000002    2.86999989
   17.72416687  152.05099487    0.95999998    2.84999990
   17.72750092  158.25999451    0.94000000    2.86999989
   17.72833443  161.65400696    0.92000002    2.86999989
   17.73111153  155.05799866    0.89999998    2.86999989
   17.73416710  158.86599731    0.88000000    2.89000010
   17.73750114  151.73599243    0.88000000    2.89000010
   17.74083328  146.98300171    0.88000000    2.86999989
   17.74388885  151.22999573    0.88000000    2.86999989
   17.74722290  155.93800354    0.88000000    2.86999989
   17.75055504  148.04600525    0.86000001    2.86999989
   17.75638962  148.04600525    0.86000001    2.86999989
   17.76055527   -1.00000000    0.88000000    2.86999989
   17.76416588   -1.00000000    0.86000001    2.89000010
   17.76749992  148.90800476    0.86000001    2.86999989
   17.77083397  146.77900696    0.86000001    2.86999989
   17.77388954  156.41499329    0.83999997    2.86999989
   17.77722168  142.65800476    0.83999997    2.86999989
   17.78055573  154.41400146    0.83999997    2.89000010
   17.78361130  149.35600281    0.83999997    2.86999989
   17.78694344  151.89100647    0.81999999    2.86999989
   17.79027748  150.54800415    0.81999999    2.89000010
   17.79333305  153.14300537    0.81999999    2.89000010
   17.79500008  148.17900085    0.81999999    2.89000010
   17.79944420  148.17900085    0.81999999    2.89000010
   17.80360985  281.29400635    0.81999999    2.86999989
   17.80666542   -1.00000000    0.81999999    2.89000010
   17.80999947   -1.00000000    0.83999997    2.86999989
   17.81305504  163.36599731    0.86000001    2.86999989
   17.81638718  155.33700562    0.86000001    2.86999989
   17.81972313  153.68600464    0.86000001    2.86999989
   17.82277870  160.26699829    0.86000001    2.86999989
   17.82611275  161.50100708    0.86000001    2.86999989
   17.82833481  157.60699463    0.88000000    2.86999989
   17.82972336  160.99299622    0.88000000    2.86999989
   17.83277893  157.22099304    0.89999998    2.86999989
   17.83611107  156.11399841    0.89999998    2.86999989
   17.84222221  156.11399841    0.89999998    2.86999989
   17.84638977   -1.00000000    0.92000002    2.86999989
   17.84944534   -1.00000000    0.89999998    2.86999989
   17.85277748   -1.00000000    0.89999998    2.86999989
   17.85611153  160.06100464    0.92000002    2.84999990
   17.85916710  157.18800354    0.89999998    2.86999989
   17.86166763  150.61599731    0.92000002    2.84999990
   17.86305618  155.43499756    0.92000002    2.84999990
   17.86638832  155.89100647    0.92000002    2.86999989
   17.86944389  156.94900513    0.89999998    2.86999989
   17.87277794  148.97500610    0.89999998    2.86999989
   17.87583351  154.07000732    0.92000002    2.86999989
   17.87916756  154.14700317    0.92000002    2.84999990
   17.88500023  154.14700317    0.92000002    2.86999989
   17.88916588  166.42300415    0.92000002    2.86999989
   17.89249992   -1.00000000    0.92000002    2.86999989
   17.89611053   -1.00000000    0.92000002    2.86999989
   17.89916611   -1.00000000    0.92000002    2.86999989
   17.90250015  158.30799866    0.94000000    2.86999989
   17.90555573  170.15299988    0.94000000    2.86999989
   17.90888786  165.02099609    0.94000000    2.86999989
   17.91222191  155.05000305    0.94000000    2.84999990
   17.91527748  152.00700378    0.94000000    2.86999989
   17.91860962  153.49800110    0.92000002    2.86999989
   17.92166519  151.04200745    0.92000002    2.86999989
   17.92777634  151.04200745    0.89999998    2.86999989
   17.94638824  159.44900513    0.88000000    2.89000010
   17.94944382  157.09399414    0.86000001    2.86999989
   17.95277786  156.24699402    0.86000001    2.86999989
   17.95583344  151.17500305    0.83999997    2.86999989
   17.95916748  149.29600525    0.86000001    2.86999989
   17.96250153  152.48100281    0.83999997    2.86999989
   17.96555710  158.76100159    0.83999997    2.89000010
   17.97500038   -1.00000000    0.81999999    2.86999989
   17.97833443  255.65600586    0.81999999    2.86999989
   17.97944450  256.76300049    0.81999999    2.86999989
   17.98222351  284.16101074    0.81999999    2.89000010
   17.98527718  151.99800110    0.80000001    2.89000010
   17.98861122  150.42799377    0.80000001    2.86999989
   17.99166679  150.70199585    0.80000001    2.89000010
   17.99500084  166.84899902    0.79000002    2.89000010
   17.99833298  174.52499390    0.79000002    2.89000010
   18.00138855  163.20799255    0.79000002    2.86999989
   18.00472260  161.42599487    0.79000002    2.89000010
   18.00805473  149.58900452    0.79000002    2.89000010
   18.01777840   -1.00000000    0.76999998    2.89000010
   18.02111053   -1.00000000    0.76999998    2.89000010
   18.02444458   -1.00000000    0.76999998    2.86999989
   18.02750015  163.11900330    0.75000000    2.86999989
   18.03083229  153.37899780    0.75000000    2.86999989
   18.03388786  146.50100708    0.75000000    2.89000010
   18.03722191  157.08500671    0.75000000    2.89000010
   18.04055595  152.02000427    0.75000000    2.89000010
   18.04361153  154.71400452    0.75000000    2.89000010
   18.04611015  154.02200317    0.75000000    2.89000010
   18.04722214  152.25500488    0.75000000    2.89000010
   18.05055428  149.45700073    0.76999998    2.89000010
   18.06083298   -1.00000000    0.79000002    2.89000010
   18.06388855   -1.00000000    0.79000002    2.86999989
   18.06722260   -1.00000000    0.79000002    2.86999989
   18.07055664   -1.00000000    0.79000002    2.86999989
   18.07361221  147.82200623    0.79000002    2.89000010
   18.07694626  143.90899658    0.80000001    2.89000010
   18.07944489  153.32400513    0.80000001    2.86999989
   18.08055687  160.02200317    0.80000001    2.86999989
   18.08388901  166.05200195    0.80000001    2.89000010
   18.08722305  168.28100586    0.80000001    2.86999989
   18.09027863  161.87899780    0.80000001    2.89000010
   18.09361267  152.35899353    0.80000001    2.89000010
   18.09944534  152.35899353    0.80000001    2.86999989
   18.10361099   -1.00000000    0.81999999    2.89000010
   18.10694504   -1.00000000    0.81999999    2.86999989
   18.11000061   -1.00000000    0.81999999    2.86999989
   18.11277771  166.14100647    0.81999999    2.89000010
   18.11361122  163.91099548    0.83999997    2.89000010
   18.11694527  162.23300171    0.83999997    2.86999989
   18.12027740  189.61999512    0.86000001    2.86999989
   18.12333298  181.50900269    0.86000001    2.86999989
   18.12666702  181.80900574    0.86000001    2.86999989
   18.12972260  176.33999634    0.88000000    2.86999989
   18.13305473  172.15100098    0.88000000    2.86999989
   18.13638878  173.52299500    0.88000000    2.86999989
   18.14249992  173.52299500    0.88000000    2.86999989
   18.14638901  161.07800293    0.88000000    2.86999989
   18.14972115  170.38499451    0.88000000    2.86999989
   18.15305519  166.18699646    0.86000001    2.86999989
   18.15611076  159.93099976    0.86000001    2.86999989
   18.15944481  162.08599854    0.86000001    2.86999989
   18.16277695  158.57000732    0.86000001    2.86999989
   18.16583252  164.14900208    0.86000001    2.86999989
   18.16916656  161.55299377    0.86000001    2.86999989
   18.17222214  162.12699890    0.88000000    2.86999989
   18.17555428  160.69500732    0.86000001    2.86999989
   18.17888832  159.52600098    0.86000001    2.86999989
   18.17944336  158.87300110    0.86000001    2.86999989
   18.18527603  158.87300110    0.86000001    2.86999989
   18.18944359  159.09300232    0.88000000    2.84999990
   18.19249916  157.58000183    0.88000000    2.86999989
   18.19583321  160.28500366    0.88000000    2.86999989
   18.19916534  162.01400757    0.88000000    2.86999989
   18.20222282  151.89500427    0.89999998    2.86999989
   18.20555687  162.37899780    0.88000000    2.86999989
   18.20861244  153.72200012    0.88000000    2.86999989
   18.21194458  155.45599365    0.86000001    2.86999989
   18.21277809  152.04899597    0.88000000    2.86999989
   18.21555710  152.22200012    0.88000000    2.86999989
   18.21888924  151.84800720    0.88000000    2.86999989
   18.22222328  155.18499756    0.88000000    2.86999989
   18.22805595  155.18499756    0.86000001    2.86999989
   18.23222351  144.47300720    0.86000001    2.89000010
   18.23555565  144.15400696    0.88000000    2.86999989
   18.23861122  148.52499390    0.89999998    2.86999989
   18.24194527  145.91999817    0.89999998    2.86999989
   18.24500084  144.35400391    0.89999998    2.86999989
   18.24611092  147.00900269    0.89999998    2.86999989
   18.24861145  137.98100281    0.89999998    2.86999989
   18.25194359  146.26699829    0.88000000    2.86999989
   18.25527763  149.03500366    0.89999998    2.86999989
   18.25833321  143.54299927    0.88000000    2.86999989
   18.26166725  155.02600098    0.88000000    2.86999989
   18.26499939  144.94500732    0.88000000    2.86999989
   18.27083397  144.94500732    0.88000000    2.86999989
   18.27499962  152.70300293    0.86000001    2.86999989
   18.27833366  151.61599731    0.86000001    2.84999990
   18.27944374  142.91900635    0.86000001    2.86999989
   18.28166580  143.75599670    0.86000001    2.86999989
   18.28499985  145.09700012    0.86000001    2.86999989
   18.28833199  142.42100525    0.86000001    2.86999989
   18.29138756  146.27299500    0.86000001    2.86999989
   18.29472160  143.88999939    0.83999997    2.86999989
   18.29805565  149.54400635    0.83999997    2.86999989
   18.30111122  146.25700378    0.86000001    2.86999989
   18.30444336  148.09199524    0.86000001    2.86999989
   18.30749893  147.71899414    0.86000001    2.86999989
   18.31388855  147.71899414    0.86000001    2.84999990
   18.31805611  150.13600159    0.86000001    2.86999989
   18.32111168  152.15699768    0.86000001    2.86999989
   18.32444572  146.97500610    0.86000001    2.86999989
   18.32750130  144.14399719    0.86000001    2.86999989
   18.33083344  148.23699951    0.86000001    2.86999989
   18.33416748  149.33399963    0.83999997    2.86999989
   18.33722305  146.50799561    0.83999997    2.86999989
   18.34055710  144.28700256    0.83999997    2.86999989
   18.34388924  151.94999695    0.81999999    2.86999989
   18.34611130  146.82499695    0.81999999    2.86999989
   18.34722328  150.38999939    0.81999999    2.86999989
   18.35055542  153.52400208    0.81999999    2.86999989
   18.35666656  153.52400208    0.80000001    2.86999989
   18.36083412  205.09599304    0.79000002    2.86999989
   18.36388969  157.50100708    0.80000001    2.86999989
   18.36722183  148.41600037    0.79000002    2.86999989
   18.37055588  152.07400513    0.79000002    2.86999989
   18.37361145  147.97900391    0.79000002    2.86999989
   18.37694550  153.05499268    0.79000002    2.86999989
   18.37944412  147.33599854    0.79000002    2.86999989
   18.38027763  145.61099243    0.79000002    2.86999989
   18.38361168  143.99800110    0.79000002    2.86999989
   18.38694382  145.53199768    0.79000002    2.86999989
   18.38999939  147.15899658    0.79000002    2.86999989
   18.39333344  156.03500366    0.79000002    2.86999989
   18.39944458  156.03500366    0.79000002    2.86999989
   18.40361023  155.07400513    0.79000002    2.86999989
   18.40694427  146.33200073    0.79000002    2.86999989
   18.40999985  147.36900330    0.79000002    2.84999990
   18.41277695  145.91000366    0.79000002    2.86999989
   18.41361046  147.57400513    0.79000002    2.86999989
   18.41694450  141.42300415    0.79000002    2.86999989
   18.42027664  145.36999512    0.79000002    2.86999989
   18.42333221  146.50199890    0.79000002    2.82999992
   18.42666626  148.52499390    0.79000002    2.75000000
   18.43000031  145.58299255    0.79000002    2.67000008
   18.43305397  150.95100403    0.79000002    2.53999996
   18.43638802  148.89500427    0.80000001    2.34999990
   18.44222069  148.89500427    0.80000001    1.78999996
   18.44638824  144.96200562    0.80000001    1.30999994
   18.44972038  147.49899292    0.80000001    1.07000005
   18.45305634  146.77200317    0.80000001    0.80000001
   18.45611191  145.75300598    0.80000001    0.55000001
   18.45944595  145.07800293    0.80000001    0.34000000
   18.46250153  143.10099792    0.80000001    0.19000000
   18.46583366  141.08700562    0.80000001    0.09000000
   18.46916771  140.88699341    0.81999999    0.03000000
   18.47222328  143.11900330    0.81999999    0.01000000
   18.47555542  149.53500366    0.81999999    0.01000000
   18.47888947  144.73199463    0.81999999    0.01000000
   18.47944450  148.00799561    0.81999999    0.01000000
   18.48527718  148.00799561    0.81999999    0.01000000
   18.48944473  144.18499756    0.81999999    0.01000000
   18.49250031  145.87199402    0.81999999    0.01000000
   18.49583435  144.70300293    0.81999999    0.01000000
   18.49888992  141.42300415    0.81999999    0.01000000
   18.50222206  145.30299377    0.81999999    0.01000000
   18.50555611  141.66000366    0.81999999    0.01000000
   18.50888824  152.91400146    0.81999999    0.01000000
   18.51194382  153.32899475    0.81999999    0.01000000
   18.51277733  152.27600098    0.81999999    0.01000000
   18.51583290  147.42999268    0.81999999    0.01000000
   18.51888847  152.96200562    0.81999999    0.01000000
   18.52222252  150.08399963    0.81999999    0.01000000
   18.52805519  150.08399963    0.81999999    0.01000000
   18.53222275  154.66000366    0.81999999    0.01000000
   18.53527641  146.57299805    0.81999999    0.01000000
   18.53861046  147.24299622    0.81999999    0.01000000
   18.54194450  145.52499390    0.81999999    0.01000000
   18.54500008  149.81799316    0.81999999    0.01000000
   18.54611015  152.22999573    0.81999999    0.01000000
   18.54888916  147.61799622    0.81999999    0.01000000
   18.55194283  153.25599670    0.81999999    0.01000000
   18.55527687  148.93400574    0.81999999    0.01000000
   18.55833244  146.80999756    0.81999999    0.01000000
   18.56166649  154.55099487    0.81999999    0.01000000
   18.56499863  149.38900757    0.81999999    0.01000000
   18.57083511  149.38900757    0.81999999    0.01000000
   18.57500076  150.68499756    0.81999999    0.01000000
   18.57833481  146.67500305    0.81999999    0.01000000
   18.57944489  150.48100281    0.81999999    0.01000000
   18.58194542  151.36999512    0.81999999    0.01000000
   18.58500099  142.14399719    0.81999999    0.01000000
   18.58833313  151.42599487    0.81999999    0.01000000
   18.59138870  145.51699829    0.81999999    0.01000000
   18.59472275  160.36599731    0.81999999    0.01000000
   18.59805679  152.43699646    0.81999999    0.01000000
   18.60111237  146.86500549    0.81999999    0.01000000
   18.60444450  148.13699341    0.81999999    0.01000000
   18.60777855  164.49499512    0.81999999    0.01000000
   18.61361122  164.49499512    0.81999999    0.01000000
   18.61777878  146.88400269    0.81999999    0.01000000
   18.62111092  147.15299988    0.81999999    0.01000000
   18.62444496  149.20899963    0.81999999    0.01000000
   18.62750053  147.05799866    0.81999999    0.01000000
   18.63083267  152.20899963    0.81999999    0.01000000
   18.63388824  152.01100159    0.81999999    0.01000000
   18.63722229  148.05200195    0.81999999    0.01000000
   18.64055634  149.58399963    0.81999999    0.01000000
   18.64361191  149.54400635    0.81999999    0.01000000
   18.64611053  148.07400513    0.81999999    0.01000000
   18.64749908  149.50100708    0.81999999    0.01000000
   18.65055466  148.22799683    0.81999999    0.01000000
   18.65666580  148.22799683    0.81999999    0.01000000
   18.66055489  147.21800232    0.81999999    0.01000000
   18.66388893  149.72999573    0.81999999    0.01000000
   18.66722107  148.62699890    0.81999999    0.01000000
   18.67027664  161.83900452    0.81999999    0.01000000
   18.67361069  152.66999817    0.81999999    0.01000000
   18.67694473  155.14399719    0.81999999    0.01000000
   18.67944336  154.42900085    0.81999999    0.01000000
   18.68055534  145.12800598    0.81999999    0.01000000
   18.68361092  148.68699646    0.81999999    0.01000000
   18.68694305  150.90199280    0.81999999    0.01000000
   18.68999863  151.88499451    0.81999999    0.01000000
   18.69333267  150.98500061    0.81999999    0.01000000
   18.69944382  150.98500061    0.81999999    0.01000000
   18.70361137  149.73100281    0.81999999    0.01000000
   18.70666695  141.61300659    0.81999999    0.01000000
   18.71000099  149.15899658    0.81999999    0.01000000
   18.71277809  152.20500183    0.81999999    0.01000000
   18.71361160  147.08200073    0.81999999    0.01000000
   18.71666718  142.72599792    0.81999999    0.01000000
   18.72000122  145.44299316    0.81999999    0.01000000
   18.72305679  147.71899414    0.81999999    0.01000000
   18.72638893  146.32200623    0.81999999    0.01000000
   18.72972298  140.48899841    0.81999999    0.01000000
   18.73277855  147.86000061    0.81999999    0.01000000
   18.73611069  144.72999573    0.81999999    0.01000000
   18.74222183  144.72999573    0.81999999    0.01000000
   18.74638939  145.66299438    0.81999999    0.01000000
   18.74972153  145.36700439    0.81999999    0.01000000
   18.75277710  146.84100342    0.81999999    0.01000000
   18.75611115  150.87399292    0.81999999    0.01000000
   18.75944519  152.69999695    0.81999999    0.01000000
   18.76250076  153.30799866    0.81999999    0.01000000
   18.76583290  152.89700317    0.81999999    0.01000000
   18.76888847  157.82499695    0.81999999    0.01000000
   18.77222252  150.14300537    0.81999999    0.01000000
   18.77555466  160.18499756    0.81999999    0.01000000
   18.77861023  151.64300537    0.81999999    0.01000000
   18.77944374  150.81500244    0.81999999    0.01000000
   18.78499985  150.81500244    0.81999999    0.01000000
   18.78916550  145.38099670    0.81999999    0.01000000
   18.79249954  146.88999939    0.81999999    0.01000000
   18.79583359  154.11300659    0.81999999    0.01000000
   18.79888916  151.55999756    0.81999999    0.01000000
   18.80222130  150.20599365    0.81999999    0.01000000
   18.80527687  155.23399353    0.81999999    0.01000000
   18.80861092  150.36099243    0.81999999    0.01000000
   18.81194305  146.28599548    0.81999999    0.01000000
   18.81277657  150.36399841    0.81999999    0.01000000
   18.81555557  149.47799683    0.81999999    0.01000000
   18.81861115  144.16799927    0.81999999    0.01000000
   18.82194519  145.75700378    0.81999999    0.01000000
   18.82805634  145.75700378    0.81999999    0.01000000
   18.83194542  142.04400635    0.81999999    0.01000000
   18.83527756  145.24299622    0.81999999    0.01000000
   18.83861160  144.66999817    0.81999999    0.01000000
   18.84166718  149.19900513    0.81999999    0.01000000
   18.84500122  152.90199280    0.81999999    0.01000000
   18.84611130  148.59800720    0.81999999    0.01000000
   18.84861183  140.63400269    0.81999999    0.01000000
   18.85166740  147.96800232    0.81999999    0.01000000
   18.85499954  146.04499817    0.81999999    0.01000000
   18.85833359  153.37199402    0.81999999    0.01000000
   18.86138916  151.06799316    0.81999999    0.01000000
   18.86472321  146.43800354    0.81999999    0.01000000
   18.87083435  146.43800354    0.81999999    0.01000000
   18.87500000  149.34100342    0.81999999    0.01000000
   18.87805557  147.51400757    0.81999999    0.01000000
   18.87944412  149.88200378    0.81999999    0.01000000
   18.88194466  150.27900696    0.81999999    0.01000000
   18.88500023  143.07099915    0.81999999    0.01000000
   18.88833237  146.24200439    0.81999999    0.01000000
   18.89166641  143.77600098    0.81999999    0.01000000
   18.89472198  153.25999451    0.81999999    0.01000000
   18.89805603  141.37300110    0.81999999    0.01000000
   18.90111160  150.36099243    0.81999999    0.01000000
   18.90444374  150.37500000    0.81999999    0.01000000
   18.90777779  148.26699829    0.81999999    0.01000000
   18.91361046  148.26699829    0.81999999    0.01000000
   18.91777802  147.10499573    0.81999999    0.01000000
   18.92111015  150.24200439    0.81999999    0.01000000
   18.92416573  146.20799255    0.81999999    0.01000000
   18.92749977  147.65499878    0.81999999    0.01000000
   18.93055534  149.67500305    0.81999999    0.01000000
   18.93388748  144.43499756    0.81999999    0.01000000
   18.93722153  145.81900024    0.81999999    0.01000000
   18.94027710  150.20199585    0.81999999    0.01000000
   18.94361115  143.56700134    0.81999999    0.01000000
   18.94610977  139.29699707    0.81999999    0.01000000
   18.96666718  139.29699707    0.81999999    0.01000000
   18.97083473  143.67599487    0.81999999    0.01000000
   18.97416687  151.58399963    0.81999999    0.01000000
   18.97750092  141.31900024    0.81999999    0.01000000
   18.97944450  145.02000427    0.81999999    0.01000000
   18.98111153  149.38499451    0.81999999    0.01000000
   18.98416710  149.25100708    0.81999999    0.01000000
   18.98750114  140.80000305    0.81999999    0.01000000
   18.99083328  154.95899963    0.81999999    0.01000000
   18.99388885  144.09300232    0.81999999    0.01000000
   18.99722290  148.82699585    0.81999999    0.01000000
   19.00027847  145.91000366    0.81999999    0.01000000
   19.00361061  149.62899780    0.81999999    0.01000000
   19.00944519  149.62899780    0.81999999    0.01000000
   19.01361084  151.99099731    0.81999999    0.01000000
   19.01694489  149.70399475    0.81999999    0.01000000
   19.02000046  151.18099976    0.81999999    0.01000000
   19.02333260  146.99000549    0.81999999    0.01000000
   19.02666664  150.04400635    0.81999999    0.01000000
   19.02972221  148.44299316    0.81999999    0.01000000
   19.03305435  143.40899658    0.81999999    0.01000000
   19.03638840  145.98399353    0.81999999    0.01000000
   19.03944397  147.83200073    0.81999999    0.01000000
   19.04277802  153.58599854    0.81999999    0.01000000
   19.04583359  153.35499573    0.81999999    0.01000000
   19.04638863  152.19799805    0.81999999    0.01000000
   19.05249977  152.19799805    0.81999999    0.01000000
   19.05638885  149.84800720    0.81999999    0.01000000
   19.05972099  150.78799438    0.81999999    0.01000000
   19.06305504  146.27699280    0.81999999    0.01000000
   19.06611061  150.36500549    0.81999999    0.01000000
   19.06944466  155.05099487    0.81999999    0.01000000
   19.07277870  155.00500488    0.81999999    0.01000000
   19.07583427  148.75799561    0.81999999    0.01000000
   19.07916832  157.60600281    0.81999999    0.01000000
   19.07972336  155.20199585    0.81999999    0.01000000
   19.08277893  150.41799927    0.81999999    0.01000000
   19.08611107  150.11300659    0.81999999    0.01000000
   19.08916664  148.05499268    0.81999999    0.01000000
   19.09527779  148.05499268    0.81999999    0.01000000
   19.09944534  150.90699768    0.81999999    0.01000000
   19.10250092  148.87199402    0.81999999    0.01000000
   19.10583305  150.56500244    0.81999999    0.01000000
   19.10916710  149.11199951    0.81999999    0.01000000
   19.11222267  151.63999939    0.81999999    0.01000000
   19.11305618  146.08900452    0.81999999    0.01000000
   19.11583328  151.28999329    0.81999999    0.01000000
   19.11916733  148.06399536    0.81999999    0.01000000
   19.12222290  142.47500610    0.81999999    0.01000000
   19.12555504  141.72099304    0.81999999    0.01000000
   19.12888908  150.60899353    0.81999999    0.01000000
   19.13194466  147.91000366    0.81999999    0.01000000
   19.13805580  147.91000366    0.81999999    0.01000000
   19.14222145  147.46400452    0.81999999    0.01000000
   19.14555550  142.20599365    0.81999999    0.01000000
   19.14638901  144.39399719    0.81999999    0.01000000
   19.14916611  151.51100159    0.81999999    0.01000000
   19.15250015  146.50500488    0.81999999    0.01000000
   19.15555573  146.63099670    0.81999999    0.01000000
   19.15888786  153.13900757    0.81999999    0.01000000
   19.16222191  149.40299988    0.81999999    0.01000000
   19.16527748  147.31599426    0.81999999    0.01000000
   19.16860962  150.83399963    0.81999999    0.01000000
   19.17166519  149.73500061    0.81999999    0.01000000
   19.17499924  158.35899353    0.81999999    0.01000000
   19.18083191  158.35899353    0.81999999    0.01000000
   19.18499947  151.57499695    0.81999999    0.01000000
   19.18833160  146.75399780    0.81999999    0.01000000
   19.19138718  144.49499512    0.81999999    0.01000000
   19.19472122  140.92199707    0.81999999    0.01000000
   19.19805527  144.23800659    0.81999999    0.01000000
   19.20111275  138.58000183    0.81999999    0.01000000
   19.20444489  137.81799316    0.81999999    0.01000000
   19.20750046  138.86000061    0.81999999    0.01000000
   19.21083450  139.78300476    0.81999999    0.01000000
   19.21305656  144.77699280    0.81999999    0.01000000
   19.21444511  137.20700073    0.81999999    0.01000000
   19.21777916  143.16299438    0.81999999    0.01000000
   19.22361183  143.16299438    0.81999999    0.01000000
   19.22777748  146.30200195    0.81999999    0.01000000
   19.23111153  146.83200073    0.81999999    0.01000000
   19.23444557  150.97799683    0.81999999    0.01000000
   19.23750114  148.95599365    0.81999999    0.01000000
   19.24083328  150.66900635    0.81999999    0.01000000
   19.24388885  147.32499695    0.81999999    0.01000000
   19.24638939  154.70300293    0.81999999    0.01000000
   19.24749947  155.11599731    0.81999999    0.01000000
   19.25083351  154.55599976    0.81999999    0.01000000
   19.25388908  151.17300415    0.81999999    0.01000000
   19.25722313  151.26800537    0.81999999    0.01000000
   19.26055527  150.07200623    0.81999999    0.01000000
   19.26666641  150.07200623    0.81999999    0.01000000
   19.27083397  147.29400635    0.81999999    0.01000000
   19.27388954  138.08200073    0.81999999    0.01000000
   19.27722168  150.86000061    0.81999999    0.01000000
   19.27972221  147.14599609    0.81999999    0.01000000
   19.28083229  144.59500122    0.81999999    0.01000000
   19.28416634  142.28199768    0.81999999    0.01000000
   19.28750038  144.40800476    0.81999999    0.01000000
   19.29083252  143.99400330    0.81999999    0.01000000
   19.29416656  143.33299255    0.81999999    0.01000000
   19.29722214  143.51600647    0.81999999    0.01000000
   19.30083275  144.00900269    0.81999999    0.01000000
   19.30416679  147.13600159    0.81999999    0.01000000
   19.30944443  147.13600159    0.81999999    0.01000000
   19.31361008  144.48699951    0.81999999    0.01000000
   19.31666756  146.83200073    0.81999999    0.01000000
   19.32000160  138.33599854    0.81999999    0.01000000
   19.32333374  146.66799927    0.81999999    0.01000000
   19.32638931  148.41200256    0.81999999    0.01000000
   19.32972336  158.77799988    0.81999999    0.01000000
   19.33305550  157.42399597    0.81999999    0.01000000
   19.33611107  155.48300171    0.81999999    0.01000000
   19.33944511  147.82000732    0.81999999    0.01000000
   19.34250069  149.36300659    0.81999999    0.01000000
   19.34583473  145.32400513    0.81999999    0.01000000
   19.34666824  145.39700317    0.81999999    0.01000000
   19.35222244  145.39700317    0.81999999    0.01000000
   19.35639000  148.45199585    0.81999999    0.01000000
   19.35972214  149.07499695    0.81999999    0.01000000
   19.36277771  143.77299500    0.81999999    0.01000000
   19.36611176  151.00100708    0.81999999    0.01000000
   19.36944389  147.22099304    0.81999999    0.01000000
   19.37249947  141.18299866    0.81999999    0.01000000
   19.37583351  140.35499573    0.81999999    0.01000000
   19.37916756  148.05499268    0.81999999    0.01000000
   19.38000107  143.50700378    0.81999999    0.01000000
   19.38277817  142.41999817    0.81999999    0.01000000
   19.38611031  144.89700317    0.81999999    0.01000000
   19.38916588  148.67599487    0.81999999    0.01000000
   19.39500046  148.67599487    0.81999999    0.01000000
   19.39916611  150.92100525    0.81999999    0.01000000
   19.40250015  147.13200378    0.81999999    0.01000000
   19.40583229  148.60600281    0.81999999    0.01000000
   19.40888786  153.37800598    0.81999999    0.01000000
   19.41222191  145.38900757    0.81999999    0.01000000
   19.41333389  151.04600525    0.81999999    0.01000000
   19.41583252  150.94799805    0.81999999    0.01000000
   19.41916656  149.22599792    0.81999999    0.01000000
   19.42222214  150.14300537    0.81999999    0.01000000
   19.42555428  149.99499512    0.81999999    0.01000000
   19.42888832  146.12199402    0.81999999    0.01000000
   19.43194389  135.55000305    0.81999999    0.01000000
   19.43805504  135.55000305    0.81999999    0.01000000
   19.44222069  146.59199524    0.81999999    0.01000000
   19.44527626  147.27099609    0.81999999    0.01000000
   19.44666672  143.52699280    0.81999999    0.01000000
   19.44888878  148.64500427    0.81999999    0.01000000
   19.45222282  142.25500488    0.81999999    0.01000000
   19.45555687  150.90100098    0.81999999    0.01000000
   19.45861244  148.30599976    0.81999999    0.01000000
   19.46194458  145.25199890    0.81999999    0.01000000
   19.46527863  149.11900330    0.81999999    0.01000000
   19.46833420  145.38299561    0.81999999    0.01000000
   19.47166634  145.80999756    0.81999999    0.01000000
   19.47472191  144.16200256    0.81999999    0.01000000
   19.48083305  144.16200256    0.81999999    0.01000000
   19.48500061  152.65499878    0.81999999    0.01000000
   19.48805618  151.02900696    0.81999999    0.01000000
   19.49138832  155.03100586    0.81999999    0.01000000
   19.49472237  150.46899414    0.81999999    0.01000000
   19.49777794  159.31500244    0.81999999    0.01000000
   19.50111198  155.82600403    0.81999999    0.01000000
   19.50444412  148.96299744    0.81999999    0.01000000
   19.50749969  150.98800659    0.81999999    0.01000000
   19.51083374  156.55000305    0.81999999    0.01000000
   19.51333427  147.27799988    0.81999999    0.01000000
   19.51444435  148.87800598    0.81999999    0.01000000
   19.51777840  147.09199524    0.81999999    0.01000000
   19.52361107  147.09199524    0.81999999    0.01000000
   19.52777672  152.82499695    0.81999999    0.01000000
   19.53111076  144.38900757    0.81999999    0.01000000
   19.53416634  151.35499573    0.81999999    0.01000000
   19.53750038  152.93800354    0.81999999    0.01000000
   19.54083252  153.94799805    0.81999999    0.01000000
   19.54388809  145.97599792    0.81999999    0.01000000
   19.54666710  149.91000366    0.81999999    0.01000000
   19.54749870  155.29100037    0.81999999    0.01000000
   19.55083275  149.66999817    0.81999999    0.01000000
   19.55388832  151.92900085    0.81999999    0.01000000
   19.55722237  145.97399902    0.81999999    0.01000000
   19.56055450  149.33999634    0.81999999    0.01000000
   19.56638718  149.33999634    0.81999999    0.01000000
   19.57055664  151.86900330    0.81999999    0.01000000
   19.57389069  154.19099426    0.81999999    0.01000000
   19.57722282  160.54299927    0.81999999    0.01000000
   19.58000183  153.94999695    0.81999999    0.01000000
   19.58055687  154.99600220    0.81999999    0.01000000
   19.58388901  156.11000061    0.81999999    0.01000000
   19.58694458  150.13000488    0.81999999    0.01000000
   19.59027863  150.90400696    0.81999999    0.01000000
   19.59361267  151.84800720    0.81999999    0.01000000
   19.59666824  157.47799683    0.81999999    0.01000000
   19.60000038  152.44799805    0.81999999    0.01000000
   19.60333443  152.71800232    0.81999999    0.01000000
   19.60944557  152.71800232    0.81999999    0.01000000
   19.61361122  156.64500427    0.81999999    0.01000000
   19.61666679  155.57800293    0.81999999    0.01000000
   19.62000084  152.47999573    0.81999999    0.01000000
   19.62333298  151.89300537    0.81999999    0.01000000
   19.62638855  152.36599731    0.81999999    0.01000000
   19.62972260  155.39399719    0.81999999    0.01000000
   19.63277817  153.08799744    0.81999999    0.01000000
   19.63611031  151.55499268    0.81999999    0.01000000
   19.63944435  150.85899353    0.81999999    0.01000000
   19.64249992  156.65100098    0.81999999    0.01000000
   19.64583397  164.26400757    0.81999999    0.01000000
   19.64666748  151.27000427    0.81999999    0.01000000
   19.65222168  151.27000427    0.81999999    0.01000000
   19.65638924  151.47500610    0.81999999    0.01000000
   19.65972137  151.74699402    0.81999999    0.01000000
   19.66277695  151.61599731    0.81999999    0.01000000
   19.66611099  144.16200256    0.81999999    0.01000000
   19.66916656  153.88000488    0.81999999    0.01000000
   19.67249870  150.41700745    0.81999999    0.01000000
   19.67583275  152.02299500    0.81999999    0.01000000
   19.67888832  151.25199890    0.81999999    0.01000000
   19.68000031  156.97700500    0.81999999    0.01000000
   19.68249893  158.02999878    0.81999999    0.01000000
   19.68583298  164.10299683    0.81999999    0.01000000
   19.68916512  155.81599426    0.81999999    0.01000000
   19.69499969  155.81599426    0.81999999    0.01000000
   19.69916534  152.21699524    0.81999999    0.01000000
   19.70250130  153.64500427    0.81999999    0.01000000
   19.70555687  152.96400452    0.81999999    0.01000000
   19.70888901  151.38699341    0.81999999    0.01000000
   19.71222305  150.68800354    0.81999999    0.01000000
   19.71333504  152.01899719    0.81999999    0.01000000
   19.71555710  150.56199646    0.81999999    0.01000000
   19.71888924  149.24299622    0.81999999    0.01000000
   19.72222328  147.03199768    0.81999999    0.01000000
   19.72527885  157.14300537    0.81999999    0.01000000
   19.72861099  148.99200439    0.81999999    0.01000000
   19.73166656  154.48599243    0.81999999    0.01000000
   19.73777771  154.48599243    0.81999999    0.01000000
   19.74194527  163.53500366    0.81999999    0.01000000
   19.74527740  163.28300476    0.81999999    0.01000000
   19.74666786  154.75399780    0.81999999    0.01000000
   19.74888992  160.22500610    0.81999999    0.01000000
   19.75222206  148.22200012    0.81999999    0.01000000
   19.75555611  156.96800232    0.81999999    0.01000000
   19.75861168  155.48399353    0.81999999    0.01000000
   19.76194382  149.76699829    0.81999999    0.01000000
   19.76499939  159.75999451    0.81999999    0.01000000
   19.76833344  152.13299561    0.81999999    0.01000000
   19.77166557  149.40199280    0.81999999    0.01000000
   19.77472115  149.93699646    0.81999999    0.01000000
   19.78083229  149.93699646    0.81999999    0.01000000
   19.78499985  146.93899536    0.81999999    0.01000000
   19.78805542  148.61599731    0.81999999    0.01000000
   19.79138756  157.46099854    0.81999999    0.01000000
   19.79444313  156.58900452    0.81999999    0.01000000
   19.79777718  151.58599854    0.81999999    0.01000000
   19.80111122  156.81700134    0.81999999    0.01000000
   19.80416679  156.68499756    0.81999999    0.01000000
   19.80749893  155.51499939    0.81999999    0.01000000
   19.81083298  147.63200378    0.81999999    0.01000000
   19.81333351  154.31900024    0.81999999    0.01000000
   19.81416512  158.66900635    0.81999999    0.01000000
   19.81750107  158.49099731    0.81999999    0.01000000
   19.82361221  158.49099731    0.81999999    0.01000000
   19.82777786  163.08000183    0.81999999    0.01000000
   19.83083344  155.08299255    0.81999999    0.01000000
   19.83416748  160.37399292    0.81999999    0.01000000
   19.83750153  156.41700745    0.81999999    0.01000000
   19.84055710  171.78500366    0.81999999    0.01000000
   19.84388924  159.41700745    0.81999999    0.01000000
   19.84666824  159.50100708    0.81999999    0.01000000
   19.84749985  166.90499878    0.81999999    0.01000000
   19.85083389  164.78300476    0.81999999    0.01000000
   19.85416794  161.37800598    0.81999999    0.01000000
   19.85722351  164.47700500    0.81999999    0.01000000
   19.86055565  170.08500671    0.81999999    0.01000000
   19.86638832  170.08500671    0.81999999    0.01000000
   19.87055588  160.39300537    0.81999999    0.01000000
   19.87388992  156.48300171    0.81999999    0.01000000
   19.87694550  163.19700623    0.81999999    0.01000000
   19.88000107  161.50999451    0.81999999    0.01000000
   19.88055611  171.47599792    0.81999999    0.01000000
   19.88388824  166.79400635    0.81999999    0.01000000
   19.88722229  166.75700378    0.81999999    0.01000000
   19.89027786  158.90600586    0.81999999    0.01000000
   19.89361191  167.10600281    0.81999999    0.01000000
   19.89694405  170.90400696    0.81999999    0.01000000
   19.89999962  167.64300537    0.81999999    0.01000000
   19.90333366  170.45100403    0.81999999    0.01000000
   19.90916634  170.45100403    0.81999999    0.01000000
   19.91333389  161.55000305    0.81999999    0.01000000
   19.91666603  170.64199829    0.81999999    0.01000000
   19.92000008  157.89399719    0.81999999    0.01000000
   19.92305565  160.95700073    0.81999999    0.01000000
   19.92638779  165.19799805    0.81999999    0.01000000
   19.92944336  165.87500000    0.81999999    0.01000000
   19.93277740  167.93600464    0.81999999    0.01000000
   19.93610954  159.24800110    0.81999999    0.01000000
   19.93916512  178.85400391    0.81999999    0.01000000
   19.94249916  170.22200012    0.81999999    0.01000000
   19.94583321  176.51699829    0.81999999    0.01000000
   19.94666672  177.27499390    0.81999999    0.01000000
   19.95222282  177.27499390    0.81999999    0.01000000
   19.95639038  169.37600708    0.81999999    0.01000000
   19.95944595  172.43600464    0.81999999    0.01000000
   19.96277809  176.10000610    0.81999999    0.01000000
   19.98027802  160.04499817    0.81999999    0.01000000
   19.98277855  170.23800659    0.81999999    0.01000000
   19.98611069  178.47200012    0.81999999    0.01000000
   19.98916626  158.48399353    0.81999999    0.01000000
   19.99527740  158.48399353    0.81999999    0.01000000
   19.99944496  166.31300354    0.81999999    0.01000000
   20.00250053  172.60899353    0.81999999    0.01000000
   20.00583267  171.20399475    0.81999999    0.01000000
   20.00888824  186.33500671    0.81999999    0.01000000
   20.01222229  158.72399902    0.81999999    0.01000000
   20.01361084  159.28599548    0.81999999    0.01000000
   20.01611137  157.58700562    0.81999999    0.01000000
   20.01916695  173.45399475    0.81999999    0.01000000
   20.02249908  171.24000549    0.81999999    0.01000000
   20.02555466  174.15499878    0.81999999    0.01000000
   20.02888870  159.68600464    0.81999999    0.01000000
   20.03222275  160.41099548    0.81999999    0.01000000
   20.03805542  160.41099548    0.81999999    0.01000000
   20.04222107  165.92399597    0.81999999    0.01000000
   20.04527664  163.55400085    0.81999999    0.01000000
   20.04694366  166.74899292    0.81999999    0.01000000
   20.04916573  167.07800293    0.81999999    0.01000000
   20.05222130  154.66499329    0.81999999    0.01000000
   20.05555534  161.03799438    0.81999999    0.01000000
   20.05861092  163.55999756    0.81999999    0.01000000
   20.06194305  175.18200684    0.81999999    0.01000000
   20.06527710  168.71099854    0.81999999    0.01000000
   20.06833458  165.95700073    0.81999999    0.01000000
   20.07166672  163.47900391    0.81999999    0.01000000
   20.07500076  173.76499939    0.81999999    0.01000000
   20.08083344  173.76499939    0.81999999    0.01000000
   20.08500099  164.30900574    0.81999999    0.01000000
   20.08833313  173.27999878    0.81999999    0.01000000
   20.09138870  167.28199768    0.81999999    0.01000000
   20.09472275  168.14599609    0.81999999    0.01000000
   20.09777832  168.23199463    0.81999999    0.01000000
   20.10111237  172.13699341    0.81999999    0.01000000
   20.10444450  167.82800293    0.81999999    0.01000000
   20.10750008  163.32200623    0.81999999    0.01000000
   20.11083412  164.04899597    0.81999999    0.01000000
   20.11361122  173.71000671    0.81999999    0.01000000
   20.11444473  169.21600342    0.81999999    0.01000000
   20.11750031  168.08500671    0.81999999    0.01000000
   20.12361145  168.08500671    0.81999999    0.01000000
   20.12777710  166.84800720    0.81999999    0.01000000
   20.13111115  165.20500183    0.81999999    0.01000000
   20.13416672  171.41099548    0.81999999    0.01000000
   20.13750076  155.61500549    0.81999999    0.01000000
   20.14083290  168.82600403    0.81999999    0.01000000
   20.14388847  179.86900330    0.81999999    0.01000000
   20.14694405  160.28500366    0.81999999    0.01000000
   20.14777756  161.71400452    0.81999999    0.01000000
   20.15083313  158.53399658    0.81999999    0.01000000
   20.15416718  171.25999451    0.81999999    0.01000000
   20.15749931  168.24699402    0.81999999    0.01000000
   20.16055489  157.27699280    0.81999999    0.01000000
   20.16666603  157.27699280    0.81999999    0.01000000
   20.17055511  162.51300049    0.81999999    0.01000000
   20.17388916  157.78300476    0.81999999    0.01000000
   20.17722130  159.44700623    0.81999999    0.01000000
   20.18027687  162.59599304    0.81999999    0.01000000
   20.18083191  165.13600159    0.81999999    0.01000000
   20.18388748  156.15699768    0.81999999    0.01000000
   20.18722153  156.80900574    0.81999999    0.01000000
   20.19027710  162.33700562    0.81999999    0.01000000
   20.19361115  156.29600525    0.81999999    0.01000000
   20.19694328  151.22300720    0.81999999    0.01000000
   20.20000076  163.26699829    0.81999999    0.01000000
   20.20333481  165.07099915    0.81999999    0.01000000
   20.20944595  165.07099915    0.81999999    0.01000000
   20.21361160  159.77600098    0.81999999    0.01000000
   20.21416664  163.68899536    0.81999999    0.01000000
   20.21722221  154.11199951    0.81999999    0.01000000
   20.22055626  160.69200134    0.81999999    0.01000000
   20.22361183  158.02299500    0.81999999    0.01000000
   20.22694588  159.51699829    0.81999999    0.01000000
   20.23027802  157.29100037    0.81999999    0.01000000
   20.23333359  158.61399841    0.81999999    0.01000000
   20.23666763  158.20700073    0.81999999    0.01000000
   20.23999977  161.03500366    0.81999999    0.01000000
   20.24305534  166.81100464    0.81999999    0.01000000
   20.24638939  189.36500549    0.81999999    0.01000000
   20.24694443  174.71699524    0.81999999    0.01000000
   20.25222206  174.71699524    0.81999999    0.01000000
   20.25638962  247.39199829    0.81999999    0.01000000
   20.25972176  270.69601440    0.81999999    0.01000000
   20.26277733  251.07499695    0.81999999    0.01000000
   20.26611137  269.90399170    0.81999999    0.01000000
   20.26916695  262.54998779    0.81999999    0.01000000
   20.27249908  235.87399292    0.81999999    0.01000000
   20.27583313  260.95001221    0.81999999    0.01000000
   20.27888870  237.80700684    0.81999999    0.01000000
   20.28027725  230.57099915    0.81999999    0.01000000
   20.28277779  243.99299622    0.81999999    0.01000000
   20.28583336  236.83000183    0.81999999    0.01000000
   20.28916550  223.68299866    0.81999999    0.01000000
   20.29500008  223.68299866    0.81999999    0.01000000
   20.29916573  209.78500366    0.81999999    0.01000000
   20.30249977  207.36999512    0.81999999    0.01000000
   20.30555534  207.93699646    0.81999999    0.01000000
   20.30888748  253.62199402    0.81999999    0.01000000
   20.31222153  206.33200073    0.81999999    0.01000000
   20.31361008  194.19599915    0.81999999    0.01000000
   20.31583214  217.04100037    0.81999999    0.01000000
   20.31888962  218.06900024    0.81999999    0.01000000
   20.32222366  212.58900452    0.81999999    0.01000000
   20.32555580  206.11199951    0.81999999    0.01000000
   20.32861137  165.89199829    0.81999999    0.01000000
   20.33194542  197.61000061    0.81999999    0.01000000
   20.33805656  197.61000061    0.81999999    0.01000000
   20.34194565  196.49899292    0.81999999    0.01000000
   20.34527779  175.80099487    0.81999999    0.01000000
   20.34694481  200.80700684    0.81999999    0.01000000
   20.34889030  192.88400269    0.81999999    0.01000000
   20.35194397  159.52200317    0.81999999    0.01000000
   20.35527802  172.98899841    0.81999999    0.01000000
   20.35861206  186.21600342    0.81999999    0.01000000
   20.36166763  180.34599304    0.81999999    0.01000000
   20.36499977  156.27400208    0.81999999    0.01000000
   20.36805534  156.36799622    0.81999999    0.01000000
   20.37138939  159.60000610    0.81999999    0.01000000
   20.37472153  158.84199524    0.81999999    0.01000000
   20.38083267  158.84199524    0.81999999    0.01000000
   20.38500023  158.30099487    0.81999999    0.01000000
   20.38805580  164.99099731    0.81999999    0.01000000
   20.39138794  172.07499695    0.81999999    0.01000000
   20.39472198  156.11999512    0.81999999    0.01000000
   20.39777756  157.49899292    0.81999999    0.01000000
   20.40111160  157.77900696    0.81999999    0.01000000
   20.40444374  157.45500183    0.81999999    0.01000000
   20.40749931  149.32400513    0.81999999    0.01000000
   20.41083336  148.59800720    0.81999999    0.01000000
   20.41361046  163.32000732    0.81999999    0.01000000
   20.41444397  160.90600586    0.81999999    0.01000000
   20.41749954  161.33900452    0.81999999    0.01000000
   20.42361069  161.33900452    0.81999999    0.01000000
   20.42777634  158.99899292    0.81999999    0.01000000
   20.43111038  166.21099854    0.81999999    0.01000000
   20.43416595  164.39399719    0.81999999    0.01000000
   20.43750000  161.28999329    0.81999999    0.01000000
   20.44083214  161.77000427    0.81999999    0.01000000
   20.44388771  163.91499329    0.81999999    0.01000000
   20.44694328  168.68099976    0.81999999    0.01000000
   20.44777679  156.33999634    0.81999999    0.01000000
   20.45083427  165.95599365    0.81999999    0.01000000
   20.45416832  153.35499573    0.81999999    0.01000000
   20.45750046  170.94400024    0.81999999    0.01000000
   20.46055603  166.18400574    0.81999999    0.01000000
   20.46638870  166.18400574    0.81999999    0.01000000
   20.47055626  161.56700134    0.81999999    0.01000000
   20.47389030  150.82600403    0.81999999    0.01000000
   20.47694588  156.83099365    0.81999999    0.01000000
   20.48027802  158.87100220    0.81999999    0.01000000
   20.48083305  156.92199707    0.81999999    0.01000000
   20.48388863  162.60099792    0.81999999    0.01000000
   20.48722267  159.36000061    0.81999999    0.01000000
   20.49055672  159.73100281    0.81999999    0.01000000
   20.49361229  168.06900024    0.81999999    0.01000000
   20.49694443  159.11099243    0.81999999    0.01000000
   20.50000000  158.77200317    0.81999999    0.01000000
   20.50333405  158.57499695    0.81999999    0.01000000
   20.50944519  158.57499695    0.81999999    0.01000000
   20.51333427  158.50599670    0.81999999    0.01000000
   20.51388931  160.72099304    0.81999999    0.01000000
   20.51722145  156.39500427    0.81999999    0.01000000
   20.52055550  161.64300537    0.81999999    0.01000000
   20.52361107  152.70599365    0.81999999    0.01000000
   20.52694511  160.66000366    0.81999999    0.01000000
   20.53027725  150.79699707    0.81999999    0.01000000
   20.53333282  156.47099304    0.81999999    0.01000000
   20.53666687  162.26400757    0.81999999    0.01000000
   20.53972244  153.97599792    0.81999999    0.01000000
   20.54305458  163.40400696    0.81999999    0.01000000
   20.54638863  152.54299927    0.81999999    0.01000000
   20.54722214  159.51699829    0.81999999    0.01000000
   20.55222130  159.51699829    0.81999999    0.01000000
   20.55638885  179.27799988    0.81999999    0.01000000
   20.55944443  203.93400574    0.81999999    0.01000000
   20.56277657  222.79100037    0.81999999    0.01000000
   20.56611061  222.11300659    0.81999999    0.01000000
   20.56916809  215.53399658    0.81999999    0.01000000
   20.57250023  195.78100586    0.81999999    0.01000000
   20.57583427  204.39799500    0.81999999    0.01000000
   20.57888985  213.50199890    0.81999999    0.01000000
   20.58055687  229.62100220    0.81999999    0.01000000
   20.58250046  192.96899414    0.81999999    0.01000000
   20.58583450  239.94000244    0.81999999    0.01000000
   20.58889008  200.05900574    0.81999999    0.01000000
   20.59500122  200.05900574    0.81999999    0.01000000
   20.59916687  203.02799988    0.81999999    0.01000000
   20.60222244  183.96400452    0.81999999    0.01000000
   20.60555649  192.32600403    0.81999999    0.01000000
   20.60888863  201.17199707    0.81999999    0.01000000
   20.61194420  182.53500366    0.81999999    0.01000000
   20.61388969  187.69700623    0.81999999    0.01000000
   20.61555672  199.42399597    0.81999999    0.01000000
   20.61888885  207.25799561    0.81999999    0.01000000
   20.62194443  171.82299805    0.81999999    0.01000000
   20.62527847  176.63400269    0.81999999    0.01000000
   20.62861061  156.38400269    0.81999999    0.01000000
   20.63166618  172.64199829    0.81999999    0.01000000
   20.63777733  172.64199829    0.81999999    0.01000000
   20.64194489  164.39300537    0.81999999    0.01000000
   20.64527702  172.77999878    0.81999999    0.01000000
   20.64722252  169.73899841    0.81999999    0.01000000
   20.64888954  155.60899353    0.81999999    0.01000000
   20.65222168  148.83099365    0.81999999    0.01000000
   20.65527725  153.76899719    0.81999999    0.01000000
   20.65861130  175.19400024    0.81999999    0.01000000
   20.66194344  159.17199707    0.81999999    0.01000000
   20.66499901  169.61500549    0.81999999    0.01000000
   20.66833305  155.73899841    0.81999999    0.01000000
   20.67138863  158.02299500    0.81999999    0.01000000
   20.67472076  164.14900208    0.81999999    0.01000000
   20.68083191  164.14900208    0.81999999    0.01000000
   20.68472099  159.36900330    0.81999999    0.01000000
   20.68805504  158.34300232    0.81999999    0.01000000
   20.69138718  158.24000549    0.81999999    0.01000000
   20.69444275  164.39300537    0.81999999    0.01000000
   20.69777679  160.80799866    0.81999999    0.01000000
   20.70111275  165.46000671    0.81999999    0.01000000
   20.70416832  163.27799988    0.81999999    0.01000000
   20.70750046  173.16499329    0.81999999    0.01000000
   20.71055603  141.95500183    0.81999999    0.01000000
   20.71389008  158.98500061    0.81999999    0.01000000
   20.71444511  156.42199707    0.81999999    0.01000000
   20.71777916  174.32200623    0.81999999    0.01000000
   20.72361183  174.32200623    0.81999999    0.01000000
   20.72777748  168.02900696    0.81999999    0.01000000
   20.73083305  152.41700745    0.81999999    0.01000000
   20.73416710  160.15299988    0.81999999    0.01000000
   20.73750114  167.63600159    0.81999999    0.01000000
   20.74055672  160.86199951    0.81999999    0.01000000
   20.74388885  160.09899902    0.81999999    0.01000000
   20.74722290  164.00500488    0.81999999    0.01000000
   20.74777794  157.00199890    0.81999999    0.01000000
   20.75083351  156.94200134    0.81999999    0.01000000
   20.75388908  159.52799988    0.81999999    0.01000000
   20.75722313  158.23599243    0.81999999    0.01000000
   20.76055527  166.97000122    0.81999999    0.01000000
   20.76638794  166.97000122    0.81999999    0.01000000
   20.77055550  162.61599731    0.81999999    0.01000000
   20.77361107  163.37800598    0.81999999    0.01000000
   20.77694511  161.21299744    0.81999999    0.01000000
   20.78027725  168.88499451    0.81999999    0.01000000
   20.78111076  162.20300293    0.81999999    0.01000000
   20.78388786  160.51899719    0.81999999    0.01000000
   20.78694344  163.21800232    0.81999999    0.01000000
   20.79027748  166.17100525    0.81999999    0.01000000
   20.79361153  158.99200439    0.81999999    0.01000000
   20.79666710  161.09100342    0.81999999    0.01000000
   20.79999924  161.94099426    0.81999999    0.01000000
   20.80333328  157.11099243    0.81999999    0.01000000
   20.80916595  157.11099243    0.81999999    0.01000000
   20.81333351  162.63499451    0.81999999    0.01000000
   20.81444359  160.34199524    0.81999999    0.01000000
   20.81694603  159.45399475    0.81999999    0.01000000
   20.82000160  153.28999329    0.81999999    0.01000000
   20.82333374  159.56599426    0.81999999    0.01000000
   20.82666779  159.47900391    0.81999999    0.01000000
   20.82972336  156.33000183    0.81999999    0.01000000
   20.83305550  158.14799500    0.81999999    0.01000000
   20.83638954  158.29499817    0.81999999    0.01000000
   20.83944511  163.37399292    0.81999999    0.01000000
   20.84277916  157.07099915    0.81999999    0.01000000
   20.84583473  160.58599854    0.81999999    0.01000000
   20.84777832  162.30299377    0.81999999    0.01000000
   20.85222244  162.30299377    0.81999999    0.01000000
   20.85611153  203.58900452    0.81999999    0.01000000
   20.85944557  157.87500000    0.81999999    0.01000000
   20.86277771  161.78999329    0.81999999    0.01000000
   20.86583328  160.41900635    0.81999999    0.01000000
   20.86916733  156.86399841    0.81999999    0.01000000
   20.87249947  157.91299438    0.81999999    0.01000000
   20.87555504  155.79699707    0.81999999    0.01000000
   20.87888908  155.26800537    0.81999999    0.01000000
   20.88111115  165.30599976    0.81999999    0.01000000
   20.88249969  153.01899719    0.81999999    0.01000000
   20.88555527  154.01100159    0.81999999    0.01000000
   20.88888931  158.69900513    0.81999999    0.01000000
   20.89500046  158.69900513    0.81999999    0.01000000
   20.89916611  155.61300659    0.81999999    0.01000000
   20.90222168  158.61399841    0.81999999    0.01000000
   20.90555573  158.08200073    0.81999999    0.01000000
   20.90888786  156.39900208    0.81999999    0.01000000
   20.91194344  160.72399902    0.81999999    0.01000000
   20.91444397  162.87800598    0.81999999    0.01000000
   20.91583252  155.04499817    0.81999999    0.01000000
   20.91888809  158.31700134    0.81999999    0.01000000
   20.92222214  161.35899353    0.81999999    0.01000000
   20.92555428  156.46299744    0.81999999    0.01000000
   20.92860985  158.14100647    0.81999999    0.01000000
   20.93194389  158.44799805    0.81999999    0.01000000
   20.93777657  158.44799805    0.81999999    0.01000000
   20.94194412  155.99200439    0.81999999    0.01000000
   20.94499969  161.46699524    0.81999999    0.01000000
   20.94777679  164.71400452    0.81999999    0.01000000
   20.94888878  161.80599976    0.81999999    0.01000000
   20.95194435  165.50300598    0.81999999    0.01000000
   20.95527840  158.16200256    0.81999999    0.01000000
   20.95861244  163.87199402    0.81999999    0.01000000
   20.96166801  158.84199524    0.81999999    0.01000000
   20.96500015  167.45799255    0.81999999    0.01000000
   20.96805573  171.72799683    0.81999999    0.01000000
   20.97138977  162.19999695    0.81999999    0.01000000
   20.97472191  159.26199341    0.81999999    0.01000000
   20.98055649  159.26199341    0.81999999    0.01000000
   20.99888992  157.36199951    0.81999999    0.01000000
   21.00222206  171.88900757    0.81999999    0.01000000
   21.00555611  154.12800598    0.81999999    0.01000000
   21.00861168  159.25999451    0.81999999    0.01000000
   21.01194382  163.43400574    0.81999999    0.01000000
   21.01527786  156.73500061    0.81999999    0.01000000
   21.01833344  171.58000183    0.81999999    0.01000000
   21.02361107  171.58000183    0.81999999    0.01000000
   21.02777672  163.64599609    0.81999999    0.01000000
   21.03111076  162.66499329    0.81999999    0.01000000
   21.03194427  162.52400208    0.81999999    0.01000000
   21.03472137  173.05200195    0.81999999    0.01000000
   21.03805542  161.64100647    0.81999999    0.01000000
   21.04111099  157.30200195    0.81999999    0.01000000
   21.04444313  162.74400330    0.81999999    0.01000000
   21.04777718  163.47599792    0.81999999    0.01000000
   21.05083275  168.58099365    0.81999999    0.01000000
   21.05416679  157.97200012    0.81999999    0.01000000
   21.05722237  169.97799683    0.81999999    0.01000000
   21.06055450  174.72500610    0.81999999    0.01000000
   21.06666756  174.72500610    0.81999999    0.01000000
   21.07055664  165.15699768    0.81999999    0.01000000
   21.07389069  168.02099609    0.81999999    0.01000000
   21.07722282  166.75900269    0.81999999    0.01000000
   21.08027840  164.55799866    0.81999999    0.01000000
   21.08361244  164.90899658    0.81999999    0.01000000
   21.08694458  167.21499634    0.81999999    0.01000000
   21.09000015  170.43600464    0.81999999    0.01000000
   21.09333420  159.92700195    0.81999999    0.01000000
   21.09638977  170.20799255    0.81999999    0.01000000
   21.09861183  164.13800049    0.81999999    0.01000000
   21.10000038  160.85499573    0.81999999    0.01000000
   21.10333443  159.09899902    0.81999999    0.01000000
   21.10944557  159.09899902    0.81999999    0.01000000
