    HOUR (UT)   FLARE FACTOR    SKY TESTER    SUN TESTER
   11.45249939   -1.00000000   -1.00000000   -1.00000000
   11.47222137  244.60299683    0.98000002    1.75000000
   11.47749996  181.44700623    0.98000002    1.75000000
   11.48222160  270.78900146    1.00000000    1.78999996
   11.48527813  156.67799377    1.00000000    1.78999996
   11.48861122  214.33299255    1.00000000    1.78999996
   11.49194431  191.21099854    1.01999998    1.80999994
   11.49499989  226.69099426    1.00000000    1.80999994
   11.49833393  277.24899292    1.00000000    1.80999994
   11.50138855  195.59899902    1.00000000    1.80999994
   11.50472260  225.47000122    1.01999998    1.80999994
   11.50555515  208.06199646    1.01999998    1.80999994
   11.50833321  178.87600708    1.00000000    1.83000004
   11.51166630  185.03500366    1.00000000    1.83000004
   11.51472187  166.85499573    1.01999998    1.83000004
   11.51805496  144.90699768    1.00000000    1.83000004
   11.52138901  166.85400391    1.00000000    1.85000002
   11.52444458  149.62600708    0.98000002    1.83000004
   11.52777767  167.10600281    0.98000002    1.85000002
   11.53111076  149.03399658    0.98000002    1.85000002
   11.53416729  215.49899292    0.98000002    1.85000002
   11.53750038  168.10299683    0.98000002    1.86000001
   11.53888893  189.99699402    0.98000002    1.86000001
   11.54111195  149.91499329    1.00000000    1.88000000
   11.54444504  177.87199402    0.98000002    1.88000000
   11.54750061  162.98399353    0.98000002    1.88000000
   11.55083370  147.33000183    0.98000002    1.89999998
   11.55416679  135.34599304    0.98000002    1.88000000
   11.55722237  148.03799438    0.98000002    1.88000000
   11.56055546  187.50999451    0.98000002    1.89999998
   11.56388950  192.11099243    0.98000002    1.88000000
   11.56694412  167.39999390    0.98000002    1.89999998
   11.57027817  149.06799316    1.00000000    1.91999996
   11.57222176  176.19200134    0.98000002    1.89999998
   11.57388878  164.00700378    0.95999998    1.91999996
   11.57722187  167.00399780    0.95999998    1.94000006
   11.58027744  185.39399719    0.95999998    1.91999996
   11.58361053  115.46600342    0.98000002    1.91999996
   11.58694458  181.55200195    0.95999998    1.91999996
   11.59000015  148.68899536    0.95999998    1.94000006
   11.59333324  185.98800659    0.95999998    1.94000006
   11.59666634  131.92199707    0.95999998    1.94000006
   11.59972191  142.84300232    0.95999998    1.94000006
   11.60305595  126.62899780    0.95999998    1.94000006
   11.60555553  147.41799927    0.94000000    1.94000006
   11.60694504  120.05200195    0.94000000    1.94000006
   11.61000061  179.51400757    0.94000000    1.96000004
   11.61333370  149.09700012    0.94000000    1.96000004
   11.61666679  126.53800201    0.94000000    1.96000004
   11.61972237  106.65799713    0.94000000    1.96000004
   11.62305546  135.97799683    0.94000000    1.98000002
   11.62638855  132.93400574    0.94000000    1.96000004
   11.62944412  151.41900635    0.92000002    1.96000004
   11.63277817  130.75399780    0.89999998    1.98000002
   11.63583279  146.57000732    0.89999998    2.00000000
   11.63888836  155.21099854    0.89999998    2.00000000
   11.63944435  152.46200562    0.89999998    2.00000000
   11.64277744  141.55900574    0.88000000    2.00000000
   11.64583302  157.97300720    0.89999998    2.01999998
   11.64916611  150.27499390    0.88000000    2.01999998
   11.65249920  157.16099548    0.88000000    2.01999998
   11.65555477  156.54400635    0.86000001    2.01999998
   11.65888882  153.98300171    0.86000001    2.01999998
   11.66222191  179.00700378    0.86000001    2.01999998
   11.66527748  158.98199463    0.86000001    2.01999998
   11.66861153  142.75599670    0.86000001    2.03999996
   11.67166710  145.40400696    0.86000001    2.03999996
   11.67222214  160.97700500    0.86000001    2.03999996
   11.67555618  162.88999939    0.83999997    2.03999996
   11.67888927  143.22300720    0.83999997    2.03999996
   11.68194485  163.69200134    0.83999997    2.03999996
   11.68527794  162.05299377    0.83999997    2.05999994
   11.68861103  153.68099976    0.83999997    2.05999994
   11.69166660  143.91099548    0.81999999    2.05999994
   11.69499969  149.51899719    0.83999997    2.05999994
   11.69805527  156.32699585    0.83999997    2.05999994
   11.70138836  148.57400513    0.81999999    2.05999994
   11.70472240  139.86500549    0.81999999    2.07999992
   11.70555496  127.93599701    0.81999999    2.07999992
   11.70833302  140.90499878    0.81999999    2.07999992
   11.71166611  145.34100342    0.80000001    2.07999992
   11.71472168  138.14599609    0.80000001    2.07999992
   11.71805477  143.89999390    0.80000001    2.07999992
   11.72138882  152.72200012    0.80000001    2.09999990
   11.72444439  152.91099548    0.80000001    2.09999990
   11.72777748  135.45799255    0.80000001    2.07999992
   11.73083305  143.37899780    0.80000001    2.07999992
   11.73416710  118.35500336    0.80000001    2.09999990
   11.73750019  126.55500031    0.80000001    2.07999992
   11.73888874  154.28799438    0.80000001    2.09999990
   11.74111176  134.68600464    0.80000001    2.09999990
   11.74444485  137.03300476    0.79000002    2.09999990
   11.74750042  140.54499817    0.79000002    2.09999990
   11.75083351  138.86300659    0.79000002    2.11999989
   11.75416660  138.77699280    0.79000002    2.11999989
   11.75722218  132.61199951    0.79000002    2.11999989
   11.76055527  136.83000183    0.76999998    2.13000011
   11.76361084  138.21499634    0.76999998    2.11999989
   11.76694393  148.28799438    0.76999998    2.11999989
   11.77027798  138.54200745    0.76999998    2.13000011
   11.77222157  144.08599854    0.75000000    2.13000011
   11.77388859  147.60299683    0.75000000    2.13000011
   11.77722168  148.80700684    0.75000000    2.13000011
   11.78027725  162.35699463    0.75000000    2.15000010
   11.78361130  140.63400269    0.75000000    2.13000011
   11.78694534  155.78399658    0.75000000    2.15000010
   11.79000092  146.54800415    0.75000000    2.15000010
   11.79333401  139.19599915    0.75000000    2.17000008
   11.79638958  143.84599304    0.75000000    2.17000008
   11.79972267  132.30900574    0.73000002    2.15000010
   11.80305576  142.32699585    0.73000002    2.15000010
   11.80555534  147.08500671    0.73000002    2.15000010
   11.80666733  147.54100037    0.73000002    2.17000008
   11.81000042  158.54699707    0.73000002    2.17000008
   11.81305599  139.64999390    0.73000002    2.17000008
   11.81638908  132.05900574    0.73000002    2.17000008
   11.81972218  133.19099426    0.70999998    2.17000008
   11.82277775  144.19599915    0.70999998    2.17000008
   11.82611084  141.75799561    0.70999998    2.17000008
   11.82916641  123.67500305    0.70999998    2.19000006
   11.83249950  125.14700317    0.70999998    2.19000006
   11.83583260  122.01000214    0.70999998    2.19000006
   11.83888817  130.60800171    0.69000000    2.19000006
   11.83944416  123.05200195    0.70999998    2.19000006
   11.84277725  143.60800171    0.69000000    2.19000006
   11.84583282  122.26000214    0.69000000    2.19000006
   11.84916592  120.24600220    0.70999998    2.19000006
   11.85249996  132.61199951    0.69000000    2.21000004
   11.85555553  129.24699402    0.69000000    2.21000004
   11.85888958  136.16799927    0.69000000    2.21000004
   11.86194515  122.62599945    0.69000000    2.21000004
   11.86527824  134.97200012    0.69000000    2.21000004
   11.86861134  122.78199768    0.67000002    2.21000004
   11.87166691  129.06399536    0.69000000    2.21000004
   11.87222195  144.33700562    0.69000000    2.21000004
   11.87527752  126.23300171    0.69000000    2.21000004
   11.87861156  130.93200684    0.67000002    2.23000002
   11.88166714  130.88900757    0.67000002    2.23000002
   11.88500023  128.60499573    0.67000002    2.23000002
   11.88833332  124.35700226    0.69000000    2.23000002
   11.89138889  139.58900452    0.69000000    2.23000002
   11.89472198  142.08099365    0.69000000    2.25000000
   11.89805508  144.61300659    0.67000002    2.23000002
   11.90111065  137.20799255    0.67000002    2.25000000
   11.90444374  129.59500122    0.67000002    2.25000000
   11.90555477  128.22799683    0.67000002    2.25000000
   11.90805531  126.95200348    0.67000002    2.23000002
   11.91138840  130.71899414    0.67000002    2.23000002
   11.91444397  140.67599487    0.67000002    2.25000000
   11.91777802  128.43699646    0.67000002    2.25000000
   11.92111111  135.88600159    0.64999998    2.25000000
   11.92416668  138.70899963    0.64999998    2.25000000
   11.92750072  134.89100647    0.64999998    2.25000000
   11.93083382  133.59300232    0.64999998    2.26999998
   11.93388939  138.04499817    0.64999998    2.26999998
   11.93722248  150.46699524    0.64999998    2.26999998
   11.93888855  143.77999878    0.64999998    2.26999998
   11.94083309  136.59399414    0.64999998    2.26999998
   11.94416714  141.96800232    0.64999998    2.26999998
   11.94722271  124.50900269    0.64999998    2.26999998
   11.95055580  143.02799988    0.64999998    2.26999998
   11.95388889  129.26699829    0.64999998    2.28999996
   11.95694447  136.54100037    0.64999998    2.28999996
   11.96027756  129.53700256    0.64999998    2.28999996
   11.96361065  140.97999573    0.64999998    2.26999998
   11.96666622  137.33399963    0.64999998    2.28999996
   11.96999931  128.58799744    0.63000000    2.28999996
   11.97222137  142.23800659    0.63000000    2.28999996
   11.97361088  131.50300598    0.63000000    2.28999996
   11.97694397  140.90100098    0.63000000    2.28999996
   11.97999954  155.77200317    0.63000000    2.28999996
   11.98333359  134.43899536    0.63000000    2.28999996
   11.98666668  135.37199402    0.63000000    2.28999996
   11.98972225  139.94999695    0.63000000    2.28999996
   11.99305534  148.40199280    0.63000000    2.28999996
   11.99638939  140.00999451    0.63000000    2.30999994
   11.99944496  134.37199402    0.63000000    2.30999994
   12.00277805  130.89900208    0.63000000    2.30999994
   12.00583363  150.64100647    0.63000000    2.30999994
   12.00638866  137.57899475    0.63000000    2.30999994
   12.00972176  136.85000610    0.63000000    2.30999994
   12.01277733  135.94700623    0.61000001    2.30999994
   12.01611137  173.22799683    0.63000000    2.30999994
   12.01944447  140.69700623    0.63000000    2.30999994
   12.02250004  135.64900208    0.61000001    2.32999992
   12.02583313  129.98199463    0.61000001    2.32999992
   12.02888870  131.03799438    0.61000001    2.32999992
   12.03222179  128.86599731    0.61000001    2.32999992
   12.03555584  121.99299622    0.61000001    2.32999992
   12.03861141  135.54499817    0.61000001    2.32999992
   12.03916740  136.57400513    0.61000001    2.32999992
   12.04250050  133.50700378    0.61000001    2.32999992
   12.04583359  140.71400452    0.61000001    2.32999992
   12.04888916  136.10499573    0.61000001    2.34999990
   12.05222225  127.35199738    0.61000001    2.34999990
   12.05555534  132.58599854    0.61000001    2.34999990
   12.05861092  146.27900696    0.58999997    2.34999990
   12.06194496  136.96299744    0.58999997    2.34999990
   12.06500053  123.87400055    0.58999997    2.34999990
   12.06833363  131.27200317    0.58999997    2.34999990
   12.07166672  132.08399963    0.58999997    2.36999989
   12.07250023  134.79699707    0.58999997    2.36999989
   12.07527733  137.94599915    0.58999997    2.36999989
   12.07861137  133.46499634    0.58999997    2.36999989
   12.08166695  125.06400299    0.58999997    2.36999989
   12.08500004  148.35400391    0.61000001    2.36999989
   12.08805561  140.54800415    0.61000001    2.36999989
   12.09138870  138.70899963    0.58999997    2.36999989
   12.09472179  139.56100464    0.58999997    2.36999989
   12.09777737  137.29299927    0.58999997    2.36999989
   12.10111141  114.47299957    0.58999997    2.36999989
   12.10444450  129.04200745    0.58999997    2.36999989
   12.10583401  124.95099640    0.58999997    2.36999989
   12.10805607  137.33700562    0.58999997    2.36999989
   12.11138916  133.30099487    0.58999997    2.36999989
   12.11444473  123.28600311    0.58999997    2.36999989
   12.11777782  123.41799927    0.56999999    2.36999989
   12.12083340  126.55899811    0.56999999    2.36999989
   12.12416649  129.43499756    0.56999999    2.39000010
   12.12750053  132.33299255    0.56999999    2.39000010
   12.13055611  137.98800659    0.56999999    2.39000010
   12.13388920  135.79299927    0.56999999    2.39000010
   12.13722229  128.82099915    0.56999999    2.39000010
   12.13916683  131.58099365    0.56999999    2.39000010
   12.14083290  129.93600464    0.56999999    2.39000010
   12.14416695  130.36700439    0.56999999    2.39000010
   12.14722252  127.80000305    0.55000001    2.39000010
   12.15055561  129.42700195    0.55000001    2.39000010
   12.15361118  125.21800232    0.55000001    2.39000010
   12.15694427  126.89700317    0.55000001    2.40000010
   12.16027737  125.80000305    0.55000001    2.40000010
   12.16333294  122.65000153    0.55000001    2.40000010
   12.16666698  124.90399933    0.55000001    2.40000010
   12.17000008  121.76499939    0.55000001    2.40000010
   12.17250061  126.41000366    0.55000001    2.40000010
   12.17361164  127.78299713    0.55000001    2.40000010
   12.17694473  119.16300201    0.55000001    2.40000010
   12.18000031  128.07200623    0.55000001    2.40000010
   12.18333340  126.39600372    0.55000001    2.40000010
   12.18638897  153.80599976    0.55000001    2.40000010
   12.18972206  135.39799500    0.55000001    2.40000010
   12.19305515  136.36700439    0.55000001    2.40000010
   12.19611073  143.11999512    0.55000001    2.40000010
   12.19944477  127.64900208    0.55000001    2.40000010
   12.20277786  135.91999817    0.55000001    2.42000008
   12.20583344  132.59599304    0.55000001    2.42000008
   12.20638847  138.58399963    0.55000001    2.42000008
   12.20972157  131.71200562    0.55000001    2.42000008
   12.21277714  128.90499878    0.55000001    2.42000008
   12.21611118  128.51199341    0.52999997    2.42000008
   12.21916580  131.45500183    0.55000001    2.42000008
   12.22249985  132.49899292    0.52999997    2.42000008
   12.22583294  132.00199890    0.52999997    2.42000008
   12.22888851  130.21099854    0.52999997    2.44000006
   12.23222160  123.50700378    0.55000001    2.44000006
   12.23555565  133.11999512    0.52999997    2.44000006
   12.23861122  128.37100220    0.52999997    2.44000006
   12.23916721  124.69499969    0.52999997    2.44000006
   12.24222279  126.34500122    0.52999997    2.44000006
   12.24555588  129.01499939    0.52999997    2.44000006
   12.24861145  124.33499908    0.52999997    2.44000006
   12.25194454  129.83900452    0.52999997    2.44000006
   12.25500011  129.18600464    0.52999997    2.44000006
   12.25833321  129.48899841    0.52999997    2.44000006
   12.26166630  136.12600708    0.51999998    2.44000006
   12.26472187  131.10099792    0.51999998    2.46000004
   12.26805496  131.28199768    0.52999997    2.46000004
   12.27138901  133.27400208    0.51999998    2.44000006
   12.27250004  137.34700012    0.51999998    2.44000006
   12.27499962  129.60800171    0.52999997    2.46000004
   12.27833271  126.59200287    0.52999997    2.44000006
   12.28138828  146.53399658    0.51999998    2.46000004
   12.28472233  138.21899414    0.52999997    2.46000004
   12.28805637  142.49400330    0.52999997    2.46000004
   12.29111195  133.33599854    0.51999998    2.44000006
   12.29444504  126.45800018    0.51999998    2.46000004
   12.29750061  123.68399811    0.52999997    2.46000004
   12.30083370  125.57700348    0.51999998    2.46000004
   12.30416679  131.94900513    0.51999998    2.46000004
   12.30583382  132.33700562    0.51999998    2.46000004
   12.30777836  134.50500488    0.51999998    2.46000004
   12.31111145  135.61300659    0.51999998    2.46000004
   12.31416702  127.03900146    0.52999997    2.46000004
   12.31750011  125.54100037    0.51999998    2.46000004
   12.32083321  117.30699921    0.51999998    2.46000004
   12.32388878  126.59500122    0.51999998    2.46000004
   12.32722187  129.52299500    0.51999998    2.46000004
   12.33027744  130.97099304    0.51999998    2.48000002
   12.33361053  129.74200439    0.51999998    2.48000002
   12.33694458  125.09400177    0.51999998    2.46000004
   12.33916664  120.01200104    0.51999998    2.48000002
   12.34055519  128.27000427    0.50000000    2.46000004
   12.34388828  125.39499664    0.51999998    2.48000002
   12.34694386  126.35399628    0.50000000    2.48000002
   12.35027790  118.10800171    0.50000000    2.48000002
   12.35361195  121.85800171    0.50000000    2.48000002
   12.35666752  129.74299622    0.51999998    2.48000002
   12.36000061  125.94999695    0.50000000    2.48000002
   12.36305618  123.81700134    0.50000000    2.48000002
   12.36638927  116.07700348    0.50000000    2.48000002
   12.36972237  129.86300659    0.50000000    2.48000002
   12.37250042  129.12100220    0.50000000    2.48000002
   12.37333393  117.16400146    0.50000000    2.48000002
   12.37666702  123.71900177    0.50000000    2.48000002
   12.37972260  121.36199951    0.50000000    2.50000000
   12.38305569  118.22200012    0.50000000    2.48000002
   12.38638878  118.93900299    0.50000000    2.48000002
   12.38944435  133.72599792    0.50000000    2.50000000
   12.39277744  113.22299957    0.50000000    2.50000000
   12.39583302  116.89800262    0.50000000    2.50000000
   12.39916611  115.60900116    0.50000000    2.50000000
   12.40249920  118.37999725    0.50000000    2.50000000
   12.40555477  118.10299683    0.50000000    2.51999998
   12.40611076  118.37899780    0.50000000    2.50000000
   12.40944386  119.19200134    0.50000000    2.50000000
   12.41277695  125.53700256    0.50000000    2.50000000
   12.41583252  115.57499695    0.47999999    2.50000000
   12.41916656  119.35800171    0.50000000    2.51999998
   12.42222214  109.94899750    0.47999999    2.51999998
   12.42555618  119.22399902    0.50000000    2.51999998
   12.42888927  123.97499847    0.47999999    2.51999998
   12.43194485  122.40100098    0.47999999    2.51999998
   12.43527794  125.19799805    0.47999999    2.51999998
   12.43861103  127.59999847    0.47999999    2.50000000
   12.43944454  118.94100189    0.47999999    2.50000000
   12.44222260  130.38999939    0.47999999    2.50000000
   12.44555569  122.35500336    0.47999999    2.51999998
   12.44861126  128.17199707    0.47999999    2.51999998
   12.45194435  127.91400146    0.47999999    2.51999998
   12.45499992  130.14399719    0.47999999    2.51999998
   12.45833302  129.91900635    0.47999999    2.51999998
   12.46166611  132.77900696    0.47999999    2.51999998
   12.46472168  134.77299500    0.47999999    2.51999998
   12.46805477  138.08700562    0.47999999    2.53999996
   12.47138882  137.10600281    0.47999999    2.53999996
   12.48888874  133.58999634    0.46000001    2.53999996
   12.49138927  128.42700195    0.46000001    2.53999996
   12.49444485  134.33200073    0.46000001    2.53999996
   12.49777794  129.16799927    0.47999999    2.53999996
   12.50111103  124.39499664    0.46000001    2.53999996
   12.50416660  133.18600464    0.46000001    2.53999996
   12.50749969  127.40599823    0.47999999    2.53999996
   12.51083374  121.26799774    0.46000001    2.53999996
   12.51388931  121.97499847    0.46000001    2.53999996
   12.51722240  117.48699951    0.46000001    2.53999996
   12.52027798  119.91600037    0.46000001    2.53999996
   12.52222157  113.78500366    0.46000001    2.53999996
   12.52388859  118.30899811    0.46000001    2.53999996
   12.52722168  114.41999817    0.46000001    2.53999996
   12.53055573  109.01399994    0.46000001    2.55999994
   12.53361130  119.04100037    0.46000001    2.55999994
   12.53694534  120.04799652    0.46000001    2.55999994
   12.54000092  124.10199738    0.44000000    2.53999996
   12.54333401  124.28600311    0.44000000    2.53999996
   12.54666710  121.08799744    0.44000000    2.55999994
   12.54972267  122.20099640    0.46000001    2.55999994
   12.55305576  122.10299683    0.44000000    2.55999994
   12.55555534  127.26499939    0.44000000    2.55999994
   12.55666733  128.65400696    0.44000000    2.55999994
   12.56000042  129.63400269    0.46000001    2.53999996
   12.56333351  120.75399780    0.44000000    2.53999996
   12.56638908  125.11000061    0.44000000    2.55999994
   12.56972218  126.12599945    0.44000000    2.55999994
   12.57305527  121.25299835    0.44000000    2.55999994
   12.57611084  127.52300262    0.44000000    2.55999994
   12.57944393  123.69599915    0.44000000    2.55999994
   12.58249950  127.16500092    0.44000000    2.55999994
   12.58583260  126.12599945    0.44000000    2.55999994
   12.58888817  124.06099701    0.44000000    2.55999994
   12.58944416  127.13800049    0.44000000    2.55999994
   12.59277725  125.24199677    0.44000000    2.55999994
   12.59611034  127.50099945    0.44000000    2.57999992
   12.59916592  123.26300049    0.44000000    2.55999994
   12.60249996  127.70800018    0.44000000    2.57999992
   12.60555553  130.47099304    0.46000001    2.57999992
   12.60888958  121.56199646    0.44000000    2.57999992
   12.61222267  123.83100128    0.44000000    2.57999992
   12.61527824  127.28800201    0.44000000    2.55999994
   12.61861134  126.22799683    0.44000000    2.57999992
   12.62194443  122.15000153    0.46000001    2.57999992
   12.62250042  120.68599701    0.44000000    2.57999992
   12.62555599  125.84300232    0.44000000    2.57999992
   12.62888908  121.29499817    0.44000000    2.57999992
   12.63194466  129.17500305    0.44000000    2.57999992
   12.63527775  125.01399994    0.44000000    2.55999994
   12.63861084  126.01999664    0.44000000    2.57999992
   12.64166641  131.49899292    0.44000000    2.59999990
   12.64499950  124.95300293    0.44000000    2.57999992
   12.64833355  126.97899628    0.44000000    2.57999992
   12.65138817  122.39800262    0.44000000    2.57999992
   12.65472221  126.18699646    0.41999999    2.57999992
   12.65555477  126.69200134    0.41999999    2.57999992
   12.65833282  121.01999664    0.41999999    2.57999992
   12.66166592  113.02400208    0.41999999    2.57999992
   12.66499996  120.32800293    0.41999999    2.57999992
   12.66805553  122.15200043    0.41999999    2.59999990
   12.67138958  115.98500061    0.44000000    2.59999990
   12.67472267  119.61000061    0.41999999    2.57999992
   12.67777824  123.25399780    0.41999999    2.59999990
   12.68111134  128.61799622    0.41999999    2.57999992
   12.68416691  130.05900574    0.44000000    2.59999990
   12.68750000  132.07800293    0.41999999    2.59999990
   12.68888855  121.73699951    0.41999999    2.59999990
   12.69111156  126.68199921    0.41999999    2.59999990
   12.69444466  127.82599640    0.41999999    2.59999990
   12.69750023  130.06599426    0.41999999    2.57999992
   12.70083332  122.15100098    0.41999999    2.59999990
   12.70416641  128.44400024    0.41999999    2.59999990
   12.70722198  123.98799896    0.41999999    2.59999990
   12.71055508  125.58000183    0.41999999    2.59999990
   12.71388912  122.87400055    0.41999999    2.59999990
   12.71694374  119.17900085    0.41999999    2.59999990
   12.72027779  124.72499847    0.41999999    2.59999990
   12.72249985  125.06800079    0.41999999    2.59999990
   12.72388840  125.37899780    0.41999999    2.59999990
   12.72722149  118.90299988    0.41999999    2.59999990
   12.73027706  119.33699799    0.41999999    2.59999990
   12.73361111  121.04100037    0.41999999    2.59999990
   12.73694515  119.95600128    0.41999999    2.61999989
   12.74000072  120.80500031    0.41999999    2.61999989
   12.74333382  118.61399841    0.41999999    2.61999989
   12.74666691  121.92700195    0.41999999    2.61999989
   12.74972248  128.59199524    0.41999999    2.59999990
   12.75305557  122.60600281    0.41999999    2.61999989
   12.75583363  121.43000031    0.41999999    2.61999989
   12.75666714  124.59200287    0.41999999    2.61999989
   12.76000023  127.70700073    0.41999999    2.61999989
   12.76333332  117.08999634    0.41999999    2.61999989
   12.76638889  122.65699768    0.41999999    2.61999989
   12.76972198  128.46099854    0.41999999    2.61999989
   12.77277756  119.27799988    0.41999999    2.61999989
   12.77611065  133.89999390    0.41999999    2.61999989
   12.77944374  121.83100128    0.41999999    2.61999989
   12.78249931  126.22699738    0.41999999    2.64000010
   12.78583336  127.89600372    0.41999999    2.64000010
   12.78916740  125.03500366    0.41999999    2.64000010
   12.78944492  132.46099854    0.41999999    2.64000010
   12.79277802  126.74400330    0.40000001    2.61999989
   12.79583359  131.33799744    0.40000001    2.61999989
   12.79916668  121.64800262    0.40000001    2.61999989
   12.80249977  133.25300598    0.40000001    2.61999989
   12.80555534  128.76199341    0.40000001    2.64000010
   12.80888939  134.77999878    0.40000001    2.64000010
   12.81222248  124.94300079    0.40000001    2.64000010
   12.81527805  125.91400146    0.40000001    2.64000010
   12.81861115  127.49199677    0.40000001    2.64000010
   12.82166672  123.91600037    0.40000001    2.64000010
   12.82250023  127.53199768    0.40000001    2.64000010
   12.82527733  121.14600372    0.40000001    2.64000010
   12.82861137  123.77600098    0.40000001    2.64000010
   12.83194447  128.59500122    0.40000001    2.64000010
   12.83500004  124.48699951    0.40000001    2.64000010
   12.83833313  136.55000305    0.40000001    2.64000010
   12.84138870  130.70399475    0.40000001    2.64000010
   12.84472179  119.22000122    0.40000001    2.64000010
   12.84805489  131.55700684    0.40000001    2.64000010
   12.85111141  126.30200195    0.40000001    2.64000010
   12.85444450  120.30799866    0.40000001    2.64000010
   12.85583401  131.36000061    0.40000001    2.64000010
   12.85805607  131.35600281    0.40000001    2.64000010
   12.86166668  127.33100128    0.40000001    2.64000010
   12.86500072  132.87199402    0.38000000    2.64000010
   12.86805534  121.31700134    0.38000000    2.64000010
   12.87138939  129.35800171    0.40000001    2.64000010
   12.87444496  130.48699951    0.40000001    2.64000010
   12.87777805  128.33000183    0.40000001    2.64000010
   12.88111115  124.98899841    0.40000001    2.64000010
   12.88416672  129.42399597    0.40000001    2.64000010
   12.88749981  125.75399780    0.40000001    2.64000010
   12.88916683  120.76799774    0.40000001    2.64000010
   12.89111137  123.69899750    0.38000000    2.66000009
   12.89444447  121.83499908    0.38000000    2.64000010
   12.89777756  123.07499695    0.40000001    2.66000009
   12.90083313  125.92800140    0.40000001    2.66000009
   12.90416622  125.02700043    0.40000001    2.66000009
   12.90749931  126.84400177    0.40000001    2.66000009
   12.91055489  123.26599884    0.40000001    2.66000009
   12.91388893  114.48999786    0.40000001    2.66000009
   12.91694450  122.75499725    0.40000001    2.66000009
   12.92027855  124.59999847    0.40000001    2.66000009
   12.92250061  122.51200104    0.38000000    2.66000009
   12.92388916  127.88600159    0.38000000    2.66000009
   12.92722225  130.29899597    0.38000000    2.66000009
   12.93055630  120.74400330    0.38000000    2.66000009
   12.93361092  119.73699951    0.38000000    2.66000009
   12.93694496  122.40899658    0.40000001    2.66000009
   12.94000053  125.21499634    0.38000000    2.66000009
   12.94333363  120.82299805    0.38000000    2.66000009
   12.94666672  127.31300354    0.40000001    2.66000009
   12.94972229  127.87699890    0.40000001    2.66000009
   12.95305538  133.41499329    0.38000000    2.66000009
   12.95583344  122.59600067    0.38000000    2.66000009
   12.95666695  129.61000061    0.38000000    2.66000009
   12.96000004  124.26000214    0.38000000    2.67000008
   12.96333313  124.65200043    0.38000000    2.66000009
   12.96638870  137.94200134    0.38000000    2.67000008
   12.96972179  126.34100342    0.38000000    2.66000009
   12.97277737  124.73899841    0.38000000    2.66000009
   12.97611046  125.49800110    0.38000000    2.66000009
   12.97944355  121.57299805    0.38000000    2.67000008
   12.98249912  128.79600525    0.38000000    2.67000008
   12.98583317  131.27799988    0.38000000    2.67000008
   12.98916721  118.96199799    0.38000000    2.67000008
   12.98944473  120.60500336    0.38000000    2.67000008
   12.99277782  126.05200195    0.38000000    2.67000008
   12.99611092  117.95300293    0.38000000    2.67000008
   12.99916649  121.73600006    0.38000000    2.66000009
   13.00249958  122.75099945    0.38000000    2.66000009
   13.00555515  117.38899994    0.38000000    2.66000009
   13.00888920  115.62999725    0.38000000    2.67000008
   13.01222229  116.74199677    0.38000000    2.67000008
   13.01527786  117.62500000    0.36000001    2.67000008
   13.01861095  128.10000610    0.36000001    2.67000008
   13.02194405  121.12300110    0.36000001    2.67000008
   13.02250004  118.29299927    0.38000000    2.67000008
   13.02527714  114.89700317    0.38000000    2.67000008
   13.02861118  125.16100311    0.38000000    2.67000008
   13.03194427  121.94999695    0.36000001    2.69000006
   13.03500080  119.64299774    0.38000000    2.67000008
   13.03833389  115.20700073    0.38000000    2.69000006
   13.04138947  121.23000336    0.38000000    2.67000008
   13.04472256  123.60700226    0.40000001    2.67000008
   13.04805565  120.02300262    0.40000001    2.67000008
   13.05111122  118.01300049    0.38000000    2.67000008
   13.05444431  124.81800079    0.40000001    2.67000008
   13.05583382  117.28199768    0.40000001    2.67000008
   13.05805588  121.84700012    0.40000001    2.67000008
   13.06138897  124.16000366    0.38000000    2.67000008
   13.06472206  121.64700317    0.40000001    2.69000006
   13.06777763  122.07199860    0.38000000    2.69000006
   13.07111073  121.05699921    0.38000000    2.69000006
   13.07444477  120.59600067    0.40000001    2.67000008
   13.07750034  118.04399872    0.38000000    2.69000006
   13.08083344  118.42500305    0.38000000    2.69000006
   13.08388901  122.65699768    0.40000001    2.69000006
   13.08722210  120.40499878    0.38000000    2.69000006
   13.08916664  123.64600372    0.38000000    2.69000006
   13.09083271  120.48899841    0.40000001    2.69000006
   13.09416676  117.04199982    0.40000001    2.67000008
   13.09749985  117.74600220    0.40000001    2.69000006
   13.10055637  121.18000031    0.40000001    2.69000006
   13.10388947  120.01000214    0.40000001    2.69000006
   13.10694504  118.66699982    0.40000001    2.69000006
   13.11027813  119.91600037    0.40000001    2.69000006
   13.11361122  129.74099731    0.40000001    2.69000006
   13.11666679  128.33399963    0.38000000    2.69000006
   13.11999989  119.79900360    0.40000001    2.69000006
   13.12250042  115.63300323    0.40000001    2.69000006
   13.12361145  116.39900208    0.40000001    2.69000006
   13.12694454  116.23899841    0.40000001    2.69000006
   13.13027763  116.73000336    0.40000001    2.69000006
   13.13333321  121.36299896    0.40000001    2.71000004
   13.13666630  118.70400238    0.44000000    2.69000006
   13.13972187  119.92199707    0.44000000    2.69000006
   13.14305496  124.59700012    0.41999999    2.69000006
   13.14638901  120.81800079    0.41999999    2.69000006
   13.14944458  115.62000275    0.41999999    2.69000006
   13.15277767  116.60700226    0.44000000    2.69000006
   13.15583324  110.38600159    0.41999999    2.71000004
   13.15638828  113.10900116    0.41999999    2.71000004
   13.15972137  113.74800110    0.41999999    2.69000006
   13.16305542  111.65599823    0.41999999    2.69000006
   13.16611099  116.19699860    0.44000000    2.71000004
   13.16944504  122.08100128    0.41999999    2.71000004
   13.17250061  112.31900024    0.41999999    2.71000004
   13.17583370  111.39900208    0.41999999    2.71000004
   13.17916679  114.92099762    0.41999999    2.71000004
   13.18222237  116.28199768    0.41999999    2.71000004
   13.18555546  115.26200104    0.41999999    2.71000004
   13.30722237   -1.00000000   -1.00000000   -1.00000000
   13.40694427   -1.00000000   -1.00000000   -1.00000000
   13.55888939   -1.00000000   -1.00000000   -1.00000000
   13.59805489   71.29409790    0.31999999    2.76999998
   13.60166740  119.56500244    0.31999999    2.75000000
   13.60472298  119.59600067    0.34000000    2.75000000
   13.60833359  113.42800140    0.31999999    2.75000000
   13.61166668  121.91999817    0.34000000    2.76999998
   13.61861134  121.91999817    0.34000000    2.76999998
   13.62250042  113.35399628    0.34000000    2.78999996
   13.62583351  118.03800201    0.34000000    2.76999998
   13.62916660  106.71700287    0.34000000    2.76999998
   13.63138866  115.84799957    0.34000000    2.76999998
   13.63277817  109.52600098    0.34000000    2.76999998
   13.63611126  114.60600281    0.34000000    2.76999998
   13.63916683  116.76599884    0.34000000    2.76999998
   13.64249992  129.38000488    0.36000001    2.75000000
   13.64583302  116.89399719    0.36000001    2.75000000
   13.64888859  115.11499786    0.36000001    2.76999998
   13.65222168  117.36000061    0.34000000    2.76999998
   13.65555477  114.82599640    0.36000001    2.76999998
   13.66138840  114.82599640    0.36000001    2.76999998
   13.66555500  116.17700195    0.38000000    2.76999998
   13.66861153  113.08899689    0.38000000    2.76999998
   13.67194462  115.34999847    0.38000000    2.76999998
   13.67500019  111.31600189    0.38000000    2.76999998
   13.67833328  112.89399719    0.40000001    2.76999998
   13.68166733  112.87500000    0.38000000    2.76999998
   13.68472195  115.01100159    0.36000001    2.76999998
   13.68805599  111.65499878    0.36000001    2.76999998
   13.69138908  117.27600098    0.36000001    2.75000000
   13.69444466  123.01899719    0.38000000    2.76999998
   13.69777775  112.21800232    0.38000000    2.76999998
   13.69833374  108.97599792    0.38000000    2.76999998
   13.70416641  108.97599792    0.38000000    2.76999998
   13.70833302  117.53600311    0.38000000    2.76999998
   13.71138859  108.90799713    0.38000000    2.76999998
   13.71472168  112.61000061    0.38000000    2.76999998
   13.71805477  120.19300079    0.38000000    2.76999998
   13.72111034  114.10399628    0.38000000    2.78999996
   13.72444439  114.15200043    0.38000000    2.78999996
   13.72777748  114.07700348    0.36000001    2.76999998
   13.73083305  118.55999756    0.38000000    2.78999996
   13.73166656  113.75399780    0.38000000    2.78999996
   13.73444462  114.02799988    0.36000001    2.78999996
   13.73777771  116.10700226    0.36000001    2.78999996
   13.74111176  114.99199677    0.38000000    2.76999998
   13.74694443  114.99199677    0.38000000    2.76999998
   13.75111103  115.61799622    0.41999999    2.76999998
   13.75444412  112.92700195    0.44000000    2.78999996
   13.75749969  115.37699890    0.40000001    2.78999996
   13.76083374  110.94200134    0.36000001    2.78999996
   13.76416683  115.40499878    0.36000001    2.78999996
   13.76500034  114.02300262    0.36000001    2.76999998
   13.76749992  113.74900055    0.36000001    2.78999996
   13.77083302  108.47200012    0.34000000    2.78999996
   13.77416611  112.61399841    0.34000000    2.78999996
   13.77722168  111.87400055    0.34000000    2.78999996
   13.78055573  113.80400085    0.31999999    2.76999998
   13.78388977  116.52200317    0.31999999    2.78999996
   13.78972244  116.52200317    0.31999999    2.78999996
   13.79388905  112.60600281    0.31999999    2.76999998
   13.79722309  114.12100220    0.31999999    2.78999996
   13.79833412  116.33699799    0.31999999    2.78999996
   13.80083370  116.36100006    0.31999999    2.76999998
   13.80416679  115.43000031    0.31999999    2.78999996
   13.80749989  115.83399963    0.31999999    2.78999996
   13.81055546  117.18800354    0.31999999    2.78999996
   13.81388950  108.97399902    0.31999999    2.78999996
   13.81722260  120.84999847    0.31999999    2.78999996
   13.82027817  110.92500305    0.31999999    2.78999996
   13.82361126  110.58799744    0.30000001    2.78999996
   13.82666683  115.87500000    0.30000001    2.78999996
   13.83277798  115.87500000    0.31999999    2.78999996
   13.83694458  110.45700073    0.30000001    2.80999994
   13.84000015  113.60199738    0.30000001    2.78999996
   13.84333324  114.48799896    0.30000001    2.78999996
   13.84638882  114.60900116    0.30000001    2.78999996
   13.84972191  109.64499664    0.30000001    2.78999996
   13.85305595  112.61699677    0.30000001    2.78999996
   13.85611153  111.25000000    0.30000001    2.78999996
   13.85944462  112.39700317    0.30000001    2.78999996
   13.86277771  111.54100037    0.30000001    2.78999996
   13.86500072  111.36799622    0.31999999    2.78999996
   13.86611176  113.84200287    0.31999999    2.78999996
   13.86944485  113.34600067    0.31999999    2.78999996
   13.87555599  113.34600067    0.30000001    2.78999996
   13.87972260  124.40100098    0.30000001    2.78999996
   13.88277817  119.07599640    0.30000001    2.78999996
   13.88611126  115.01899719    0.30000001    2.80999994
   13.88944435  111.70800018    0.30000001    2.78999996
   13.89249992  114.15699768    0.30000001    2.78999996
   13.89583302  112.44899750    0.30000001    2.78999996
   13.89833355  112.92500305    0.30000001    2.80999994
   13.89944458  113.64499664    0.30000001    2.78999996
   13.90277767  113.15299988    0.31999999    2.80999994
   13.90611076  116.17299652    0.30000001    2.78999996
   13.90916634  109.79499817    0.31999999    2.78999996
   13.91249943  113.27999878    0.30000001    2.78999996
   13.91833401  113.27999878    0.30000001    2.78999996
   13.92250061  118.91300201    0.31999999    2.78999996
   13.92583370  113.29499817    0.30000001    2.80999994
   13.92888927  114.98600006    0.30000001    2.78999996
   13.93166733  117.26100159    0.30000001    2.80999994
   13.93249989  117.56700134    0.30000001    2.80999994
   13.93583298  108.72399902    0.30000001    2.80999994
   13.93916702  111.51699829    0.30000001    2.78999996
   13.94222260  113.20300293    0.30000001    2.80999994
   13.94555569  107.05799866    0.30000001    2.80999994
   13.94888878  111.07499695    0.30000001    2.80999994
   13.95194435  104.15499878    0.30000001    2.78999996
   13.95527744  112.19200134    0.30000001    2.80999994
   13.96111107  112.19200134    0.30000001    2.80999994
   13.96527767  112.66300201    0.30000001    2.80999994
   13.96861076  117.86000061    0.30000001    2.80999994
   13.97194386  110.61199951    0.30000001    2.80999994
   13.97499943  109.80500031    0.30000001    2.80999994
   13.97833252  116.90699768    0.30000001    2.82999992
   13.98138809  110.12500000    0.30000001    2.80999994
   13.98472214  113.00499725    0.30000001    2.80999994
   13.98805618  111.35900116    0.30000001    2.80999994
   13.99111176  103.52400208    0.30000001    2.80999994
   13.99444485  110.23600006    0.30000001    2.80999994
   13.99777794  108.57499695    0.30000001    2.80999994
   13.99833393  105.69699860    0.30000001    2.80999994
   14.00416660  105.69699860    0.34000000    2.80999994
   14.00833321  111.09100342    0.36000001    2.82999992
   14.01138878  107.19899750    0.34000000    2.80999994
   14.01472187  111.25199890    0.34000000    2.80999994
   14.01777744  102.85800171    0.34000000    2.80999994
   14.02111053  113.13500214    0.36000001    2.80999994
   14.02444458  119.09999847    0.34000000    2.80999994
   14.02777767  106.67700195    0.36000001    2.82999992
   14.03083324  107.96299744    0.34000000    2.80999994
   14.03166676  105.45300293    0.36000001    2.80999994
   14.03472233  103.91899872    0.34000000    2.82999992
   14.03777790  106.62899780    0.34000000    2.80999994
   14.04111195  104.18800354    0.34000000    2.82999992
   14.04694462  104.18800354    0.36000001    2.80999994
   14.05111122  108.31999969    0.38000000    2.80999994
   14.05416679  107.37100220    0.38000000    2.82999992
   14.05749989  110.06300354    0.40000001    2.80999994
   14.06083393  114.94799805    0.40000001    2.80999994
   14.06388950  111.17600250    0.40000001    2.80999994
   14.06500053  114.64399719    0.40000001    2.80999994
   14.06750011  111.87400055    0.41999999    2.82999992
   14.07083321  112.12500000    0.44000000    2.80999994
   14.07416630  114.20999908    0.44000000    2.82999992
   14.07722187  113.52500153    0.41999999    2.82999992
   14.08055592  110.98400116    0.40000001    2.82999992
   14.08388901  110.66400146    0.40000001    2.82999992
   14.08972168  110.66400146    0.38000000    2.80999994
   14.09388828  110.55500031    0.36000001    2.80999994
   14.09722233  108.77899933    0.31999999    2.82999992
   14.09833336  117.29799652    0.31999999    2.80999994
   14.10055637  108.73600006    0.31999999    2.82999992
   14.10388947  122.25299835    0.31999999    2.82999992
   14.10722256  118.60900116    0.34000000    2.82999992
   14.11027813  110.47200012    0.31999999    2.80999994
   14.11361122  123.84600067    0.34000000    2.80999994
   14.11694431  116.18099976    0.36000001    2.80999994
   14.11999989  117.36699677    0.36000001    2.80999994
   14.12333393  119.38500214    0.36000001    2.82999992
   14.12638855  107.56500244    0.34000000    2.82999992
   14.13277817  107.56500244    0.31999999    2.82999992
   14.13694477  115.60900116    0.31999999    2.80999994
   14.14000034  106.86299896    0.30000001    2.82999992
   14.14333344  108.96700287    0.30000001    2.82999992
   14.14666653  111.78500366    0.30000001    2.82999992
   14.14972210  110.40799713    0.31999999    2.82999992
   14.15305519  108.65499878    0.30000001    2.80999994
   14.15638828  108.78199768    0.30000001    2.80999994
   14.15944386  103.97100067    0.30000001    2.80999994
   14.16277695  113.80999756    0.30000001    2.82999992
   14.16499996  117.41500092    0.30000001    2.80999994
   14.16638851  105.09600067    0.30000001    2.80999994
   14.16944504  109.76999664    0.30000001    2.80999994
   14.17555618  109.76999664    0.30000001    2.82999992
   14.17972279  104.39800262    0.30000001    2.82999992
   14.18277836  109.29100037    0.30000001    2.80999994
   14.18611145  115.61699677    0.30000001    2.82999992
   14.18916702  112.87400055    0.30000001    2.82999992
   14.19250011  109.10700226    0.30000001    2.82999992
   14.19583321  106.43900299    0.30000001    2.82999992
   14.19833374  107.23600006    0.30000001    2.82999992
   14.19944477  112.85099792    0.30000001    2.82999992
   14.20249939  115.05599976    0.30000001    2.82999992
   14.20583344  109.91600037    0.30000001    2.82999992
   14.20916653  123.24099731    0.30000001    2.82999992
   14.21222210  112.26699829    0.30000001    2.82999992
   14.21833324  112.26699829    0.30000001    2.82999992
   14.22249985  106.80799866    0.30000001    2.82999992
   14.22555542  109.04499817    0.30000001    2.82999992
   14.22888851  102.60500336    0.30000001    2.82999992
   14.23166656  115.16200256    0.30000001    2.82999992
   14.23277760  107.32900238    0.30000001    2.82999992
   14.23583317  107.50599670    0.30000001    2.82999992
   14.23916721  107.41500092    0.30000001    2.82999992
   14.24250031  107.80000305    0.30000001    2.80999994
   14.24555588  111.72499847    0.28000000    2.82999992
   14.24888897  121.29499817    0.28000000    2.82999992
   14.25194454  109.17500305    0.30000001    2.82999992
   14.25527763  108.65299988    0.30000001    2.82999992
   14.26111126  108.65299988    0.30000001    2.82999992
   14.26527786  108.71900177    0.28000000    2.82999992
   14.26861095  108.89900208    0.30000001    2.82999992
   14.27166653  113.60700226    0.30000001    2.82999992
   14.27499962  117.45099640    0.28000000    2.82999992
   14.27833271  112.27200317    0.28000000    2.82999992
   14.28138828  106.20899963    0.28000000    2.82999992
   14.28472233  108.02300262    0.28000000    2.82999992
   14.28777790  105.20600128    0.28000000    2.82999992
   14.29111195  108.05899811    0.28000000    2.82999992
   14.29444504  104.34999847    0.30000001    2.82999992
   14.29750061  107.54599762    0.28000000    2.84999990
   14.29833412  108.78500366    0.28000000    2.84999990
   14.30388927  108.78500366    0.28000000    2.82999992
   14.30805588  111.76799774    0.30000001    2.82999992
   14.31138897  114.55899811    0.28000000    2.82999992
   14.31444454  112.85299683    0.28000000    2.82999992
   14.31777763  112.33200073    0.28000000    2.82999992
   14.32111073  113.29199982    0.28000000    2.84999990
   14.32416630  112.70600128    0.28000000    2.82999992
   14.32750034  107.81099701    0.30000001    2.84999990
   14.33083344  110.90000153    0.28000000    2.82999992
   14.33166695  113.30400085    0.28000000    2.82999992
   14.33444405  117.64700317    0.28000000    2.84999990
   14.33749962  112.15699768    0.28000000    2.84999990
   14.34083271  109.39399719    0.28000000    2.82999992
   14.34694386  109.39399719    0.28000000    2.82999992
   14.35083389  107.56099701    0.28000000    2.84999990
   14.35416698  100.03700256    0.28000000    2.84999990
   14.35750008  112.78700256    0.28000000    2.84999990
   14.36055565  109.56700134    0.28000000    2.82999992
   14.36388969  109.74500275    0.28000000    2.82999992
   14.36500072  112.89299774    0.28000000    2.82999992
   14.36777782  110.05500031    0.28000000    2.82999992
   14.37083340  118.97699738    0.28000000    2.84999990
   14.37416649  111.68599701    0.28000000    2.84999990
   14.37722206  115.63899994    0.28000000    2.84999990
   14.38055611  112.66400146    0.28000000    2.82999992
   14.38388920  108.43900299    0.28000000    2.84999990
   14.38972187  108.43900299    0.28000000    2.82999992
   14.39388847  107.78700256    0.28000000    2.84999990
   14.39694405  107.37200165    0.28000000    2.82999992
   14.39833355  113.64099884    0.28000000    2.82999992
   14.40083313  111.55500031    0.28000000    2.84999990
   14.40388870  107.14900208    0.28000000    2.84999990
   14.40722179  106.66400146    0.28000000    2.84999990
   14.41027737  105.90899658    0.28000000    2.82999992
   14.41361046  107.88099670    0.28000000    2.84999990
   14.41694450  106.69499969    0.28000000    2.84999990
   14.42000008  111.79900360    0.28000000    2.84999990
   14.42333412  112.84200287    0.28000000    2.84999990
   14.42666721  106.56900024    0.28000000    2.84999990
   14.43249989  106.56900024    0.28000000    2.82999992
   14.43666649  118.07900238    0.28000000    2.84999990
   14.43972206  111.98100281    0.28000000    2.82999992
   14.44305515  111.02799988    0.28000000    2.84999990
   14.44638920  116.76699829    0.28000000    2.84999990
   14.44944477  110.51000214    0.28000000    2.84999990
   14.45277786  113.66600037    0.28000000    2.84999990
   14.45611095  111.70200348    0.28000000    2.84999990
   14.45916653  111.24800110    0.28000000    2.84999990
   14.46249962  115.90899658    0.28000000    2.84999990
   14.46500015  112.36299896    0.28000000    2.84999990
   14.46611118  119.90200043    0.28000000    2.84999990
   14.46916580  107.98300171    0.25999999    2.84999990
   14.47527695  107.98300171    0.28000000    2.84999990
   14.47944355  112.77999878    0.25999999    2.84999990
   14.48277760  110.54599762    0.25999999    2.84999990
   14.48583317  112.23799896    0.25999999    2.84999990
   14.48916721  116.13300323    0.28000000    2.84999990
   14.49250031  111.83100128    0.25999999    2.84999990
   14.49555588  111.15399933    0.25999999    2.84999990
   14.49833393  117.54100037    0.28000000    2.84999990
   14.49944496  121.89900208    0.25999999    2.84999990
   14.50249958  117.44999695    0.25999999    2.84999990
   14.50583363  116.46199799    0.25999999    2.84999990
   14.50888920  115.67400360    0.25999999    2.84999990
   14.51222229  113.34200287    0.28000000    2.84999990
   14.51833344  113.34200287    0.28000000    2.82999992
   14.52222157  115.81999969    0.25999999    2.84999990
   14.52555561  116.15100098    0.28000000    2.84999990
   14.52888870  111.25599670    0.25999999    2.84999990
   14.53166676  116.52400208    0.25999999    2.84999990
   14.53249931  111.76499939    0.25999999    2.84999990
   14.53555584  117.90000153    0.28000000    2.86999989
   14.53888893  110.43399811    0.28000000    2.86999989
   14.54222298  110.67700195    0.28000000    2.84999990
   14.54527855  115.15399933    0.28000000    2.84999990
   14.54861164  117.12500000    0.28000000    2.84999990
   14.55166721  113.78600311    0.25999999    2.84999990
   14.55500031  125.21199799    0.28000000    2.84999990
   14.56111145  125.21199799    0.30000001    2.86999989
   14.56527805  109.99800110    0.30000001    2.86999989
   14.56833363  112.55000305    0.30000001    2.84999990
   14.57166672  117.25700378    0.30000001    2.84999990
   14.57472229  112.68099976    0.30000001    2.84999990
   14.57805538  114.41300201    0.30000001    2.84999990
   14.58138847  115.40000153    0.30000001    2.84999990
   14.58444405  115.73400116    0.30000001    2.86999989
   14.58777714  109.62599945    0.30000001    2.84999990
   14.59111118  112.29100037    0.30000001    2.84999990
   14.59416676  112.49199677    0.30000001    2.84999990
   14.59749985  107.63099670    0.30000001    2.84999990
   14.59833336  109.69899750    0.30000001    2.84999990
   14.61916637  109.69899750    0.28000000    2.84999990
   14.62333393  105.97299957    0.28000000    2.84999990
   14.62638855  109.72499847    0.28000000    2.84999990
   14.62972260  106.68199921    0.28000000    2.84999990
   14.63166714  107.62799835    0.28000000    2.86999989
   14.63333321  107.50700378    0.28000000    2.86999989
   14.63638878  108.27799988    0.28000000    2.84999990
   14.63972187  110.43900299    0.28000000    2.84999990
   14.64305496  106.02899933    0.30000001    2.86999989
   14.64611053  105.62500000    0.30000001    2.84999990
   14.64944458  112.76499939    0.28000000    2.84999990
   14.65277767  107.75399780    0.28000000    2.86999989
   14.65583324  114.52700043    0.28000000    2.86999989
   14.66194439  114.52700043    0.28000000    2.86999989
   14.66583252  111.37100220    0.28000000    2.86999989
   14.66916656  115.29699707    0.28000000    2.86999989
   14.67250061  113.57399750    0.28000000    2.86999989
   14.67555618  110.34799957    0.28000000    2.86999989
   14.67888927  113.95600128    0.28000000    2.84999990
   14.68194485  108.83999634    0.28000000    2.84999990
   14.68527794  113.38300323    0.30000001    2.84999990
   14.68861103  112.63899994    0.30000001    2.84999990
   14.69166660  108.72299957    0.30000001    2.84999990
   14.69499969  112.96499634    0.28000000    2.86999989
   14.69833374  113.49199677    0.28000000    2.86999989
   14.69888878  114.58000183    0.28000000    2.86999989
   14.70472240  114.58000183    0.28000000    2.84999990
   14.70888901  110.68900299    0.28000000    2.86999989
   14.71194458  116.78299713    0.28000000    2.86999989
   14.71527767  112.41000366    0.28000000    2.86999989
   14.71833324  112.92199707    0.28000000    2.84999990
   14.72166634  116.05999756    0.28000000    2.86999989
   14.72499943  108.46299744    0.28000000    2.86999989
   14.72805500  115.15899658    0.28000000    2.84999990
   14.73138809  111.02600098    0.28000000    2.86999989
   14.73222160  117.47000122    0.28000000    2.86999989
   14.73500061  122.66300201    0.30000001    2.86999989
   14.73833370  116.97399902    0.28000000    2.86999989
   14.74138927  116.70600128    0.28000000    2.84999990
   14.74750042  116.70600128    0.30000001    2.86999989
   14.75166702  113.22299957    0.30000001    2.86999989
   14.75500011  115.20999908    0.28000000    2.86999989
   14.75805569  108.82299805    0.28000000    2.86999989
   14.76138878  108.55799866    0.28000000    2.86999989
   14.76444435  114.84500122    0.30000001    2.84999990
   14.76555538  115.25599670    0.30000001    2.84999990
   14.76805496  113.26999664    0.28000000    2.86999989
   14.77138901  112.55200195    0.28000000    2.86999989
   14.77444458  109.66899872    0.28000000    2.86999989
   14.77777767  118.43299866    0.28000000    2.86999989
   14.78111076  115.65899658    0.28000000    2.86999989
   14.78416729  107.19000244    0.28000000    2.86999989
   14.79027843  107.19000244    0.30000001    2.86999989
   14.79444504  114.00700378    0.30000001    2.86999989
   14.79777813  103.75199890    0.30000001    2.86999989
   14.79888916  113.64900208    0.30000001    2.84999990
   14.80138874  114.61499786    0.30000001    2.86999989
   14.80472279  111.08300018    0.30000001    2.86999989
   14.80777836  106.11399841    0.30000001    2.86999989
   14.81111145  111.69000244    0.30000001    2.86999989
   14.81444454  101.04299927    0.30000001    2.84999990
   14.81750011  107.91799927    0.30000001    2.84999990
   14.82083321  107.72299957    0.30000001    2.84999990
   14.82416630  100.84700012    0.30000001    2.86999989
   14.82722187  113.82399750    0.28000000    2.86999989
   14.83333302  113.82399750    0.28000000    2.86999989
   14.83722210  111.36799622    0.28000000    2.86999989
   14.84055519  114.51000214    0.28000000    2.86999989
   14.84388828  114.47399902    0.28000000    2.89000010
   14.84694386  124.06400299    0.28000000    2.86999989
   14.85027790  109.77999878    0.28000000    2.86999989
   14.85333347  116.64800262    0.28000000    2.86999989
   14.85666752  108.11599731    0.28000000    2.86999989
   14.86000061  117.55000305    0.28000000    2.86999989
   14.86305618  119.94599915    0.28000000    2.86999989
   14.86555576  114.95800018    0.28000000    2.86999989
   14.86666679  109.86100006    0.28000000    2.86999989
   14.86999989  110.17600250    0.30000001    2.86999989
   14.87611103  110.17600250    0.28000000    2.86999989
   14.88027763  111.75800323    0.28000000    2.86999989
   14.88333321  113.32599640    0.28000000    2.86999989
   14.88666630  112.49400330    0.30000001    2.86999989
   14.89000034  120.17099762    0.30000001    2.86999989
   14.89305496  110.87300110    0.31999999    2.86999989
   14.89638901  112.34500122    0.31999999    2.86999989
   14.89888859  108.18299866    0.34000000    2.86999989
   14.89999962  111.30300140    0.34000000    2.86999989
   14.90333271  106.48500061    0.34000000    2.86999989
   14.90666676  110.84799957    0.34000000    2.86999989
   14.90972137  102.85399628    0.34000000    2.86999989
   14.91305542  111.33499908    0.31999999    2.86999989
   14.91888905  111.33499908    0.34000000    2.86999989
   14.92305565  105.70400238    0.34000000    2.86999989
   14.92611122  116.26799774    0.34000000    2.86999989
   14.92944431  111.88999939    0.36000001    2.86999989
   14.93222237  103.36699677    0.34000000    2.89000010
   14.93305588  109.70400238    0.34000000    2.86999989
   14.93638897  110.54900360    0.34000000    2.86999989
   14.93972206  112.51599884    0.34000000    2.86999989
   14.94277763  110.23899841    0.34000000    2.86999989
   14.94611073  113.01899719    0.31999999    2.86999989
   14.94916630  107.67900085    0.31999999    2.86999989
   14.95249939  118.29799652    0.31999999    2.86999989
   14.95583344  118.48899841    0.31999999    2.86999989
   14.96166611  118.48899841    0.31999999    2.89000010
   14.96583271  108.07399750    0.31999999    2.86999989
   14.96916580  116.78900146    0.34000000    2.86999989
   14.97222137  115.39299774    0.34000000    2.86999989
   14.97555542  112.48300171    0.34000000    2.86999989
   14.97888851  112.71900177    0.34000000    2.86999989
   14.98194408  119.44400024    0.34000000    2.86999989
   14.98527813  111.14099884    0.36000001    2.86999989
   14.98833370  110.51200104    0.36000001    2.86999989
   14.99166679  114.29199982    0.36000001    2.86999989
   14.99499989  109.59100342    0.38000000    2.89000010
   14.99805546  114.32700348    0.38000000    2.89000010
   14.99888897  113.92299652    0.38000000    2.89000010
   15.00444412  113.92299652    0.38000000    2.86999989
   15.00861073  117.39600372    0.38000000    2.86999989
   15.01194477  104.15799713    0.38000000    2.86999989
   15.01527786  104.91000366    0.38000000    2.86999989
   15.01833344  108.67500305    0.38000000    2.86999989
   15.02166653  113.34100342    0.38000000    2.86999989
   15.02472210  109.09899902    0.38000000    2.86999989
   15.02805519  110.58100128    0.38000000    2.89000010
   15.03138828  118.11499786    0.36000001    2.86999989
   15.03222179  106.74199677    0.36000001    2.86999989
   15.03500080  103.74800110    0.38000000    2.86999989
   15.03805637  108.90399933    0.34000000    2.89000010
   15.04138947  107.45600128    0.34000000    2.89000010
   15.04750061  107.45600128    0.31999999    2.86999989
   15.05166721   98.24289703    0.30000001    2.86999989
   15.05472279  112.86699677    0.28000000    2.86999989
   15.05805588  106.98899841    0.28000000    2.89000010
   15.06111145  108.29499817    0.28000000    2.86999989
   15.06444454  104.66500092    0.28000000    2.86999989
   15.06555557  107.32399750    0.28000000    2.86999989
   15.06805515  109.95600128    0.28000000    2.86999989
   15.07138920  113.21099854    0.25999999    2.86999989
   15.07472229  112.44699860    0.25999999    2.86999989
   15.07777786  113.64800262    0.25999999    2.86999989
   15.08111095  112.31300354    0.25999999    2.89000010
   15.08444405  110.85199738    0.25999999    2.89000010
   15.09027767  110.85199738    0.28000000    2.86999989
   15.09444427  108.48000336    0.28000000    2.89000010
   15.09777737  109.54399872    0.28000000    2.86999989
   15.09888840  104.46800232    0.28000000    2.86999989
   15.10138893  121.13200378    0.28000000    2.89000010
   15.10472298  110.19899750    0.28000000    2.89000010
   15.10805607  110.01799774    0.28000000    2.89000010
   15.11111164  106.36900330    0.28000000    2.89000010
   15.11444473  105.52200317    0.28000000    2.89000010
   15.11750031  106.53399658    0.28000000    2.89000010
   15.12083340  113.85399628    0.28000000    2.89000010
   15.12416649  116.55100250    0.28000000    2.89000010
   15.12722206  104.23500061    0.30000001    2.89000010
   15.13305569  104.23500061    0.30000001    2.89000010
   15.13722229  118.48300171    0.34000000    2.86999989
   15.14055538  112.76999664    0.34000000    2.89000010
   15.14361095  111.68599701    0.34000000    2.89000010
   15.14694405  117.95099640    0.36000001    2.86999989
   15.15027714  120.88600159    0.36000001    2.86999989
   15.15333271  114.58300018    0.40000001    2.89000010
   15.15666676  117.98699951    0.56999999    2.86999989
   15.15972137  111.61399841    0.44000000    2.89000010
   15.16305542  115.66799927    0.44000000    2.89000010
   15.16555500  112.37100220    0.46000001    2.86999989
   15.16666698  112.38999939    0.41999999    2.89000010
   15.17000008  109.78500366    0.41999999    2.89000010
   15.17583370  109.78500366    0.44000000    2.89000010
   15.18000031  107.61900330    0.46000001    2.89000010
   15.18333340  105.93199921    0.47999999    2.89000010
   15.18666649  111.12200165    0.50000000    2.89000010
   15.18972206  111.95700073    0.50000000    2.86999989
   15.19305515  116.22899628    0.47999999    2.86999989
   15.19638920  109.91000366    0.47999999    2.86999989
   15.19888878  109.74800110    0.47999999    2.86999989
   15.19999981  113.30899811    0.46000001    2.89000010
   15.20333290  113.13999939    0.44000000    2.89000010
   15.20638847  102.72699738    0.44000000    2.89000010
   15.20972157   95.25430298    0.44000000    2.86999989
   15.21305561  102.58499908    0.41999999    2.89000010
   15.21888828  102.58499908    0.40000001    2.86999989
   15.22305489  104.31700134    0.38000000    2.86999989
   15.22611046  103.28800201    0.34000000    2.89000010
   15.22944355  110.73500061    0.34000000    2.89000010
   15.23222160  111.40799713    0.31999999    2.89000010
   15.23305511  104.77899933    0.31999999    2.89000010
   15.23638916  108.28500366    0.31999999    2.86999989
   15.23972225  106.81099701    0.31999999    2.89000010
   15.24277782  104.28600311    0.31999999    2.89000010
   15.24611092  112.61199951    0.31999999    2.89000010
   15.24944496  114.66400146    0.31999999    2.89000010
   15.25249958  104.86499786    0.34000000    2.89000010
   15.25583363  109.96800232    0.31999999    2.86999989
   15.26166630  109.96800232    0.34000000    2.89000010
   15.26583290  109.50700378    0.34000000    2.89000010
   15.26916599  109.41200256    0.34000000    2.89000010
   15.27250004  110.97100067    0.34000000    2.91000009
   15.27555561  107.28099823    0.34000000    2.91000009
   15.27888870  106.27300262    0.34000000    2.89000010
   15.28222179  109.76499939    0.34000000    2.89000010
   15.28527832  109.92600250    0.34000000    2.89000010
   15.28861141  110.93199921    0.34000000    2.89000010
   15.29194450  111.80500031    0.34000000    2.89000010
   15.29500008  106.62000275    0.34000000    2.89000010
   15.29833412  108.16000366    0.34000000    2.91000009
   15.29888916  105.07399750    0.31999999    2.91000009
   15.30444431  105.07399750    0.31999999    2.89000010
   15.30861092  112.84700012    0.31999999    2.89000010
   15.31194496  109.37400055    0.31999999    2.89000010
   15.31500053  112.83799744    0.31999999    2.86999989
   15.31833363  107.63999939    0.34000000    2.89000010
   15.32166672  111.64299774    0.34000000    2.89000010
   15.32472229  114.01000214    0.34000000    2.89000010
   15.32805538  115.05899811    0.34000000    2.89000010
   15.33111095  105.13600159    0.34000000    2.86999989
   15.33222198  108.04599762    0.34000000    2.86999989
   15.33472157  105.35600281    0.34000000    2.86999989
   15.33805561  102.05400085    0.34000000    2.86999989
   15.34138870  108.25800323    0.34000000    2.89000010
   15.34722233  108.25800323    0.34000000    2.89000010
   15.35138893  103.46900177    0.34000000    2.89000010
   15.35472298  106.25900269    0.34000000    2.89000010
   15.35805607  106.29799652    0.36000001    2.89000010
   15.36111164  109.06500244    0.36000001    2.89000010
   15.36444473  102.31099701    0.36000001    2.89000010
   15.36555576  111.91799927    0.36000001    2.89000010
   15.36833382  109.69400024    0.36000001    2.89000010
   15.37138939  107.61499786    0.36000001    2.89000010
   15.37472248  115.92299652    0.36000001    2.89000010
   15.37777805  112.71499634    0.38000000    2.89000010
   15.38111115  106.58399963    0.36000001    2.89000010
   15.38444424  115.74600220    0.36000001    2.89000010
   15.39027786  115.74600220    0.36000001    2.89000010
   15.39416695   99.77290344    0.36000001    2.89000010
   15.39750004  105.01300049    0.38000000    2.89000010
   15.39888859  109.48200226    0.38000000    2.89000010
   15.40138817  104.92099762    0.38000000    2.89000010
   15.40444374  111.54299927    0.38000000    2.89000010
   15.40777779  114.52799988    0.38000000    2.91000009
   15.41083336  103.49500275    0.38000000    2.89000010
   15.41416645  115.38800049    0.38000000    2.89000010
   15.41750050  110.93800354    0.40000001    2.91000009
   15.42055607  109.29299927    0.40000001    2.91000009
   15.42388916  106.09300232    0.38000000    2.89000010
   15.42722225  103.76100159    0.40000001    2.89000010
   15.43305588  103.76100159    0.40000001    2.89000010
   15.43722248  105.59600067    0.41999999    2.89000010
   15.44027805  102.47299957    0.41999999    2.89000010
   15.44361115  104.51200104    0.40000001    2.89000010
   15.44694424   98.04340363    0.40000001    2.91000009
   15.44999981   94.04419708    0.40000001    2.91000009
   15.45333290  100.78199768    0.40000001    2.86999989
   15.45666695   96.97029877    0.40000001    2.89000010
   15.45972157  100.70200348    0.41999999    2.89000010
   15.46305561  101.34200287    0.41999999    2.89000010
   15.46555519  108.39800262    0.41999999    2.89000010
   15.46694374  105.08200073    0.41999999    2.89000010
   15.46999931  109.54000092    0.41999999    2.89000010
   15.47583294  109.54000092    0.41999999    2.91000009
   15.47999954  103.14199829    0.41999999    2.89000010
   15.48333359  101.78099823    0.41999999    2.89000010
   15.48638916  102.70800018    0.41999999    2.89000010
   15.48972225  103.66000366    0.41999999    2.89000010
   15.49277782  104.73799896    0.40000001    2.91000009
   15.49611092  105.31600189    0.40000001    2.89000010
   15.49888897  109.10099792    0.40000001    2.89000010
   15.50000000  106.29699707    0.38000000    2.89000010
   15.50305557  104.41699982    0.40000001    2.89000010
   15.50638866  101.72699738    0.40000001    2.89000010
   15.50972176  107.91799927    0.38000000    2.89000010
   15.51277733  108.91300201    0.36000001    2.89000010
   15.51861095  108.91300201    0.34000000    2.89000010
   15.52277756  107.69799805    0.34000000    2.89000010
   15.52611065  103.94000244    0.34000000    2.89000010
   15.52916622   99.81870270    0.34000000    2.89000010
   15.53222179   99.47440338    0.34000000    2.89000010
   15.53305531  108.85399628    0.34000000    2.89000010
   15.53611183   99.98179626    0.34000000    2.91000009
   15.53944492  103.09200287    0.34000000    2.89000010
   15.54250050  109.67600250    0.31999999    2.89000010
   15.54583359  107.41600037    0.34000000    2.89000010
   15.54916668  106.01200104    0.34000000    2.91000009
   15.55222225  109.57900238    0.34000000    2.89000010
   15.55555534   93.75420380    0.34000000    2.89000010
   15.56166649   93.75420380    0.34000000    2.91000009
   15.56555557  107.51399994    0.34000000    2.89000010
   15.56888866  103.13600159    0.34000000    2.89000010
   15.57222176  101.26499939    0.34000000    2.89000010
   15.57527733   97.50350189    0.34000000    2.89000010
   15.57861137   98.81559753    0.34000000    2.89000010
   15.58194447  104.58499908    0.34000000    2.89000010
   15.58500004  101.70300293    0.34000000    2.91000009
   15.58833313   99.75219727    0.34000000    2.91000009
   15.59138870  102.61100006    0.34000000    2.89000010
   15.59472179   98.79759979    0.34000000    2.89000010
   15.59805489   98.74859619    0.34000000    2.89000010
   15.59888840   92.32240295    0.34000000    2.89000010
   15.60444450   92.32240295    0.34000000    2.89000010
   15.60861111   96.68009949    0.34000000    2.89000010
   15.61166668   98.18329620    0.34000000    2.89000010
   15.61500072   97.95989990    0.36000001    2.91000009
   15.63249969  106.66400146    0.36000001    2.91000009
   15.63500023   97.86470032    0.36000001    2.91000009
   15.63833332  100.36399841    0.34000000    2.91000009
   15.64138889  107.29199982    0.34000000    2.91000009
   15.64750004  107.29199982    0.34000000    2.91000009
   15.65166664   99.00620270    0.34000000    2.89000010
   15.65472221  106.83499908    0.34000000    2.89000010
   15.65805531  104.70999908    0.31999999    2.89000010
   15.66138840   92.56240082    0.31999999    2.91000009
   15.66444397   95.20259857    0.34000000    2.89000010
   15.66583252  102.87400055    0.31999999    2.89000010
   15.66833401  102.49700165    0.31999999    2.89000010
   15.67138958   96.86630249    0.31999999    2.89000010
   15.67472267  107.05100250    0.31999999    2.89000010
   15.67805576   99.41110229    0.31999999    2.89000010
   15.68111134  104.24600220    0.34000000    2.89000010
   15.68444443   98.30290222    0.34000000    2.89000010
   15.69027805   98.30290222    0.30000001    2.89000010
   15.69444466  106.10199738    0.30000001    2.89000010
   15.69750023   93.24600220    0.30000001    2.89000010
   15.69916630  100.31199646    0.30000001    2.89000010
   15.70138836   92.65280151    0.31999999    2.91000009
   15.70444393   99.47039795    0.30000001    2.89000010
   15.70777798   99.26039886    0.30000001    2.89000010
   15.71111107  100.06700134    0.30000001    2.89000010
   15.71416664   97.46790314    0.30000001    2.89000010
   15.71749973  104.54299927    0.30000001    2.89000010
   15.72083282   97.44960022    0.30000001    2.89000010
   15.72388840   95.12449646    0.30000001    2.89000010
   15.72722149   91.27819824    0.28000000    2.89000010
   15.73305511   91.27819824    0.30000001    2.89000010
   15.73722267   97.98870087    0.30000001    2.91000009
   15.74055576   99.97589874    0.30000001    2.89000010
   15.74361134   97.18309784    0.30000001    2.91000009
   15.74694443   97.55609894    0.30000001    2.89000010
   15.75027752  104.86299896    0.30000001    2.89000010
   15.75333309   98.67639923    0.30000001    2.91000009
   15.75666714   96.94570160    0.30000001    2.91000009
   15.75972176   94.43789673    0.30000001    2.89000010
   15.76305580  106.35700226    0.30000001    2.89000010
   15.76583290   92.26439667    0.30000001    2.89000010
   15.76666641  103.38800049    0.30000001    2.91000009
   15.76972198  102.26599884    0.30000001    2.91000009
   15.77583313  102.26599884    0.30000001    2.89000010
   15.77999973   91.13500214    0.28000000    2.91000009
   15.78333378   98.31800079    0.28000000    2.91000009
   15.78666687  102.63600159    0.30000001    2.89000010
   15.78972244   97.09100342    0.30000001    2.89000010
   15.79305553  101.35800171    0.30000001    2.89000010
   15.79611111   99.46189880    0.30000001    2.91000009
   15.79916668   95.89669800    0.30000001    2.91000009
   15.80000019   93.46389771    0.30000001    2.91000009
   15.80333328   97.71209717    0.30000001    2.89000010
   15.80638885   95.37110138    0.30000001    2.91000009
   15.80972195   99.85160065    0.30000001    2.89000010
   15.81277752  102.08300018    0.30000001    2.91000009
   15.81888866  102.08300018    0.31999999    2.89000010
   15.82305527   96.14669800    0.34000000    2.89000010
   15.82611084  109.19300079    0.36000001    2.89000010
   15.82944393  105.32099915    0.34000000    2.91000009
   15.83249950  103.37999725    0.36000001    2.91000009
   15.83305550  112.26499939    0.36000001    2.91000009
   15.83611107  104.62599945    0.34000000    2.89000010
   15.83944416  101.42299652    0.34000000    2.89000010
   15.84277725  103.33399963    0.34000000    2.91000009
   15.84583282   98.63919830    0.34000000    2.89000010
   15.84916592  104.28299713    0.34000000    2.89000010
   15.85222244  101.38899994    0.34000000    2.91000009
   15.85555553  101.39499664    0.34000000    2.91000009
   15.86166668  101.39499664    0.31999999    2.89000010
   15.86583328  102.39299774    0.31999999    2.89000010
   15.86638927   98.68029785    0.31999999    2.89000010
   15.86944485   95.01119995    0.31999999    2.91000009
   15.87277794   99.59200287    0.31999999    2.91000009
   15.87611103  100.94000244    0.30000001    2.89000010
   15.87916660  107.61399841    0.30000001    2.89000010
   15.88249969  102.84999847    0.30000001    2.89000010
   15.88583279   97.45970154    0.30000001    2.89000010
   15.88888836   91.41549683    0.31999999    2.89000010
   15.89222240  108.73999786    0.31999999    2.89000010
   15.89527798  106.91000366    0.31999999    2.91000009
   15.89861107   98.40640259    0.31999999    2.91000009
   15.89916611  101.55000305    0.31999999    2.91000009
   15.90444374  101.55000305    0.31999999    2.89000010
   15.90861034  107.84300232    0.31999999    2.89000010
   15.91194439  102.66899872    0.31999999    2.89000010
   15.91499996  106.92800140    0.31999999    2.89000010
   15.91833401  101.53199768    0.31999999    2.89000010
   15.92166710  106.06700134    0.34000000    2.91000009
   15.92472267  105.70899963    0.34000000    2.91000009
   15.92805576  104.65899658    0.34000000    2.91000009
   15.93111134   94.45850372    0.34000000    2.91000009
   15.93249989  102.23000336    0.34000000    2.91000009
   15.93500042  114.96399689    0.34000000    2.89000010
   15.93805599  107.37200165    0.34000000    2.89000010
   15.94138908  106.55100250    0.34000000    2.91000009
   15.94722271  106.55100250    0.34000000    2.91000009
   15.95138836  104.18099976    0.34000000    2.93000007
   15.95472240  106.11399841    0.34000000    2.89000010
   15.95805550   97.26210022    0.34000000    2.91000009
   15.96111107  101.01200104    0.36000001    2.89000010
   15.96444416  109.14900208    0.36000001    2.91000009
   15.96583271   99.05269623    0.36000001    2.91000009
   15.96805477   99.76049805    0.38000000    2.93000007
   15.97111034  100.01399994    0.36000001    2.89000010
   15.97444439   91.29350281    0.36000001    2.93000007
   15.97777748  102.24199677    0.36000001    2.91000009
   15.98083305   96.65119934    0.36000001    2.91000009
   15.98416710   99.20149994    0.36000001    2.89000010
   15.99027824   99.20149994    0.40000001    2.91000009
   15.99444485   98.54109955    0.40000001    2.89000010
   15.99750042  101.48000336    0.40000001    2.89000010
   15.99916649   99.10530090    0.40000001    2.89000010
   16.00111198   98.51349640    0.40000001    2.91000009
   16.00416756   97.02030182    0.40000001    2.91000009
   16.00749969  100.03600311    0.40000001    2.91000009
   16.01083374  112.11399841    0.40000001    2.91000009
   16.01388931   97.57839966    0.41999999    2.91000009
   16.01722145  111.31300354    0.41999999    2.91000009
   16.02055550  107.36399841    0.40000001    2.91000009
   16.02361107  116.22399902    0.41999999    2.89000010
   16.02694511  110.21299744    0.41999999    2.89000010
   16.03305435  110.21299744    0.38000000    2.91000009
   16.03722191  105.16000366    0.38000000    2.89000010
   16.04055595  106.80100250    0.36000001    2.91000009
   16.04361153  102.94499969    0.36000001    2.91000009
   16.04694366  101.21299744    0.34000000    2.91000009
   16.04999924  101.35199738    0.34000000    2.89000010
   16.05333328  106.31700134    0.34000000    2.91000009
   16.05666542  106.29100037    0.34000000    2.91000009
   16.05972099  112.21800232    0.34000000    2.89000010
   16.06305504  104.91799927    0.34000000    2.91000009
   16.06583214  109.33499908    0.34000000    2.89000010
   16.06666756  109.82499695    0.34000000    2.89000010
   16.06972313  100.92199707    0.36000001    2.91000009
   16.07583427  100.92199707    0.36000001    2.91000009
   16.08000183  109.21399689    0.34000000    2.91000009
   16.08333397  112.57199860    0.36000001    2.91000009
   16.08638954  109.12899780    0.34000000    2.91000009
   16.08972359  117.01399994    0.36000001    2.89000010
   16.09305573  112.39299774    0.36000001    2.91000009
   16.09611130  114.97899628    0.34000000    2.89000010
   16.09916687  105.62699890    0.34000000    2.89000010
   16.09972191  109.83699799    0.34000000    2.89000010
   16.10277748  109.76699829    0.36000001    2.89000010
   16.10611153  105.81300354    0.36000001    2.89000010
   16.10944557  105.85800171    0.38000000    2.91000009
   16.11250114  107.83999634    0.40000001    2.89000010
   16.11888885  107.83999634    0.44000000    2.89000010
   16.12277794   98.08560181    0.44000000    2.89000010
   16.12611198  108.05599976    0.44000000    2.91000009
   16.12944412   99.60350037    0.47999999    2.91000009
   16.13249969  102.51599884    0.47999999    2.89000010
   16.13305473  109.77100372    0.47999999    2.89000010
   16.13638878  105.83699799    0.50000000    2.91000009
   16.13944435  102.58799744    0.47999999    2.89000010
   16.14277840  102.53399658    0.47999999    2.91000009
   16.14583397  106.58300018    0.47999999    2.91000009
   16.14916611  114.73899841    0.47999999    2.91000009
   16.15250015  110.39499664    0.47999999    2.89000010
   16.15555573  105.67299652    0.47999999    2.91000009
   16.16166687  105.67299652    0.46000001    2.91000009
   16.16583252  111.50800323    0.46000001    2.89000010
   16.16638756  101.29299927    0.46000001    2.89000010
   16.16944313   99.47370148    0.46000001    2.89000010
   16.17277718   94.70369720    0.46000001    2.91000009
   16.17611122  100.89299774    0.46000001    2.91000009
   16.17916679  108.38800049    0.46000001    2.89000010
   16.18249893   98.48110199    0.46000001    2.91000009
   16.18555450  105.15699768    0.44000000    2.91000009
   16.18888855  101.98100281    0.44000000    2.89000010
   16.19222069  110.82099915    0.41999999    2.91000009
   16.19527626  111.52300262    0.41999999    2.91000009
   16.19861031   92.57630157    0.44000000    2.91000009
   16.19972038   99.97219849    0.44000000    2.91000009
   16.20444489   99.97219849    0.44000000    2.91000009
   16.20861244  107.84700012    0.44000000    2.89000010
   16.21166801  109.27500153    0.44000000    2.91000009
   16.21500015  107.60199738    0.44000000    2.91000009
   16.21833420  104.65299988    0.44000000    2.91000009
   16.22166634  104.75299835    0.44000000    2.89000010
   16.22472191  105.96600342    0.44000000    2.89000010
   16.22805595   96.82579803    0.44000000    2.91000009
   16.23111153  105.58399963    0.44000000    2.91000009
   16.23305511  105.61599731    0.44000000    2.89000010
   16.23472214  108.95700073    0.44000000    2.89000010
   16.23805618  106.74199677    0.41999999    2.91000009
   16.24111176  109.28199768    0.41999999    2.89000010
   16.24722290  109.28199768    0.40000001    2.89000010
   16.25138855  106.29399872    0.40000001    2.89000010
   16.25472260  101.18800354    0.40000001    2.91000009
   16.25777817   99.13300323    0.40000001    2.91000009
   16.26111031  105.15699768    0.40000001    2.91000009
   16.26444435  101.63500214    0.40000001    2.91000009
   16.26638794  109.96600342    0.40000001    2.89000010
   16.26777840  101.64700317    0.40000001    2.91000009
   16.27111053  113.30500031    0.40000001    2.89000010
   16.27444458  101.33999634    0.38000000    2.91000009
   16.27750015  105.18699646    0.38000000    2.91000009
   16.28083229  102.83300018    0.40000001    2.91000009
   16.28388786  110.49299622    0.38000000    2.91000009
   16.29027748  110.49299622    0.38000000    2.91000009
   16.29416656  102.48500061    0.40000001    2.91000009
   16.29749870  107.48799896    0.40000001    2.91000009
   16.29972076  115.84500122    0.38000000    2.91000009
   16.30111122  109.95600128    0.38000000    2.91000009
   16.30444336  109.98999786    0.38000000    2.91000009
   16.30777740  102.55799866    0.40000001    2.91000009
   16.31083298  106.09500122    0.38000000    2.91000009
   16.31416512  107.60600281    0.38000000    2.91000009
   16.31722260  109.10399628    0.38000000    2.91000009
   16.32055664  108.21199799    0.38000000    2.91000009
   16.32389069  109.00000000    0.38000000    2.89000010
   16.32694626  113.46099854    0.36000001    2.91000009
   16.33305550  113.46099854    0.36000001    2.89000010
   16.33722305  103.08699799    0.36000001    2.91000009
   16.34027863  102.52500153    0.34000000    2.91000009
   16.34361267  107.38400269    0.34000000    2.89000010
   16.34666824  103.25499725    0.34000000    2.91000009
   16.35000038  105.18699646    0.34000000    2.89000010
   16.35333443  101.54799652    0.34000000    2.91000009
   16.35639000  109.27300262    0.34000000    2.91000009
   16.35972214  106.81600189    0.34000000    2.91000009
   16.36305618  108.93499756    0.34000000    2.91000009
   16.36611176  111.94899750    0.31999999    2.91000009
   16.36694527  102.83699799    0.31999999    2.91000009
   16.37000084  103.94799805    0.31999999    2.91000009
   16.37583351  103.94799805    0.31999999    2.91000009
   16.38000107  107.33999634    0.31999999    2.91000009
   16.38305473  105.73600006    0.31999999    2.91000009
   16.38638878  105.80500031    0.31999999    2.91000009
   16.38972282  113.36799622    0.31999999    2.91000009
   16.39277840  100.17800140    0.31999999    2.91000009
   16.39611053  109.75399780    0.31999999    2.91000009
   16.39944458  111.59600067    0.31999999    2.91000009
   16.39999962  119.69599915    0.31999999    2.91000009
   16.40305519  103.54000092    0.31999999    2.91000009
   16.40611076  113.76300049    0.31999999    2.89000010
   16.40944481  108.34200287    0.31999999    2.91000009
   16.41277695  113.75199890    0.31999999    2.91000009
   16.41860962  113.75199890    0.31999999    2.91000009
   16.42277718  110.02100372    0.31999999    2.89000010
   16.42611122  108.66400146    0.31999999    2.91000009
   16.42916679  111.24800110    0.31999999    2.91000009
   16.43249893  102.74600220    0.31999999    2.91000009
   16.43333244  105.87899780    0.31999999    2.91000009
   16.43610954  109.14700317    0.31999999    2.91000009
   16.43916512  111.35199738    0.31999999    2.91000009
   16.44249916  118.93199921    0.31999999    2.91000009
   16.44583321  111.31300354    0.31999999    2.91000009
   16.44888878  111.81500244    0.31999999    2.91000009
   16.45222282  102.91100311    0.31999999    2.89000010
   16.45555687  110.56999969    0.31999999    2.91000009
   16.46138954  110.56999969    0.31999999    2.91000009
   16.46555710  106.64299774    0.31999999    2.91000009
   16.46666718  102.08100128    0.31999999    2.91000009
   16.46944427  108.65000153    0.34000000    2.91000009
   16.47277832  111.34999847    0.34000000    2.91000009
   16.47583389  112.81199646    0.34000000    2.91000009
   16.47916794  107.57900238    0.36000001    2.91000009
   16.48222351  110.24500275    0.36000001    2.91000009
   16.48555565  113.20300293    0.38000000    2.91000009
   16.48888969  109.26999664    0.38000000    2.91000009
   16.49194527  109.80599976    0.38000000    2.91000009
   16.49527740  109.12899780    0.38000000    2.89000010
   16.49861145  105.85900116    0.38000000    2.91000009
   16.50000000  103.03700256    0.38000000    2.91000009
   16.50444412  103.03700256    0.40000001    2.91000009
   16.50861168  110.40899658    0.40000001    2.91000009
   16.51166725  100.55500031    0.41999999    2.89000010
   16.51499939  118.91600037    0.44000000    2.89000010
   16.51805496  114.18599701    0.41999999    2.89000010
   16.52138901  113.05100250    0.41999999    2.91000009
   16.52472115  117.98500061    0.41999999    2.89000010
   16.52777672  115.18499756    0.41999999    2.91000009
   16.53111076  110.45200348    0.41999999    2.89000010
   16.53333282  121.21900177    0.41999999    2.89000010
   16.53472137   94.98329926    0.41999999    2.89000010
   16.53805542  108.05699921    0.41999999    2.91000009
   16.54111099  110.94999695    0.44000000    2.91000009
   16.54722214  110.94999695    0.41999999    2.91000009
   16.55138779  108.01399994    0.41999999    2.89000010
   16.55472183  103.26999664    0.41999999    2.91000009
   16.55777740  107.29699707    0.41999999    2.91000009
   16.56110954  106.52999878    0.41999999    2.89000010
   16.56416512  105.86699677    0.41999999    2.91000009
   16.56666756  110.88800049    0.40000001    2.91000009
   16.56805611  106.35700226    0.40000001    2.89000010
   16.57139015  100.57199860    0.40000001    2.91000009
   16.57444572  103.68399811    0.40000001    2.91000009
   16.57777786   99.20259857    0.38000000    2.91000009
   16.58083344  104.15200043    0.38000000    2.91000009
   16.58416748  103.81099701    0.38000000    2.91000009
   16.59000015  103.81099701    0.36000001    2.91000009
   16.59416771  102.34799957    0.36000001    2.91000009
   16.59749985  106.79499817    0.36000001    2.91000009
   16.60000038  101.21900177    0.34000000    2.91000009
   16.60111237  101.92700195    0.34000000    2.89000010
   16.60444450  109.54599762    0.34000000    2.91000009
   16.60750008  107.81999969    0.34000000    2.91000009
   16.61083412   97.58999634    0.34000000    2.91000009
   16.61388969  105.53600311    0.34000000    2.91000009
   16.61722183  117.82299805    0.34000000    2.91000009
   16.62055588  102.38300323    0.36000001    2.91000009
   16.62361145  116.98000336    0.36000001    2.89000010
   16.62694550  100.70300293    0.38000000    2.91000009
   16.63277817  100.70300293    0.38000000    2.91000009
   16.65138817  110.11199951    0.41999999    2.91000009
   16.65444374  106.21299744    0.41999999    2.91000009
   16.65777779  103.90599823    0.41999999    2.91000009
   16.66083336  101.55200195    0.41999999    2.91000009
   16.66416550  102.33999634    0.41999999    2.91000009
   16.66749954  106.03600311    0.41999999    2.89000010
   16.67055511  104.23400116    0.41999999    2.89000010
   16.67611122  104.23400116    0.41999999    2.91000009
   16.68000031  106.23500061    0.41999999    2.91000009
   16.68333244  106.34700012    0.41999999    2.91000009
   16.68444443   97.51249695    0.41999999    2.91000009
   16.68694305   99.91200256    0.41999999    2.91000009
   16.69027710  107.82900238    0.40000001    2.91000009
   16.69361115  103.56199646    0.40000001    2.91000009
   16.69666672  100.33899689    0.40000001    2.91000009
   16.70000076  107.45099640    0.40000001    2.91000009
   16.70305634  103.58499908    0.40000001    2.91000009
   16.70639038  105.39900208    0.38000000    2.91000009
   16.70972252  105.33899689    0.38000000    2.91000009
   16.71277809  105.09700012    0.38000000    2.91000009
   16.71888924  105.09700012    0.38000000    2.91000009
   16.72305679  109.81300354    0.36000001    2.91000009
   16.72611237  102.04699707    0.36000001    2.91000009
   16.72944450  106.11399841    0.36000001    2.91000009
   16.73277855  103.76399994    0.36000001    2.89000010
   16.73583412  106.31900024    0.36000001    2.91000009
   16.73916626  105.64499664    0.36000001    2.91000009
   16.74222183  104.30999756    0.38000000    2.91000009
   16.74555588  103.03199768    0.38000000    2.91000009
   16.74888992   98.17400360    0.40000001    2.91000009
   16.75111198   98.47869873    0.41999999    2.91000009
   16.75250053  104.75000000    0.41999999    2.91000009
   16.75583267  101.31400299    0.44000000    2.91000009
   16.76166725  101.31400299    0.44000000    2.91000009
   16.76583290  103.06700134    0.44000000    2.91000009
   16.76916695   98.20809937    0.46000001    2.89000010
   16.77222252   98.04979706    0.47999999    2.91000009
   16.77555466   98.55000305    0.50000000    2.91000009
   16.77861023   95.57669830    0.50000000    2.91000009
   16.78194427  100.20600128    0.51999998    2.89000010
   16.78444481   97.91590118    0.50000000    2.91000009
   16.78555489  106.04799652    0.50000000    2.91000009
   16.78888893  102.33999634    0.50000000    2.91000009
   16.79222107  100.44699860    0.46000001    2.91000009
   16.79527664  103.76799774    0.44000000    2.91000009
   16.79861069  105.08799744    0.44000000    2.89000010
   16.80444336  105.08799744    0.41999999    2.91000009
   16.80861092  102.61100006    0.40000001    2.91000009
   16.81194305  105.55200195    0.36000001    2.91000009
   16.81499863  102.33699799    0.38000000    2.91000009
   16.81777954  113.54699707    0.38000000    2.91000009
   16.81861115  108.02400208    0.36000001    2.91000009
   16.82194519  104.26499939    0.34000000    2.89000010
   16.82527924  105.69300079    0.34000000    2.91000009
   16.82833481  100.62699890    0.31999999    2.91000009
   16.83166695  108.17099762    0.31999999    2.91000009
   16.83472252  103.92500305    0.31999999    2.91000009
   16.83805656   98.81749725    0.34000000    2.91000009
   16.84138870  109.49199677    0.31999999    2.91000009
   16.84749985  109.49199677    0.31999999    2.91000009
   16.85166740  100.16300201    0.34000000    2.91000009
   16.85472298  100.90599823    0.34000000    2.91000009
   16.85805511   95.06189728    0.34000000    2.89000010
   16.86111069  105.99199677    0.34000000    2.91000009
   16.86444473  103.05200195    0.31999999    2.91000009
   16.86777878  106.99800110    0.31999999    2.91000009
   16.87083435   96.99299622    0.31999999    2.89000010
   16.87416649  107.52799988    0.30000001    2.91000009
   16.87750053  102.30100250    0.30000001    2.91000009
   16.88055611  108.91100311    0.31999999    2.91000009
   16.88388824  105.43699646    0.31999999    2.91000009
   16.88444519  107.04699707    0.31999999    2.91000009
   16.89027786  107.04699707    0.31999999    2.91000009
   16.89444351  103.14099884    0.30000001    2.91000009
   16.89749908  104.89800262    0.30000001    2.91000009
   16.90083313  108.17199707    0.31999999    2.91000009
   16.90416718  109.42099762    0.30000001    2.91000009
   16.90722275  116.86599731    0.30000001    2.91000009
   16.91055489  104.35199738    0.31999999    2.91000009
   16.91388893  105.49700165    0.30000001    2.91000009
   16.91694450  101.26399994    0.30000001    2.91000009
   16.91777802  111.35299683    0.30000001    2.91000009
   16.92055511  106.85800171    0.30000001    2.89000010
   16.92388916  108.16999817    0.30000001    2.91000009
   16.92722130  105.05899811    0.30000001    2.91000009
   16.93305397  105.05899811    0.30000001    2.91000009
   16.93722153  105.95600128    0.31999999    2.91000009
   16.94055557  100.40200043    0.30000001    2.91000009
   16.94361115  106.90499878    0.31999999    2.89000010
   16.94694328  103.66100311    0.31999999    2.89000010
   16.95000076  103.77200317    0.31999999    2.91000009
   16.95111275  105.98799896    0.34000000    2.91000009
   16.95388985  103.91799927    0.34000000    2.91000009
   16.95694542   99.76319885    0.36000001    2.91000009
   16.96027946  103.33599854    0.36000001    2.91000009
   16.96333504  108.90200043    0.38000000    2.91000009
   16.96666718   96.02169800    0.36000001    2.91000009
   16.97000122  106.55400085    0.36000001    2.89000010
   16.97583389  106.55400085    0.38000000    2.91000009
   16.98000145  101.55400085    0.36000001    2.89000010
   16.98333359   99.36250305    0.36000001    2.91000009
   16.98444557  101.73799896    0.36000001    2.91000009
   16.98666763  102.46399689    0.38000000    2.91000009
   16.98999977  102.74099731    0.38000000    2.91000009
   16.99333382   97.89839935    0.38000000    2.89000010
   16.99638939  104.66600037    0.40000001    2.91000009
   16.99972153  100.63400269    0.40000001    2.91000009
   17.00305557  100.59700012    0.40000001    2.91000009
   17.00611115   97.16100311    0.38000000    2.91000009
   17.00944519  101.28199768    0.36000001    2.89000010
   17.01250076   94.62660217    0.36000001    2.89000010
   17.01861000   94.62660217    0.38000000    2.89000010
   17.02277756   92.23310089    0.40000001    2.91000009
   17.02611160   92.86389923    0.40000001    2.89000010
   17.02944374   95.06330109    0.40000001    2.91000009
   17.03249931  100.62999725    0.40000001    2.91000009
   17.03583336   99.73629761    0.38000000    2.91000009
   17.03888893   98.45279694    0.38000000    2.91000009
   17.04222107   97.81539917    0.38000000    2.91000009
   17.04555511   98.98419952    0.38000000    2.91000009
   17.04861069   93.67559814    0.38000000    2.91000009
   17.05111122   96.87809753    0.38000000    2.91000009
   17.05222130  100.58999634    0.38000000    2.91000009
   17.05555534  107.70200348    0.38000000    2.91000009
   17.06166649  107.70200348    0.38000000    2.91000009
   17.06583214  100.96800232    0.38000000    2.89000010
   17.06888962  102.37599945    0.38000000    2.91000009
   17.07222366  106.19799805    0.38000000    2.91000009
   17.07527924  101.34799957    0.38000000    2.89000010
   17.07861137  101.97699738    0.38000000    2.89000010
   17.08194542  100.57499695    0.36000001    2.91000009
   17.08444595  101.64600372    0.38000000    2.91000009
   17.08527756  100.85800171    0.38000000    2.91000009
   17.08861160  104.47799683    0.36000001    2.91000009
   17.09194565  101.37000275    0.36000001    2.89000010
   17.09500122  109.52400208    0.36000001    2.89000010
   17.09833336  102.87599945    0.36000001    2.91000009
   17.10444450  102.87599945    0.36000001    2.93000007
   17.10861206  103.36299896    0.34000000    2.91000009
   17.11194420   96.96880341    0.34000000    2.91000009
   17.11499977   96.14790344    0.34000000    2.89000010
   17.11777878  104.35800171    0.36000001    2.93000007
   17.11861038  101.18699646    0.36000001    2.91000009
   17.12194443  101.28700256    0.36000001    2.91000009
   17.12527847  100.33999634    0.36000001    2.91000009
   17.12833405  100.10600281    0.36000001    2.89000010
   17.13166618   97.18740082    0.36000001    2.91000009
   17.13500023   98.31199646    0.36000001    2.91000009
   17.13805580  103.45300293    0.36000001    2.89000010
   17.14138794  102.17500305    0.34000000    2.91000009
   17.14722252  102.17500305    0.34000000    2.91000009
   17.15138817  101.21800232    0.34000000    2.91000009
   17.15472221   96.45169830    0.34000000    2.91000009
   17.15777779  104.23100281    0.36000001    2.91000009
   17.16110992  101.70700073    0.38000000    2.91000009
   17.16444397  101.12000275    0.40000001    2.91000009
   17.16749954   94.34459686    0.38000000    2.89000010
   17.17083359  101.18699646    0.36000001    2.89000010
   17.17416573   95.52529907    0.36000001    2.91000009
   17.17722130  100.91799927    0.36000001    2.91000009
   17.18055534   99.69290161    0.36000001    2.91000009
   17.18361092   93.54190063    0.34000000    2.91000009
   17.18444443   93.62680054    0.34000000    2.91000009
   17.18999863   93.62680054    0.34000000    2.89000010
   17.19416618   95.54049683    0.36000001    2.91000009
   17.19749832   98.23699951    0.34000000    2.91000009
   17.20083427  104.54000092    0.34000000    2.91000009
   17.20388985  101.19100189    0.34000000    2.89000010
   17.20722389   97.87470245    0.36000001    2.89000010
   17.21027946  105.22000122    0.34000000    2.91000009
   17.21361160  110.30999756    0.34000000    2.91000009
   17.21694565   98.36250305    0.34000000    2.91000009
   17.21777916  100.87200165    0.34000000    2.91000009
   17.22055626   96.47250366    0.34000000    2.91000009
   17.22361183   97.74579620    0.36000001    2.89000010
   17.22694588   97.56420135    0.36000001    2.89000010
   17.23305511   97.56420135    0.36000001    2.89000010
   17.23722267  101.20200348    0.34000000    2.91000009
   17.24027824   95.07009888    0.36000001    2.91000009
   17.24361229  100.10099792    0.36000001    2.91000009
   17.24694443   99.48870087    0.36000001    2.91000009
   17.25000000  103.12000275    0.38000000    2.89000010
   17.25111198  107.08599854    0.36000001    2.89000010
   17.25388908   90.32589722    0.36000001    2.91000009
   17.25694466   98.26740265    0.38000000    2.91000009
   17.26027870  107.25000000    0.36000001    2.91000009
   17.26333427  102.88500214    0.36000001    2.91000009
   17.26666641  105.07499695    0.36000001    2.91000009
   17.27000046   99.94979858    0.36000001    2.91000009
   17.27583313   99.94979858    0.36000001    2.91000009
   17.28000069  104.04199982    0.36000001    2.89000010
   17.28305435   97.47560120    0.36000001    2.91000009
   17.28444481   92.68209839    0.36000001    2.91000009
   17.28694344   94.58170319    0.36000001    2.91000009
   17.28999901   98.06040192    0.36000001    2.91000009
   17.29333305  100.88700104    0.36000001    2.91000009
   17.29638863   99.62860107    0.36000001    2.89000010
   17.29972076  101.74400330    0.36000001    2.89000010
   17.30305481   99.65429688    0.36000001    2.91000009
   17.30611038   99.52570343    0.36000001    2.91000009
   17.30944443   97.86150360    0.36000001    2.89000010
   17.31277657   96.97429657    0.36000001    2.89000010
   17.31861115   96.97429657    0.36000001    2.91000009
   17.32277870   97.87719727    0.36000001    2.89000010
   17.32611275   98.15039825    0.36000001    2.93000007
   17.32916832   96.72380066    0.38000000    2.89000010
   17.33250046  102.51899719    0.38000000    2.91000009
   17.33583450  100.60900116    0.38000000    2.91000009
   17.33889008   97.37429810    0.36000001    2.91000009
   17.34222221  100.53800201    0.38000000    2.89000010
   17.34527779  101.55200195    0.38000000    2.89000010
   17.34861183  109.22000122    0.38000000    2.91000009
   17.35111237  100.96600342    0.38000000    2.91000009
   17.35250092  100.32700348    0.38000000    2.91000009
   17.35555649  104.97399902    0.40000001    2.91000009
   17.36138916  104.97399902    0.41999999    2.91000009
   17.36555672   97.97509766    0.41999999    2.89000010
   17.36888885   97.63390350    0.41999999    2.89000010
   17.37222290   99.13140106    0.41999999    2.89000010
   17.37527847  101.58200073    0.41999999    2.89000010
   17.37861061  101.31300354    0.41999999    2.91000009
   17.38166618  100.87899780    0.41999999    2.89000010
   17.38444519   93.47889709    0.44000000    2.89000010
   17.38555527  100.87500000    0.44000000    2.89000010
   17.38861084   90.03679657    0.44000000    2.89000010
   17.39194489   94.78099823    0.41999999    2.89000010
   17.39527702   96.84719849    0.40000001    2.91000009
   17.39833260   98.35250092    0.40000001    2.91000009
   17.40444374   98.35250092    0.40000001    2.89000010
   17.40861130  100.47299957    0.38000000    2.89000010
   17.41166687  101.11699677    0.38000000    2.91000009
   17.41499901   97.75039673    0.36000001    2.89000010
   17.41777802   98.44999695    0.38000000    2.89000010
   17.41860962   99.84770203    0.38000000    2.89000010
   17.42166519   97.05760193    0.36000001    2.91000009
   17.42499924   98.49099731    0.36000001    2.91000009
   17.42805481   99.96849823    0.36000001    2.89000010
   17.43138885   92.93710327    0.36000001    2.89000010
   17.43472099   97.55319977    0.34000000    2.89000010
   17.43777657   99.75879669    0.34000000    2.89000010
   17.44111061   96.38200378    0.34000000    2.91000009
   17.44722176   96.38200378    0.31999999    2.89000010
   17.45138931  101.56900024    0.31999999    2.89000010
   17.45444489   99.78179932    0.31999999    2.91000009
   17.45777893   97.09999847    0.31999999    2.91000009
   17.46111107  105.44000244    0.31999999    2.91000009
   17.46444511  103.74400330    0.30000001    2.91000009
   17.46750069  102.90000153    0.30000001    2.91000009
   17.47083473  103.06800079    0.30000001    2.91000009
   17.47389030  101.38700104    0.30000001    2.91000009
   17.47722244  101.87400055    0.31999999    2.89000010
   17.48055649  101.69100189    0.30000001    2.91000009
   17.48361206  103.30799866    0.31999999    2.91000009
   17.48444557  101.89499664    0.31999999    2.91000009
   17.48999977  101.89499664    0.31999999    2.89000010
   17.49416733  106.96700287    0.31999999    2.89000010
   17.49749947  102.00800323    0.31999999    2.89000010
   17.50055504   99.76619720    0.34000000    2.89000010
   17.50388908   99.02349854    0.34000000    2.89000010
   17.50722313  102.94200134    0.34000000    2.89000010
   17.51027870   94.69609833    0.34000000    2.89000010
   17.51361084  100.87400055    0.34000000    2.89000010
   17.51694489  100.36100006    0.34000000    2.91000009
   17.51777840  103.60299683    0.34000000    2.91000009
   17.52055550  103.84700012    0.34000000    2.89000010
   17.52361107  102.42400360    0.34000000    2.89000010
   17.52694511   97.33850098    0.34000000    2.89000010
   17.53277779   97.33850098    0.34000000    2.91000009
   17.53694344  105.33399963    0.34000000    2.91000009
   17.54027748  113.44599915    0.36000001    2.89000010
   17.54361153  103.91100311    0.34000000    2.91000009
   17.54666710  105.40000153    0.36000001    2.89000010
   17.54999924  106.02999878    0.36000001    2.89000010
   17.55111122  100.68099976    0.36000001    2.89000010
   17.55360985  109.73400116    0.36000001    2.89000010
   17.55666542  108.20099640    0.38000000    2.91000009
   17.55999947  103.73200226    0.36000001    2.89000010
   17.56333351  104.71299744    0.36000001    2.91000009
   17.56638718  100.97599792    0.36000001    2.91000009
   17.56972313  108.80300140    0.36000001    2.89000010
   17.57583427  108.80300140    0.36000001    2.89000010
   17.58000183  107.30100250    0.38000000    2.89000010
   17.58305550  100.64399719    0.38000000    2.89000010
   17.58444595  100.04299927    0.36000001    2.89000010
   17.58694458  104.46800232    0.36000001    2.89000010
   17.59027863  105.20200348    0.38000000    2.89000010
   17.59361267  102.88400269    0.38000000    2.89000010
   17.59666824   92.86409760    0.38000000    2.89000010
   17.60000038   92.20790100    0.36000001    2.89000010
   17.60305595  103.03600311    0.38000000    2.91000009
   17.60639000  103.56800079    0.36000001    2.89000010
   17.60972214  100.59899902    0.36000001    2.91000009
   17.61277771  102.06500244    0.36000001    2.89000010
   17.61861038  102.06500244    0.36000001    2.89000010
   17.62277794   96.09480286    0.38000000    2.89000010
   17.62583351  101.47499847    0.38000000    2.89000010
   17.62916756   98.88379669    0.36000001    2.89000010
   17.63249969  102.38400269    0.38000000    2.91000009
   17.63555527  100.50299835    0.40000001    2.93000007
   17.63888931   99.60169983    0.40000001    2.89000010
   17.64222145   99.05799866    0.40000001    2.89000010
   17.64527702   96.09100342    0.41999999    2.89000010
   17.64861107  104.35800171    0.41999999    2.89000010
   17.65111160  100.89399719    0.46000001    2.89000010
   17.67166519  100.89399719    0.47999999    2.89000010
   17.67583275  105.35500336    0.47999999    2.89000010
   17.67916679   96.26889801    0.47999999    2.89000010
   17.68249893  100.88500214    0.47999999    2.89000010
   17.68444443   97.85759735    0.47999999    2.89000010
   17.68610954  105.24600220    0.47999999    2.89000010
   17.68944359  105.08699799    0.47999999    2.89000010
   17.69249916   99.33470154    0.47999999    2.89000010
   17.69583321   98.21119690    0.47999999    2.89000010
   17.69916534  101.15799713    0.50000000    2.89000010
   17.70222282   97.18609619    0.47999999    2.89000010
   17.70555687  100.47699738    0.47999999    2.89000010
   17.70861244   98.80919647    0.47999999    2.89000010
   17.71444511   98.80919647    0.47999999    2.91000009
   17.71861076  104.08699799    0.50000000    2.89000010
   17.72194481  102.67800140    0.51999998    2.89000010
   17.72500038  103.63300323    0.52999997    2.91000009
   17.72833443   98.38860321    0.52999997    2.91000009
   17.73166656  100.56600189    0.52999997    2.89000010
   17.73472214   98.57579803    0.55000001    2.89000010
   17.73805618   98.75489807    0.55000001    2.89000010
   17.74138832   99.77619934    0.55000001    2.86999989
   17.74444389  102.68499756    0.50000000    2.89000010
   17.74777794  101.83300018    0.44000000    2.89000010
   17.75083351  101.98699951    0.44000000    2.89000010
   17.75138855   99.32189941    0.41999999    2.89000010
   17.75749969   99.32189941    0.41999999    2.89000010
   17.76138878   95.91699982    0.41999999    2.86999989
   17.76472282   94.70200348    0.41999999    2.89000010
   17.76805496   97.80200195    0.41999999    2.89000010
   17.77111053   99.28350067    0.41999999    2.86999989
   17.77444458   99.76979828    0.44000000    2.89000010
   17.77777672   96.01709747    0.44000000    2.91000009
   17.78083229   98.14060211    0.46000001    2.89000010
   17.78416634  101.69200134    0.46000001    2.91000009
   17.78472137   98.94979858    0.46000001    2.89000010
   17.78777695  102.96900177    0.46000001    2.89000010
   17.79111099  100.01999664    0.46000001    2.86999989
   17.79416656  109.13600159    0.47999999    2.89000010
   17.80027771  109.13600159    0.46000001    2.91000009
   17.80444336  115.94699860    0.46000001    2.89000010
   17.80749893  101.29299927    0.46000001    2.89000010
   17.81083298   98.05100250    0.46000001    2.89000010
   17.81416512  105.27700043    0.44000000    2.89000010
   17.81722260   99.69930267    0.44000000    2.89000010
   17.81805611  106.86000061    0.44000000    2.89000010
   17.82083511  104.16600037    0.44000000    2.89000010
   17.82416725   99.61920166    0.44000000    2.89000010
   17.82722282   98.54399872    0.44000000    2.89000010
   17.83055687   97.08270264    0.40000001    2.89000010
   17.83388901   99.38899994    0.40000001    2.89000010
   17.83694458  106.86199951    0.36000001    2.89000010
   17.84305573  106.86199951    0.36000001    2.91000009
   17.84722328   96.90940094    0.36000001    2.89000010
   17.85055542  113.85199738    0.36000001    2.89000010
   17.85138893  110.77700043    0.38000000    2.89000010
   17.85416794  104.76300049    0.38000000    2.89000010
   17.85750008  100.19799805    0.38000000    2.86999989
   17.86055565  103.48000336    0.38000000    2.89000010
   17.86388969   95.22489929    0.38000000    2.89000010
   17.86722183   94.58789825    0.38000000    2.89000010
   17.87027740   97.70349884    0.38000000    2.89000010
   17.87361145   95.56900024    0.36000001    2.89000010
   17.87666702  101.23600006    0.36000001    2.86999989
   17.88000107   99.72319794    0.36000001    2.89000010
   17.88583374   99.72319794    0.38000000    2.89000010
   17.88999939   95.91619873    0.38000000    2.91000009
   17.89333344  115.52100372    0.36000001    2.89000010
   17.89638901  104.71499634    0.36000001    2.89000010
   17.89972115   98.75080109    0.36000001    2.91000009
   17.90305519   96.61669922    0.36000001    2.91000009
   17.90611076  103.43099976    0.36000001    2.86999989
   17.90944481   96.04090118    0.36000001    2.89000010
   17.91277695  104.33999634    0.36000001    2.89000010
   17.91583252   91.39929962    0.36000001    2.89000010
   17.91805458  105.65699768    0.38000000    2.86999989
   17.91944313   97.80879974    0.38000000    2.91000009
   17.92277718   95.23439789    0.38000000    2.89000010
   17.92860985   95.23439789    0.38000000    2.89000010
   17.93277740   94.94010162    0.38000000    2.89000010
   17.93610954   97.38529968    0.40000001    2.89000010
   17.93944359   97.16809845    0.40000001    2.89000010
   17.94249916   99.10440063    0.40000001    2.89000010
   17.94583321  102.18399811    0.41999999    2.86999989
   17.94916534  100.46299744    0.41999999    2.89000010
   17.95138931   97.91590118    0.41999999    2.86999989
   17.95277786  101.07399750    0.41999999    2.86999989
   17.95611191  104.84300232    0.41999999    2.89000010
   17.95916748  106.27400208    0.41999999    2.89000010
   17.96250153   98.55030060    0.41999999    2.89000010
   17.96583366  103.87200165    0.41999999    2.89000010
   17.97166634  103.87200165    0.38000000    2.89000010
   17.97583389  100.20999908    0.40000001    2.89000010
   17.97888947  106.13500214    0.40000001    2.89000010
   17.98222351  107.56600189    0.40000001    2.89000010
   17.98472214  105.65599823    0.40000001    2.89000010
   17.98583412  101.03199768    0.40000001    2.89000010
   17.98916626  110.38200378    0.40000001    2.89000010
   17.99222183  102.41600037    0.41999999    2.89000010
   17.99555588   99.51899719    0.44000000    2.89000010
   17.99888992  100.07199860    0.41999999    2.89000010
   18.00194359  109.47299957    0.41999999    2.89000010
   18.00527763   95.43740082    0.41999999    2.89000010
   18.00833321   95.39219666    0.41999999    2.86999989
   18.01444435   95.39219666    0.41999999    2.89000010
   18.01861000   96.18879700    0.41999999    2.86999989
   18.02166557  103.28099823    0.41999999    2.89000010
   18.02499962   98.76909637    0.40000001    2.89000010
   18.02833366   91.69439697    0.41999999    2.89000010
   18.03138924   99.06870270    0.41999999    2.89000010
   18.03472137   96.49169922    0.41999999    2.89000010
   18.03805542   98.74559784    0.41999999    2.89000010
   18.04138756   96.24890137    0.44000000    2.89000010
   18.04444313   96.77210236    0.41999999    2.86999989
   18.04777718   97.36509705    0.41999999    2.86999989
   18.05111122   97.60510254    0.44000000    2.86999989
   18.05166626   94.44059753    0.44000000    2.86999989
   18.05722237   94.44059753    0.44000000    2.86999989
   18.06138802  103.35500336    0.46000001    2.86999989
   18.06472206  101.85399628    0.47999999    2.89000010
   18.06777954   92.79460144    0.46000001    2.86999989
   18.07111168   92.89299774    0.46000001    2.86999989
   18.07444572  101.36499786    0.46000001    2.86999989
   18.07750130   99.37590027    0.46000001    2.89000010
   18.08083344   90.22209930    0.46000001    2.86999989
   18.08388901   92.13079834    0.46000001    2.86999989
   18.08500099  106.30899811    0.46000001    2.86999989
   18.08750153  100.63700104    0.46000001    2.89000010
   18.09083366   91.83180237    0.46000001    2.86999989
   18.09416771   97.62059784    0.46000001    2.86999989
   18.10000038   97.62059784    0.47999999    2.86999989
   18.10416794   89.62280273    0.47999999    2.86999989
   18.10750008   92.54799652    0.47999999    2.86999989
   18.11083412   98.09559631    0.47999999    2.86999989
   18.11388969   97.27140045    0.47999999    2.86999989
   18.11722183  100.19999695    0.50000000    2.86999989
   18.11833382   94.79789734    0.50000000    2.86999989
   18.12083435   98.62979889    0.47999999    2.86999989
   18.12416649   96.94450378    0.47999999    2.86999989
   18.12750053   92.56109619    0.46000001    2.89000010
   18.13055611   93.95359802    0.46000001    2.89000010
   18.13388824   94.89459991    0.44000000    2.89000010
   18.13694382   92.14779663    0.41999999    2.89000010
   18.14305496   92.14779663    0.46000001    2.89000010
   18.14722252   88.80049896    0.46000001    2.86999989
   18.15027809   95.88189697    0.46000001    2.89000010
   18.15166664   93.75849915    0.46000001    2.89000010
   18.15388870   96.29199982    0.46000001    2.86999989
   18.15722275   96.30960083    0.44000000    2.86999989
   18.16055489   97.07810211    0.46000001    2.86999989
   18.16388893   97.31860352    0.46000001    2.86999989
   18.16694450   95.35610199    0.44000000    2.86999989
   18.17027664  101.71800232    0.44000000    2.89000010
   18.17361069   94.46170044    0.44000000    2.86999989
   18.17666626   90.60669708    0.41999999    2.86999989
   18.18000031   99.63159943    0.41999999    2.86999989
   18.18583298   99.63159943    0.40000001    2.89000010
   18.18999863   98.29290009    0.40000001    2.86999989
   18.19305420   92.83730316    0.40000001    2.86999989
   18.19638824   96.20189667    0.41999999    2.89000010
   18.19972038   95.78009796    0.40000001    2.86999989
   18.20277786   98.69589996    0.41999999    2.89000010
   18.20611191   97.83930206    0.41999999    2.86999989
   18.20944595   97.44010162    0.41999999    2.86999989
   18.21250153   94.55480194    0.41999999    2.86999989
   18.21583366   93.48490143    0.40000001    2.89000010
   18.21833420   91.13690186    0.41999999    2.89000010
   18.21944427   95.02739716    0.41999999    2.89000010
   18.22277832   94.67729950    0.40000001    2.86999989
   18.22861099   94.67729950    0.40000001    2.86999989
   18.23277855   95.69899750    0.41999999    2.89000010
   18.23611069   96.54930115    0.41999999    2.86999989
   18.23916626   95.93170166    0.44000000    2.89000010
   18.24250031   96.15720367    0.44000000    2.89000010
   18.24583435  100.23899841    0.44000000    2.89000010
   18.24888992   91.38169861    0.44000000    2.86999989
   18.25166702   95.53749847    0.44000000    2.86999989
   18.25250053  101.52999878    0.44000000    2.86999989
   18.25583267   94.64179993    0.44000000    2.86999989
   18.25916672   94.02249908    0.44000000    2.89000010
   18.26222229  100.52700043    0.44000000    2.86999989
   18.26555634   98.22260284    0.44000000    2.86999989
   18.27138901   98.22260284    0.44000000    2.86999989
   18.27555466   99.24980164    0.44000000    2.86999989
   18.27888870   98.88860321    0.44000000    2.86999989
   18.28222275   97.33830261    0.44000000    2.86999989
   18.28499985   93.13700104    0.44000000    2.86999989
   18.28555489   90.80860138    0.44000000    2.86999989
   18.28888893   96.02729797    0.41999999    2.86999989
   18.29222107   93.31659698    0.41999999    2.86999989
   18.29527664   96.99810028    0.41999999    2.89000010
   18.29861069  101.20500183    0.40000001    2.86999989
   18.30194283   95.84010315    0.40000001    2.86999989
   18.30499840   95.88410187    0.40000001    2.86999989
   18.30833244   98.76499939    0.40000001    2.86999989
   18.31444359   98.76499939    0.40000001    2.86999989
   18.31861115   99.93750000    0.40000001    2.86999989
   18.32166672  100.10199738    0.40000001    2.89000010
   18.32500076   99.57240295    0.40000001    2.86999989
   18.32805634   95.78849792    0.40000001    2.84999990
   18.33139038  101.18900299    0.40000001    2.86999989
   18.33472252   92.02200317    0.38000000    2.86999989
   18.33777809  101.41999817    0.40000001    2.89000010
   18.34111214  104.10500336    0.40000001    2.86999989
   18.34444427  103.40599823    0.40000001    2.86999989
   18.34749985  102.88400269    0.40000001    2.86999989
   18.35083389   96.73639679    0.40000001    2.86999989
   18.35166740   96.26180267    0.40000001    2.86999989
   18.35722351   96.26180267    0.40000001    2.86999989
   18.36138916   96.74990082    0.40000001    2.86999989
   18.36472321  104.26999664    0.40000001    2.86999989
   18.36777878   98.56310272    0.40000001    2.86999989
   18.37111092   91.93399811    0.40000001    2.84999990
   18.37444496   94.80840302    0.40000001    2.89000010
   18.37750053  103.03800201    0.40000001    2.86999989
   18.38083267  102.88200378    0.40000001    2.86999989
   18.38416672  106.86299896    0.40000001    2.86999989
   18.38500023  100.97000122    0.40000001    2.86999989
   18.38750076  104.03399658    0.40000001    2.86999989
   18.39083290   96.19110107    0.40000001    2.84999990
   18.39416695  101.27100372    0.40000001    2.86999989
   18.39999962  101.27100372    0.40000001    2.89000010
   18.40416718  105.98999786    0.40000001    2.86999989
   18.40749931  100.54100037    0.38000000    2.86999989
   18.41055489  102.33499908    0.40000001    2.86999989
   18.41388893  101.08399963    0.40000001    2.86999989
   18.41722107  104.20400238    0.40000001    2.86999989
   18.41833305   99.19319916    0.38000000    2.86999989
   18.42055511  113.33200073    0.40000001    2.86999989
   18.42388916  107.36399841    0.38000000    2.86999989
   18.42722130   99.84310150    0.38000000    2.86999989
   18.43027687  102.29399872    0.38000000    2.86999989
   18.43361092  102.53099823    0.40000001    2.86999989
   18.43694305   97.31340027    0.38000000    2.86999989
   18.44277763   97.31340027    0.38000000    2.86999989
   18.44694328   99.18910217    0.38000000    2.86999989
   18.45027924  100.93800354    0.38000000    2.86999989
   18.45166779  101.12000275    0.40000001    2.86999989
   18.45388985  100.61799622    0.40000001    2.86999989
   18.45722389   98.16549683    0.40000001    2.86999989
   18.46055603  100.45999908    0.40000001    2.86999989
   18.46361160  101.53500366    0.40000001    2.86999989
   18.46694565  101.30000305    0.40000001    2.86999989
   18.47027779  101.66200256    0.40000001    2.86999989
   18.47333336   98.33730316    0.40000001    2.86999989
   18.47666740   96.91419983    0.40000001    2.86999989
   18.47972298   99.88659668    0.41999999    2.86999989
   18.48583412   99.88659668    0.40000001    2.86999989
   18.48999977   97.47660065    0.40000001    2.86999989
   18.49305534  101.23500061    0.40000001    2.86999989
   18.49638939   95.70010376    0.41999999    2.86999989
   18.49944496  101.81400299    0.41999999    2.84999990
   18.50277710  101.51599884    0.41999999    2.84999990
   18.50611115  103.14299774    0.44000000    2.86999989
   18.50916672   96.54239655    0.44000000    2.86999989
   18.51250076  101.97699738    0.44000000    2.86999989
   18.51583290  102.66500092    0.44000000    2.84999990
   18.51833344  100.30999756    0.46000001    2.86999989
   18.51916695  110.89700317    0.46000001    2.86999989
   18.52249908  103.69300079    0.46000001    2.86999989
   18.52861023  103.69300079    0.47999999    2.86999989
   18.53277779   96.94550323    0.50000000    2.86999989
   18.53583336  102.70200348    0.50000000    2.86999989
   18.53916550  101.76200104    0.50000000    2.84999990
   18.54249954  103.44000244    0.50000000    2.86999989
   18.54555511  111.08300018    0.50000000    2.86999989
   18.54888916  103.57599640    0.50000000    2.86999989
   18.55166626  105.13700104    0.50000000    2.86999989
   18.55249977  105.71600342    0.50000000    2.84999990
   18.55583191  103.73899841    0.51999998    2.89000010
   18.55916595  102.33200073    0.51999998    2.86999989
   18.56222153  110.03900146    0.51999998    2.86999989
   18.56555557  103.26300049    0.51999998    2.86999989
   18.57139015  103.26300049    0.51999998    2.86999989
   18.57555580  101.52799988    0.52999997    2.86999989
   18.57888985  104.67600250    0.51999998    2.84999990
   18.58194542   99.01709747    0.51999998    2.84999990
   18.58500099  102.75599670    0.51999998    2.86999989
   18.58555603   99.84909821    0.51999998    2.84999990
   18.58889008  103.29299927    0.50000000    2.86999989
   18.59222221   97.26660156    0.51999998    2.86999989
   18.59527779  100.03800201    0.51999998    2.86999989
   18.59861183   95.87689972    0.51999998    2.86999989
   18.60194397   97.66770172    0.51999998    2.86999989
   18.60499954   98.20050049    0.51999998    2.86999989
   18.60833359  103.26599884    0.51999998    2.86999989
   18.61416626  103.26599884    0.52999997    2.84999990
   18.61833382   94.14600372    0.52999997    2.84999990
   18.62166595  105.44599915    0.52999997    2.84999990
   18.62500000   92.05200195    0.47999999    2.84999990
   18.62805557  106.09400177    0.47999999    2.86999989
   18.63138962  106.92199707    0.47999999    2.86999989
   18.63444519  105.65499878    0.46000001    2.86999989
   18.63777733   97.34510040    0.47999999    2.86999989
   18.64111137  102.10800171    0.46000001    2.84999990
   18.64416695   98.74800110    0.46000001    2.84999990
   18.64749908   97.35849762    0.46000001    2.84999990
   18.65083313  101.32499695    0.46000001    2.84999990
   18.65166664   96.92169952    0.46000001    2.84999990
   18.65722275   96.92169952    0.46000001    2.84999990
   18.66110992  106.29699707    0.46000001    2.86999989
   18.66444397   98.17710114    0.46000001    2.84999990
   18.66777802   95.83689880    0.46000001    2.86999989
   18.68527603  102.21499634    0.41999999    2.84999990
   18.68777657  100.70400238    0.44000000    2.84999990
   18.69083214  101.50399780    0.44000000    2.86999989
   18.69416618   97.75129700    0.41999999    2.84999990
   18.70000076   97.75129700    0.44000000    2.84999990
   18.70416832  102.18599701    0.44000000    2.84999990
   18.70750046  104.34999847    0.41999999    2.84999990
   18.71083450  105.60900116    0.44000000    2.84999990
   18.71389008  102.83100128    0.44000000    2.84999990
   18.71722221  102.80799866    0.44000000    2.84999990
   18.71861076  101.45600128    0.44000000    2.84999990
   18.72083473   92.24569702    0.44000000    2.86999989
   18.72416687   96.91979980    0.44000000    2.84999990
   18.72750092  101.62799835    0.44000000    2.82999992
   18.73055649  101.55300140    0.44000000    2.82999992
   18.73388863  100.84100342    0.44000000    2.84999990
   18.73722267   95.46050262    0.44000000    2.84999990
   18.74305534   95.46050262    0.44000000    2.86999989
   18.74722290   96.24669647    0.44000000    2.84999990
   18.75027847  102.77200317    0.44000000    2.84999990
   18.75194359  103.79900360    0.44000000    2.84999990
   18.75388908   95.99030304    0.44000000    2.84999990
   18.75722313  101.03500366    0.44000000    2.84999990
   18.76055527  101.64900208    0.44000000    2.84999990
   18.76361084   98.09850311    0.44000000    2.86999989
   18.76694489  100.80699921    0.44000000    2.84999990
   18.77000046  104.03800201    0.44000000    2.84999990
   18.77333260   98.69400024    0.44000000    2.84999990
   18.77666664  105.76300049    0.46000001    2.84999990
   18.77972221   98.30549622    0.46000001    2.86999989
   18.78583336   98.30549622    0.44000000    2.84999990
   18.78999901  107.21800232    0.46000001    2.84999990
   18.79333305   90.90709686    0.46000001    2.84999990
   18.79638863  109.03900146    0.47999999    2.84999990
   18.79972076   98.03880310    0.47999999    2.84999990
   18.80305481  100.97499847    0.47999999    2.84999990
   18.80611038   96.62830353    0.47999999    2.82999992
   18.80944443   96.36530304    0.50000000    2.84999990
   18.81277657   97.65709686    0.50000000    2.84999990
   18.81583214  103.30599976    0.50000000    2.84999990
   18.81861115  104.59899902    0.47999999    2.84999990
   18.81944466  108.72599792    0.50000000    2.82999992
   18.82277870   97.26519775    0.47999999    2.84999990
   18.82861137   97.26519775    0.50000000    2.82999992
   18.83277893   99.57499695    0.50000000    2.84999990
   18.83611107   99.89669800    0.50000000    2.86999989
   18.83944511  100.34300232    0.50000000    2.86999989
   18.84250069   99.70220184    0.51999998    2.84999990
   18.84583473  102.48600006    0.51999998    2.84999990
   18.84889030   97.67209625    0.51999998    2.84999990
   18.85194397   96.59919739    0.51999998    2.82999992
   18.85250092  100.88300323    0.51999998    2.82999992
   18.85583305   96.49160004    0.50000000    2.84999990
   18.85916710  103.54199982    0.50000000    2.84999990
   18.86222267   98.16159821    0.50000000    2.84999990
   18.86555672  100.94000244    0.50000000    2.84999990
   18.87138939  100.94000244    0.51999998    2.84999990
   18.87555504  105.16300201    0.52999997    2.84999990
   18.87888908   98.62899780    0.51999998    2.84999990
   18.88222313   99.13690186    0.51999998    2.84999990
   18.88527679  104.03900146    0.51999998    2.84999990
   18.88583374   97.94219971    0.51999998    2.84999990
   18.88916588   99.53009796    0.51999998    2.84999990
   18.89249992  113.20700073    0.51999998    2.84999990
   18.89555550  102.29000092    0.52999997    2.82999992
   18.89888954   98.14980316    0.55000001    2.84999990
   18.90194321  103.07800293    0.55000001    2.84999990
   18.90527725   99.33979797    0.55000001    2.82999992
   18.90861130  109.77999878    0.55000001    2.82999992
   18.91444397  109.77999878    0.52999997    2.84999990
   18.91860962  117.39800262    0.55000001    2.82999992
   18.92166519   94.73480225    0.55000001    2.84999990
   18.92499924  102.82599640    0.56999999    2.84999990
   18.92833328  102.08399963    0.61000001    2.82999992
   18.93138885  109.00800323    0.61000001    2.82999992
   18.93472099  100.98899841    0.61000001    2.82999992
   18.93777657  106.66400146    0.63000000    2.82999992
   18.94111061   99.16100311    0.63000000    2.82999992
   18.94444275  100.93099976    0.64999998    2.84999990
   18.94749832  106.62799835    0.64999998    2.82999992
   18.95083427   96.33689880    0.64999998    2.82999992
   18.95194435  103.05899811    0.64999998    2.82999992
   18.95722389  103.05899811    0.67000002    2.82999992
   18.96138954  111.03600311    0.64999998    2.82999992
   18.96444511  102.83799744    0.67000002    2.82999992
   18.96777916   98.74510193    0.67000002    2.82999992
   18.97111130  102.74600220    0.64999998    2.82999992
   18.97416687   97.71260071    0.64999998    2.82999992
   18.97750092   94.57929993    0.64999998    2.82999992
   18.98083305  107.62799835    0.67000002    2.82999992
   18.98388863  103.33300018    0.69000000    2.82999992
   18.98527718   97.74680328    0.69000000    2.82999992
   18.98750114  106.54299927    0.69000000    2.82999992
   18.99083328  104.00900269    0.67000002    2.82999992
   18.99416733   96.28119659    0.69000000    2.82999992
   19.00000000   96.28119659    0.67000002    2.82999992
   19.00416756  108.70700073    0.64999998    2.82999992
   19.00749969   97.71389771    0.64999998    2.82999992
   19.01055527   99.80139923    0.64999998    2.82999992
   19.01388931  100.49800110    0.63000000    2.82999992
   19.01749992  100.53700256    0.64999998    2.82999992
   19.01861000   97.90889740    0.67000002    2.82999992
   19.02111053  102.69499969    0.70999998    2.82999992
   19.02444458   98.48179626    0.69000000    2.82999992
   19.02777672   91.91390228    0.67000002    2.82999992
   19.03083229   92.65840149    0.69000000    2.82999992
   19.03416634   95.42489624    0.67000002    2.82999992
   19.03750038  100.12300110    0.67000002    2.82999992
   19.04277802  100.12300110    0.67000002    2.82999992
   19.04694366  100.97299957    0.67000002    2.82999992
   19.05027771   99.36080170    0.69000000    2.84999990
   19.05194283   95.92870331    0.67000002    2.82999992
   19.05416679   96.18170166    0.67000002    2.82999992
   19.05722237   98.98590088    0.67000002    2.82999992
   19.06055450  102.86399841    0.67000002    2.82999992
   19.06361008   95.77539825    0.67000002    2.82999992
   19.06694603  108.08999634    0.64999998    2.82999992
   19.07027817   99.04329681    0.64999998    2.82999992
   19.07333374   98.49009705    0.64999998    2.80999994
   19.07666779   98.33740234    0.64999998    2.82999992
   19.08000183   99.26820374    0.63000000    2.82999992
   19.08583450   99.26820374    0.63000000    2.80999994
   19.09000015  100.85500336    0.63000000    2.82999992
   19.09305573  100.81199646    0.63000000    2.82999992
   19.09638977  106.34700012    0.63000000    2.82999992
   19.09972191   99.71440125    0.63000000    2.82999992
   19.10277748   99.02469635    0.63000000    2.80999994
   19.10611153   98.72979736    0.63000000    2.80999994
   19.10916710   97.28479767    0.63000000    2.82999992
   19.11250114  102.30200195    0.63000000    2.80999994
   19.11583328   99.89620209    0.63000000    2.82999992
   19.11861038  101.18900299    0.63000000    2.80999994
   19.11916733  102.76000214    0.63000000    2.80999994
   19.12249947  100.80799866    0.61000001    2.80999994
   19.12861061  100.80799866    0.61000001    2.80999994
   19.13277817   97.00779724    0.56999999    2.80999994
   19.13583374   96.17489624    0.56999999    2.82999992
   19.13916588  102.23200226    0.61000001    2.80999994
   19.14249992  100.28199768    0.61000001    2.80999994
   19.14555550  102.35600281    0.56999999    2.80999994
   19.14888954  107.00700378    0.58999997    2.80999994
   19.15194321  103.20500183    0.56999999    2.80999994
   19.15250015  103.79100037    0.56999999    2.80999994
   19.15583229  109.28900146    0.56999999    2.80999994
   19.15916634  112.13899994    0.55000001    2.80999994
   19.16222191   98.32920074    0.55000001    2.82999992
   19.16555595   91.16159821    0.56999999    2.82999992
   19.17138863   91.16159821    0.58999997    2.80999994
   19.17555428  101.02500153    0.58999997    2.82999992
   19.17888832  121.25399780    0.58999997    2.82999992
   19.18194389  100.81900024    0.58999997    2.82999992
   19.18527603  116.52100372    0.61000001    2.80999994
   19.18555450  114.23699951    0.61000001    2.80999994
   19.18888855  107.06400299    0.63000000    2.80999994
   19.19222069  108.04599762    0.63000000    2.80999994
   19.19527626  111.28299713    0.64999998    2.80999994
   19.19861031  123.45999908    0.64999998    2.80999994
   19.20194435  120.86900330    0.64999998    2.80999994
   19.20499992  112.69599915    0.69000000    2.80999994
   19.20833397  106.71600342    0.70999998    2.80999994
   19.21416664  106.71600342    0.79000002    2.78999996
   19.21833420  103.41000366    0.79000002    2.78999996
   19.21888924  115.51999664    0.81999999    2.80999994
   19.22222328  107.62000275    0.81999999    2.80999994
   19.22555542  112.27999878    0.83999997    2.80999994
   19.22861099  103.30400085    0.83999997    2.78999996
   19.23194504  101.09700012    0.80000001    2.80999994
   19.23500061  112.23400116    0.81999999    2.80999994
   19.23833275  125.56999969    0.76999998    2.78999996
   19.24166679  126.48899841    0.80000001    2.80999994
   19.24472237  112.81500244    0.80000001    2.80999994
   19.24805641  136.06100464    0.89999998    2.78999996
   19.25138855  118.14399719    0.80000001    2.80999994
   19.25222206  109.83999634    0.80000001    2.80999994
   19.25722313  109.83999634    0.88000000    2.80999994
   19.26138878  132.97599792    0.76999998    2.78999996
   19.26444435  127.92299652    0.73000002    2.82999992
   19.26777840  127.05699921    0.69000000    2.80999994
   19.27083397  133.17300415    0.69000000    2.78999996
   19.27416611  139.20599365    0.67000002    2.78999996
   19.27750015  124.24299622    0.67000002    2.80999994
   19.28055573  123.49800110    0.64999998    2.78999996
   19.28388786  123.69100189    0.64999998    2.80999994
   19.28555489  137.71299744    0.64999998    2.80999994
   19.28750038  133.39599609    0.64999998    2.80999994
   19.29083252  127.01499939    0.64999998    2.80999994
   19.29388809  160.00199890    0.64999998    2.80999994
   19.29999924  160.00199890    0.64999998    2.78999996
   19.30416679  151.75199890    0.64999998    2.80999994
   19.30722237  162.56300354    0.64999998    2.80999994
   19.31055450  152.72399902    0.67000002    2.78999996
   19.31388855  149.32800293    0.67000002    2.78999996
   19.31694603  152.19099426    0.67000002    2.78999996
   19.31888962  145.06199646    0.64999998    2.80999994
   19.32083511  144.36000061    0.64999998    2.80999994
   19.32416725  141.37500000    0.64999998    2.78999996
   19.32722282  147.48199463    0.64999998    2.80999994
   19.33055687  158.25999451    0.64999998    2.80999994
   19.33388901  140.51400757    0.67000002    2.80999994
   19.33694458  124.70500183    0.67000002    2.78999996
   19.34277916  124.70500183    0.64999998    2.78999996
   19.34694481  123.85299683    0.64999998    2.78999996
   19.35027885  120.75099945    0.64999998    2.78999996
   19.35222244  117.94000244    0.64999998    2.80999994
   19.35388947  116.59100342    0.63000000    2.80999994
   19.35694504  132.83099365    0.64999998    2.78999996
   19.36027908  138.65100098    0.63000000    2.78999996
   19.36361122  127.50000000    0.64999998    2.78999996
   19.36666679  110.76399994    0.64999998    2.80999994
   19.37000084  120.00399780    0.64999998    2.78999996
   19.37333298  117.70999908    0.64999998    2.78999996
   19.37638855  121.24199677    0.64999998    2.80999994
   19.37972260  118.25199890    0.64999998    2.78999996
   19.38555527  118.25199890    0.63000000    2.78999996
   19.38972282  120.68199921    0.63000000    2.78999996
   19.39305496  122.90899658    0.63000000    2.80999994
   19.39638901  126.32700348    0.63000000    2.76999998
   19.39944458  116.04499817    0.63000000    2.78999996
   19.40277672  116.19100189    0.63000000    2.78999996
