    HOUR (UT)   FLARE FACTOR    SKY TESTER    SUN TESTER
   11.21361065   -1.00000000   -1.00000000   -1.00000000
   11.25277805  363.68099976    4.90999985    1.78999996
   11.25611115  277.76400757    4.90999985    1.80999994
   11.25916672  347.12701416    4.90999985    1.83000004
   11.26249981  373.21899414    4.90999985    1.83000004
   11.26555538  345.69601440    4.90999985    1.80999994
   11.26888847  372.61700439    4.90999985    1.83000004
   11.27305508  372.61700439    4.90999985    1.83000004
   11.27722168  443.57598877    4.90999985    1.85000002
   11.27916622  409.63800049    4.90999985    1.85000002
   11.28055573  454.62600708    4.90999985    1.85000002
   11.28194427  431.19799805    4.90999985    1.85000002
   11.28333378  400.07699585    4.90999985    1.85000002
   11.28472233  432.36300659    4.90999985    1.85000002
   11.28611183  509.00601196    4.90999985    1.85000002
   11.28750038  406.36401367    4.90999985    1.85000002
   11.28888893  400.03601074    4.90999985    1.85000002
   11.29027843  356.18899536    4.90999985    1.86000001
   11.29166698  376.49301147    4.90999985    1.86000001
   11.29305553  467.56298828    4.90999985    1.86000001
   11.29444504  358.34899902    4.90999985    1.86000001
   11.29583359  497.15600586    4.90999985    1.86000001
   11.29722309  452.60299683    4.90999985    1.86000001
   11.29861164  370.07800293    4.90999985    1.86000001
   11.30000019  435.13800049    4.90999985    1.86000001
   11.30138874  438.96899414    4.90999985    1.88000000
   11.30277824  399.04901123    4.90999985    1.86000001
   11.30416679  420.49700928    4.90999985    1.88000000
   11.30555534  413.27499390    4.90999985    1.88000000
   11.30694485  459.92999268    4.90999985    1.88000000
   11.30833340  393.02999878    4.90999985    1.88000000
   11.30972195  445.93600464    4.90999985    1.88000000
   11.31111145  428.42999268    4.90999985    1.88000000
   11.31250000  438.77301025    4.90999985    1.88000000
   11.31388950  440.57998657    4.90999985    1.88000000
   11.31527805  427.40100098    4.90999985    1.88000000
   11.31666660  438.96499634    4.90999985    1.88000000
   11.31805515  475.80899048    4.90999985    1.88000000
   11.31944466  448.43701172    4.90999985    1.88000000
   11.32083321  392.51901245    4.90999985    1.88000000
   11.32222176  408.95999146    4.90999985    1.88000000
   11.32361126  442.79501343    4.90999985    1.88000000
   11.32499981  461.25900269    4.90999985    1.89999998
   11.32638836  387.58099365    4.90999985    1.89999998
   11.32777786  435.99798584    4.90999985    1.91999996
   11.32916641  382.62799072    4.90999985    1.89999998
   11.33055592  401.91598511    4.90999985    1.89999998
   11.33194447  439.53201294    4.90999985    1.89999998
   11.33333302  463.38900757    4.90999985    1.89999998
   11.33472157  346.31100464    4.90999985    1.91999996
   11.33472157  277.76400757    4.90999985    1.80999994
   11.33472157  347.12701416    4.90999985    1.83000004
   11.33500004  373.21899414    4.90999985    1.83000004
   11.33500004  345.69601440    4.90999985    1.80999994
   11.33500004  372.61700439    4.90999985    1.83000004
   11.33527756  443.57598877    4.90999985    1.85000002
   11.33583260  417.24301147    4.90999985    1.91999996
   11.33777714  494.02499390    4.90999985    1.91999996
   11.33916664  457.66198730    4.90999985    1.91999996
   11.34055519  467.62298584    4.90999985    1.91999996
   11.34194374  457.02899170    4.90999985    1.91999996
   11.34333324  492.20800781    4.90999985    1.91999996
   11.34472179  444.91699219    4.90999985    1.91999996
   11.34611034  421.68899536    4.90999985    1.91999996
   11.34749985  435.54598999    4.90999985    1.94000006
   11.34888840  398.73999023    4.90999985    1.91999996
   11.35027790  416.98400879    4.90999985    1.91999996
   11.35166740  425.45098877    4.90999985    1.91999996
   11.35305595  364.89199829    4.90999985    1.91999996
   11.35444450  428.28399658    4.90999985    1.91999996
   11.35583401  428.45599365    4.90999985    1.91999996
   11.35722256  450.48098755    4.90999985    1.91999996
   11.35861111  414.10501099    4.90999985    1.94000006
   11.36000061  488.83599854    4.90999985    1.91999996
   11.36138916  427.49700928    4.90999985    1.91999996
   11.36277771  463.22399902    4.90999985    1.91999996
   11.36416721  316.92700195    4.90999985    1.94000006
   11.36416721  417.24301147    4.90999985    1.91999996
   11.36472225  445.95901489    4.90999985    1.94000006
   11.36666679  350.39199829    4.90999985    1.94000006
   11.36805534  485.83898926    4.90999985    1.94000006
   11.36944485  453.63000488    4.90999985    1.94000006
   11.37083340  591.03100586    4.90999985    1.94000006
   11.37222195  462.13900757    4.90999985    1.94000006
   11.37361145  527.96697998    4.90999985    1.94000006
   11.37500000  434.54000854    4.90999985    1.94000006
   11.37638855  519.23901367    4.90999985    1.94000006
   11.37777805  483.60501099    4.90999985    1.94000006
   11.37916660  562.08801270    4.90999985    1.94000006
   11.38055611  532.28302002    4.90999985    1.94000006
   11.38194466  510.89700317    4.90999985    1.94000006
   11.38333321  493.01199341    4.90999985    1.94000006
   11.38472176  531.92999268    4.90999985    1.94000006
   11.38611126  467.47000122    4.90999985    1.96000004
   11.38749981  398.85800171    4.90999985    1.96000004
   11.38888836  466.17300415    4.90999985    1.96000004
   11.39027786  528.77801514    4.90999985    1.96000004
   11.39166641  480.43899536    4.90999985    1.96000004
   11.39305496  432.18301392    4.90999985    1.96000004
   11.39444447  496.59201050    4.90999985    1.96000004
   11.39583302  466.26000977    4.90999985    1.96000004
   11.39722252  424.19198608    4.90999985    1.96000004
   11.39861107  438.80099487    4.90999985    1.96000004
   11.39999962  427.89300537    4.90999985    1.98000002
   11.40138817  431.50698853    4.90999985    1.96000004
   11.40277767  461.46200562    4.90999985    1.98000002
   11.40416622  443.77301025    4.90999985    1.98000002
   11.40555477  372.41799927    4.90999985    1.98000002
   11.40694427  392.30599976    4.90999985    1.96000004
   11.40833282  448.10900879    4.90999985    1.96000004
   11.40972137  450.59899902    4.90999985    1.98000002
   11.41111088  374.41900635    4.90999985    1.96000004
   11.41249943  508.62500000    4.90999985    1.98000002
   11.41388893  370.00900269    4.90999985    1.96000004
   11.41527748  379.97198486    4.90999985    1.98000002
   11.41666698  398.29098511    4.90999985    1.98000002
   11.41805553  348.11700439    4.90999985    1.98000002
   11.41833401  445.95901489    4.90999985    1.94000006
   11.41888905  386.41198730    4.90999985    1.98000002
   11.42194462  383.01300049    4.90999985    1.98000002
   11.42527771  387.63101196    4.90999985    1.98000002
   11.42833328  371.97100830    4.90999985    2.00000000
   11.43166733  392.97100830    4.90999985    2.00000000
   11.43500042  382.85598755    4.90999985    2.00000000
   11.43888855  382.85598755    4.90999985    2.00000000
   11.44305515  371.24600220    4.90999985    2.00000000
   11.44638920  348.35998535    4.90999985    2.00000000
   11.44944477  319.01300049    4.90999985    2.00000000
   11.45194435  359.72399902    4.90999985    2.00000000
   11.45333290  355.14001465    4.90999985    2.00000000
   11.45638847  370.02200317    4.90999985    2.01999998
   11.45972157  330.57699585    4.90999985    2.01999998
   11.46305561  300.25601196    4.90999985    2.01999998
   11.46611118  337.31799316    4.90999985    2.01999998
   11.46944427  373.82400513    4.90999985    2.01999998
   11.47249985  332.13000488    4.90999985    2.03999996
   11.47583294  280.92599487    4.90999985    2.03999996
   11.48194408  280.92599487    4.90999985    2.03999996
   11.48611164  346.17300415    4.90999985    2.05999994
   11.48916721  351.45001221    4.90999985    2.05999994
   11.49250031  292.92999268    4.90999985    2.05999994
   11.49555588  314.48901367    4.90999985    2.05999994
   11.50000000  352.23599243    4.90999985    2.05999994
   11.50333309  367.15499878    4.90999985    2.05999994
   11.50666714  322.27999878    4.90999985    2.07999992
   11.50972176  340.76000977    4.90999985    2.07999992
   11.51305580  312.35699463    4.90999985    2.07999992
   11.51611137  321.91299438    4.90999985    2.07999992
   11.51861095  315.79400635    4.90999985    2.07999992
   11.51999950  327.91500854    4.90999985    2.07999992
   11.52472210  327.91500854    4.90999985    2.07999992
   11.52888870  318.17599487    4.90999985    2.07999992
   11.53194427  263.57000732    4.90999985    2.09999990
   11.53527832  300.70498657    4.90999985    2.07999992
   11.53861141  275.30200195    4.90999985    2.09999990
   11.54166698  294.49301147    4.90999985    2.09999990
   11.54500008  303.63000488    4.90999985    2.09999990
   11.54805565  308.71200562    4.90999985    2.09999990
   11.55138874  287.02801514    4.90999985    2.09999990
   11.55194473  297.49899292    4.90999985    2.09999990
   11.55500031  257.02801514    4.90999985    2.09999990
   11.55805588  286.10400391    4.90999985    2.09999990
   11.56138897  325.67700195    4.90999985    2.09999990
   11.56750011  325.67700195    4.90999985    2.11999989
   11.57166672  258.89300537    4.90999985    2.11999989
   11.57499981  329.18499756    4.90999985    2.13000011
   11.57805538  318.98098755    4.90999985    2.11999989
   11.58138847  500.08700562    4.90999985    2.11999989
   11.58333302  477.96600342    4.90999985    2.11999989
   11.58472157  514.59497070    4.90999985    2.11999989
   11.58611107  468.72799683    4.90999985    2.11999989
   11.58749962  474.78799438    4.90999985    2.11999989
   11.58888817  353.76699829    4.90999985    2.11999989
   11.59027767  347.07998657    4.90999985    2.11999989
   11.59027767  257.02801514    4.90999985    2.09999990
   11.59055519  286.10400391    4.90999985    2.09999990
   11.59055519  325.67700195    4.90999985    2.09999990
   11.59055519  258.89300537    4.90999985    2.11999989
   11.59083271  329.18499756    4.90999985    2.13000011
   11.59083271  318.98098755    4.90999985    2.11999989
   11.59083271  500.08700562    4.90999985    2.11999989
   11.59111118  308.71200562    4.90999985    2.09999990
   11.59111118  287.02801514    4.90999985    2.09999990
   11.59166622  342.21301270    4.90999985    2.13000011
   11.59499931  384.69198608    4.90999985    2.13000011
   11.59805489  388.30099487    4.90999985    2.13000011
   11.60138893  380.54400635    4.90999985    2.13000011
   11.60444450  269.55200195    4.90999985    2.13000011
   11.61111164  269.55200195    4.90999985    2.15000010
   11.61527824  299.24301147    4.90999985    2.13000011
   11.61833382  323.04901123    4.90999985    2.15000010
   11.62166691  278.80700684    4.90999985    2.15000010
   11.62416649  306.14199829    4.90999985    2.13000011
   11.62527752  296.29400635    4.90999985    2.15000010
   11.62833309  281.10501099    4.90999985    2.15000010
   11.63166714  285.27700806    4.90999985    2.15000010
   11.63472176  280.18200684    4.90999985    2.15000010
   11.63805580  285.45498657    4.90999985    2.17000008
   11.64111137  290.81799316    4.90999985    2.17000008
   11.64444447  291.78799438    4.90999985    2.17000008
   11.64777756  265.82199097    4.90999985    2.17000008
   11.65388870  265.82199097    4.90999985    2.17000008
   11.65805531  267.74798584    4.90999985    2.17000008
   11.66138840  250.14900208    4.90999985    2.17000008
   11.66444397  292.75500488    4.90999985    2.17000008
   11.66777802  279.41500854    4.90999985    2.17000008
   11.67083359  281.32299805    4.90999985    2.17000008
   11.67416668  265.51599121    4.90999985    2.17000008
   11.67750072  295.17800903    4.90999985    2.17000008
   11.68055630  290.31500244    4.90999985    2.17000008
   11.68388939  269.39898682    4.90999985    2.19000006
   11.68694496  257.14700317    4.90999985    2.17000008
   11.69027805  276.34201050    4.90999985    2.17000008
   11.69083309  245.38299561    4.90999985    2.17000008
   11.69666672  245.38299561    4.90999985    2.17000008
   11.70083332  310.04199219    4.90999985    2.17000008
   11.70416641  248.94299316    4.90999985    2.19000006
   11.70722198  244.87899780    4.90999985    2.19000006
   11.71055508  276.24301147    4.90999985    2.19000006
   11.71388912  278.83300781    4.90999985    2.19000006
   11.71694374  267.18798828    4.90999985    2.19000006
   11.72027779  290.06500244    4.90999985    2.19000006
   11.72333336  277.29699707    4.90999985    2.19000006
   11.72416592  288.39599609    4.90999985    2.19000006
   11.72722149  284.61401367    4.90999985    2.19000006
   11.73027706  245.22200012    4.90999985    2.19000006
   11.73361111  234.10699463    4.90999985    2.21000004
   11.73972225  234.10699463    4.90999985    2.19000006
   11.74361134  264.56298828    4.90999985    2.21000004
   11.74694443  240.28799438    4.90999985    2.21000004
   11.75027752  279.79699707    4.90999985    2.21000004
   11.75333309  269.46600342    4.90999985    2.21000004
   11.75666714  256.05599976    4.90999985    2.21000004
   11.75749969  259.71099854    4.90999985    2.21000004
   11.76027775  287.94299316    4.90999985    2.21000004
   11.76333332  241.63200378    4.90999985    2.21000004
   11.76666641  250.84399414    4.90999985    2.21000004
   11.76972198  235.52499390    4.90999985    2.21000004
   11.77305508  246.21800232    4.90999985    2.21000004
   11.77638817  246.58299255    4.90999985    2.21000004
   11.78249931  246.58299255    4.90999985    2.23000002
   11.78666687  290.49301147    4.90999985    2.23000002
   11.78972244  319.53799438    4.90999985    2.23000002
   11.79083347  419.32299805    4.90999985    2.23000002
   11.79361153  386.69699097    4.90999985    2.23000002
   11.79666710  425.36801147    4.90999985    2.23000002
   11.79861164  517.07800293    4.90999985    2.23000002
   11.80000019  455.43600464    4.90999985    2.23000002
   11.80138874  424.13900757    4.90999985    2.23000002
   11.80277824  466.39498901    4.90999985    2.23000002
   11.80416679  412.12100220    4.90999985    2.23000002
   11.80555534  530.11700439    4.90999985    2.23000002
   11.80694485  460.64700317    4.90999985    2.23000002
   11.80833340  448.29998779    4.90999985    2.23000002
   11.80972195  435.18798828    4.90999985    2.23000002
   11.81111145  515.98297119    4.90999985    2.23000002
   11.81250000  447.34201050    4.90999985    2.25000000
   11.81388950  467.05300903    4.90999985    2.23000002
   11.81527805  482.89999390    4.90999985    2.25000000
   11.81666660  563.13299561    4.90999985    2.25000000
   11.81805515  463.07299805    4.90999985    2.25000000
   11.81944466  480.21499634    4.90999985    2.25000000
   11.82083321  575.01800537    4.90999985    2.25000000
   11.82222176  527.95599365    4.90999985    2.25000000
   11.82361126  520.46301270    4.90999985    2.25000000
   11.82499981  561.32098389    4.90999985    2.25000000
   11.82638836  544.55798340    4.90999985    2.25000000
   11.82777786  584.76202393    4.90999985    2.25000000
   11.82916641  486.75100708    4.90999985    2.25000000
   11.83055592  523.47900391    4.90999985    2.25000000
   11.83194447  573.96899414    4.90999985    2.25000000
   11.83333302  501.80999756    4.90999985    2.25000000
   11.83472157  481.41598511    4.90999985    2.25000000
   11.83611107  511.80398560    4.90999985    2.25000000
   11.83749962  533.11901855    4.90999985    2.25000000
   11.83888817  437.68301392    4.90999985    2.25000000
   11.84027767  553.88598633    4.90999985    2.25000000
   11.84166622  546.10302734    4.90999985    2.25000000
   11.84305477  566.82299805    4.90999985    2.25000000
   11.84444427  612.07202148    4.90999985    2.26999998
   11.84583282  586.94598389    4.90999985    2.25000000
   11.84722233  524.72497559    4.90999985    2.25000000
   11.84861088  662.08001709    4.90999985    2.26999998
   11.85000038  601.48699951    4.90999985    2.26999998
   11.85138893  641.98400879    4.90999985    2.26999998
   11.85277843  698.17602539    4.90999985    2.26999998
   11.85416698  631.81896973    4.90999985    2.26999998
   11.85555553  524.14300537    4.90999985    2.26999998
   11.85694504  583.84002686    4.90999985    2.26999998
   11.85833359  619.56896973    4.90999985    2.26999998
   11.85972214  512.12902832    4.90999985    2.26999998
   11.86111164  576.42797852    4.90999985    2.26999998
   11.86250019  515.73498535    4.90999985    2.26999998
   11.86388969  574.29797363    4.90999985    2.26999998
   11.86527824  567.86798096    4.90999985    2.26999998
   11.86666679  561.76800537    4.90999985    2.26999998
   11.86805534  607.16601563    4.90999985    2.26999998
   11.86944485  554.00097656    4.90999985    2.26999998
   11.87083340  615.89599609    4.90999985    2.26999998
   11.87222195  550.82098389    4.90999985    2.26999998
   11.87361145  645.15502930    4.90999985    2.26999998
   11.87500000  677.54400635    4.90999985    2.26999998
   11.87638855  620.55700684    4.90999985    2.26999998
   11.87777805  651.46801758    4.90999985    2.26999998
   11.87916660  772.46002197    4.90999985    2.26999998
   11.88055611  602.34399414    4.90999985    2.26999998
   11.88194466  659.71697998    4.90999985    2.26999998
   11.88333321  643.41198730    4.90999985    2.26999998
   11.88472176  634.82897949    4.90999985    2.26999998
   11.88611126  635.14202881    4.90999985    2.26999998
   11.88749981  697.95001221    4.90999985    2.28999996
   11.88888836  550.91802979    4.90999985    2.26999998
   11.89027786  630.29498291    4.90999985    2.28999996
   11.89166641  672.31097412    4.90999985    2.26999998
   11.89305496  718.06896973    4.90999985    2.26999998
   11.89444447  620.31402588    4.90999985    2.26999998
   11.89583302  724.18103027    4.90999985    2.26999998
   11.89722252  701.86798096    4.90999985    2.26999998
   11.89861107  665.03900146    4.90999985    2.26999998
   11.89999962  714.20300293    4.90999985    2.28999996
   11.90138817  681.55401611    4.90999985    2.28999996
   11.90277767  730.22497559    4.90999985    2.28999996
   11.90416622  679.45599365    4.90999985    2.26999998
   11.90555477  597.76702881    4.90999985    2.26999998
   11.90694427  698.15197754    4.90999985    2.26999998
   11.90833282  564.12799072    4.90999985    2.28999996
   11.90972137  646.05102539    4.90999985    2.26999998
   11.91111088  565.46197510    4.90999985    2.26999998
   11.91249943  628.87500000    4.90999985    2.26999998
   11.91388893  539.09197998    4.90999985    2.28999996
   11.91527748  538.47302246    4.90999985    2.26999998
   11.91666698  533.53497314    4.90999985    2.28999996
   11.91805553  565.90899658    4.90999985    2.26999998
   11.91944504  561.69299316    4.90999985    2.28999996
   11.92083359  571.17102051    4.90999985    2.28999996
   11.92222214  491.59298706    4.90999985    2.28999996
   11.92361164  606.95898438    4.90999985    2.28999996
   11.92500019  472.45800781    4.90999985    2.28999996
   11.92638874  593.75897217    4.90999985    2.28999996
   11.92777824  495.08700562    4.90999985    2.28999996
   11.92916679  519.09899902    4.90999985    2.28999996
   11.93055630  614.07897949    4.90999985    2.28999996
   11.93194485  419.13598633    4.90999985    2.28999996
   11.93333340  455.22100830    4.90999985    2.28999996
   11.93472195  498.42599487    4.90999985    2.28999996
   11.93611145  364.20300293    4.90999985    2.28999996
   11.93750000  478.88400269    4.90999985    2.28999996
   11.93888855  421.00500488    4.90999985    2.28999996
   11.94027805  410.23001099    4.90999985    2.28999996
   11.94166660  454.60998535    4.90999985    2.28999996
   11.94305515  445.13000488    4.90999985    2.28999996
   11.94444466  412.57101440    4.90999985    2.28999996
   11.94583321  448.00500488    4.90999985    2.28999996
   11.94722271  411.39401245    4.90999985    2.28999996
   11.94861126  450.15499878    4.90999985    2.28999996
   11.94999981  411.95401001    4.90999985    2.28999996
   11.95138836  450.67098999    4.90999985    2.28999996
   11.95277786  413.08499146    4.90999985    2.28999996
   11.95416641  396.00299072    4.90999985    2.28999996
   11.95555496  336.06201172    4.90999985    2.30999994
   11.95583344  250.84399414    4.90999985    2.21000004
   11.95583344  235.52499390    4.90999985    2.21000004
   11.95583344  246.21800232    4.90999985    2.21000004
   11.95611095  246.58299255    4.90999985    2.21000004
   11.95611095  290.49301147    4.90999985    2.23000002
   11.95611095  319.53799438    4.90999985    2.23000002
   11.95638847  386.69699097    4.90999985    2.23000002
   11.95638847  425.36801147    4.90999985    2.23000002
   11.95638847  241.63200378    4.90999985    2.21000004
   11.95694447  445.34799194    4.90999985    2.30999994
   11.95916653  421.07598877    4.90999985    2.30999994
   11.96027756  326.49600220    4.90999985    2.28999996
   11.96055508  445.34799194    4.90999985    2.30999994
   11.96166611  412.57998657    4.90999985    2.28999996
   11.96361065  477.00299072    4.90999985    2.30999994
   11.96500015  441.65499878    4.90999985    2.30999994
   11.96638870  354.00201416    4.90999985    2.30999994
   11.96777725  405.68899536    4.90999985    2.30999994
   11.96916580  401.89300537    4.90999985    2.30999994
   11.97055531  369.15200806    4.90999985    2.30999994
   11.97194386  414.85699463    4.90999985    2.30999994
   11.97333336  393.11700439    4.90999985    2.30999994
   11.97472191  392.70700073    4.90999985    2.30999994
   11.97611046  387.42300415    4.90999985    2.30999994
   11.97749996  337.56298828    4.90999985    2.30999994
   11.97749996  412.57998657    4.90999985    2.28999996
   11.98166656  412.57998657    4.90999985    2.30999994
   11.98583317  363.45800781    4.90999985    2.30999994
   11.98916721  337.06799316    4.90999985    2.30999994
   11.99222279  339.23599243    4.90999985    2.32999992
   11.99555588  328.19900513    4.90999985    2.32999992
   11.99888897  356.12200928    4.90999985    2.32999992
   12.00194454  299.37399292    4.90999985    2.32999992
   12.00527763  327.62298584    4.90999985    2.32999992
   12.00833321  349.13500977    4.90999985    2.32999992
   12.01138878  283.21398926    4.90999985    2.32999992
   12.01194477  295.06698608    4.90999985    2.32999992
   12.01527786  253.29400635    4.90999985    2.32999992
   12.01833344  314.95498657    4.90999985    2.32999992
   12.02444458  314.95498657    4.90999985    2.32999992
   12.02861118  333.32998657    4.90999985    2.32999992
   12.03194427  303.04800415    4.90999985    2.32999992
   12.03500080  331.15600586    4.90999985    2.32999992
   12.03833389  291.55999756    4.90999985    2.32999992
   12.04138947  305.45700073    4.90999985    2.34999990
   12.04472256  328.13800049    4.90999985    2.34999990
   12.04500008  294.49899292    4.90999985    2.32999992
   12.04833412  290.56900024    4.90999985    2.34999990
   12.05138874  327.08700562    4.90999985    2.34999990
   12.05472279  351.46899414    4.90999985    2.34999990
   12.05805588  290.67199707    4.90999985    2.34999990
   12.06111145  323.64599609    4.90999985    2.34999990
   12.06722260  323.64599609    4.90999985    2.34999990
   12.07138920  321.67999268    4.90999985    2.34999990
   12.07472229  324.88000488    4.90999985    2.34999990
   12.07805538  290.21499634    4.90999985    2.34999990
   12.07833290  292.08898926    4.90999985    2.34999990
   12.08166695  281.92199707    4.90999985    2.34999990
   12.08500004  287.08300781    4.90999985    2.34999990
   12.08805561  314.36300659    4.90999985    2.36999989
   12.09138870  301.49700928    4.90999985    2.36999989
   12.09444427  300.25900269    4.90999985    2.36999989
   12.09777737  280.63101196    4.90999985    2.36999989
   12.10083389  282.37899780    4.90999985    2.36999989
   12.10416698  298.42001343    4.90999985    2.36999989
   12.11027813  298.42001343    4.90999985    2.36999989
   12.11444473  296.76400757    4.90999985    2.36999989
   12.11750031  278.44601440    4.90999985    2.39000010
   12.12083340  295.15899658    4.90999985    2.36999989
   12.12388897  298.23199463    4.90999985    2.39000010
   12.12722206  289.88900757    4.90999985    2.39000010
   12.13055611  286.29800415    4.90999985    2.39000010
   12.13361073  303.73599243    4.90999985    2.39000010
   12.13694477  288.26000977    4.90999985    2.39000010
   12.14000034  286.48300171    4.90999985    2.39000010
   12.14333344  275.49301147    4.90999985    2.39000010
   12.14527798  289.78500366    4.90999985    2.39000010
   12.14694405  287.22799683    4.90999985    2.39000010
   12.15305519  287.22799683    4.90999985    2.40000010
   12.15722179  288.81500244    4.90999985    2.39000010
   12.16027737  291.25500488    4.90999985    2.40000010
   12.16361046  286.21798706    4.90999985    2.40000010
   12.16666698  274.92199707    4.90999985    2.40000010
   12.17000008  274.50100708    4.90999985    2.40000010
   12.17333412  255.72700500    4.90999985    2.40000010
   12.17638874  256.91101074    4.90999985    2.39000010
   12.17861176  280.10198975    4.90999985    2.40000010
   12.18000031  266.36599731    4.90999985    2.40000010
   12.18333340  287.59799194    4.90999985    2.40000010
   12.18666649  285.00698853    4.90999985    2.40000010
   12.18972206  272.59799194    4.90999985    2.40000010
   12.19583321  272.59799194    4.90999985    2.40000010
   12.19999981  274.68099976    4.90999985    2.40000010
   12.20333290  294.04699707    4.90999985    2.40000010
   12.20638847  250.69599915    4.90999985    2.40000010
   12.20972157  262.50299072    4.90999985    2.40000010
   12.21222210  279.66400146    4.90999985    2.42000008
   12.21333313  273.64898682    4.90999985    2.42000008
   12.21666622  282.52099609    4.90999985    2.42000008
   12.21972179  251.84300232    4.90999985    2.42000008
   12.22305489  245.94099426    4.90999985    2.42000008
   12.22638798  274.24301147    4.90999985    2.42000008
   12.22944355  249.52699280    4.90999985    2.42000008
   12.23277760  263.71600342    4.90999985    2.42000008
   12.23861122  263.71600342    4.90999985    2.42000008
   12.24277782  262.47299194    4.90999985    2.42000008
   12.24555588  214.44799805    4.90999985    2.42000008
   12.24638939  218.97300720    4.90999985    2.42000008
   12.24972248  268.52301025    4.90999985    2.42000008
   12.25277805  270.91598511    4.90999985    2.42000008
   12.27222157  235.58599854    4.90999985    2.46000004
   12.27555561  237.72300720    4.90999985    2.46000004
   12.28166676  237.72300720    4.90999985    2.46000004
   12.28583336  320.43798828    4.90999985    2.46000004
   12.28916740  322.98999023    4.90999985    2.46000004
   12.29222298  367.14498901    4.90999985    2.46000004
   12.29555607  403.45199585    4.90999985    2.46000004
   12.29750061  381.69100952    4.90999985    2.46000004
   12.29888916  383.47601318    4.90999985    2.46000004
   12.30027771  378.25601196    4.90999985    2.46000004
   12.30166721  509.60900879    4.90999985    2.48000002
   12.30305576  432.74301147    4.90999985    2.46000004
   12.30444431  389.51901245    4.90999985    2.46000004
   12.30583382  395.51000977    4.90999985    2.46000004
   12.30722237  353.86999512    4.90999985    2.46000004
   12.30861092  425.78399658    4.90999985    2.48000002
   12.31000042  361.56100464    4.90999985    2.46000004
   12.31138897  382.08700562    4.90999985    2.46000004
   12.31277752  357.83999634    4.90999985    2.46000004
   12.31416702  342.87701416    4.90999985    2.48000002
   12.31416702  320.43798828    4.90999985    2.46000004
   12.31444454  322.98999023    4.90999985    2.46000004
   12.31444454  367.14498901    4.90999985    2.46000004
   12.31444454  403.45199585    4.90999985    2.46000004
   12.31472206  218.97300720    4.90999985    2.42000008
   12.31472206  268.52301025    4.90999985    2.42000008
   12.31472206  270.91598511    4.90999985    2.42000008
   12.31500053  235.58599854    4.90999985    2.46000004
   12.31500053  237.72300720    4.90999985    2.46000004
   12.31555557  385.45800781    4.90999985    2.46000004
   12.31888866  335.47900391    4.90999985    2.46000004
   12.32194424  416.75799561    4.90999985    2.46000004
   12.32416630  369.36700439    4.90999985    2.46000004
   12.32527733  364.92001343    4.90999985    2.48000002
   12.32666683  343.44799805    4.90999985    2.48000002
   12.32694435  385.45800781    4.90999985    2.46000004
   12.32694435  335.47900391    4.90999985    2.46000004
   12.32694435  416.75799561    4.90999985    2.46000004
   12.32750034  362.66598511    4.90999985    2.48000002
   12.33083344  314.93399048    4.90999985    2.46000004
   12.33388901  295.94699097    4.90999985    2.46000004
   12.33722210  297.30499268    4.90999985    2.46000004
   12.34055519  357.48901367    4.90999985    2.48000002
   12.34361076  351.45901489    4.90999985    2.48000002
   12.34777737  351.45901489    4.90999985    2.48000002
   12.35194492  328.76400757    4.90999985    2.48000002
   12.35527802  264.69000244    4.90999985    2.48000002
   12.35833359  293.47900391    4.90999985    2.48000002
   12.36055565  329.73699951    4.90999985    2.48000002
   12.36194515  274.93899536    4.90999985    2.48000002
   12.36500072  320.43600464    4.90999985    2.48000002
   12.36833382  279.25000000    4.90999985    2.50000000
   12.37166691  322.67700195    4.90999985    2.48000002
   12.37472248  334.23400879    4.90999985    2.50000000
   12.37805557  330.04699707    4.90999985    2.48000002
   12.38111115  276.81298828    4.90999985    2.50000000
   12.38444424  224.29499817    4.90999985    2.50000000
   12.39055538  224.29499817    4.90999985    2.48000002
   12.39472198  259.44299316    4.90999985    2.50000000
   12.39805508  255.18699646    4.90999985    2.50000000
   12.40111065  216.23500061    4.90999985    2.50000000
   12.40444374  321.53100586    4.90999985    2.50000000
   12.40777779  297.29000854    4.90999985    2.50000000
   12.41083336  278.42401123    4.90999985    2.50000000
   12.41416645  291.22500610    4.90999985    2.51999998
   12.41750050  261.35998535    4.90999985    2.50000000
   12.42055607  290.92599487    4.90999985    2.50000000
   12.42388916  257.50201416    4.90999985    2.51999998
   12.42694473  297.58200073    4.90999985    2.51999998
   12.42750072  278.87799072    4.90999985    2.51999998
   12.43361092  278.87799072    4.90999985    2.51999998
   12.43777752  283.29598999    4.90999985    2.51999998
   12.44083309  292.77999878    4.90999985    2.51999998
   12.44416714  251.03700256    4.90999985    2.51999998
   12.44750023  261.83599854    4.90999985    2.51999998
   12.45083332  275.67898560    4.90999985    2.51999998
   12.45416641  260.07699585    4.90999985    2.51999998
   12.45722198  219.38099670    4.90999985    2.53999996
   12.46055508  276.93301392    4.90999985    2.53999996
   12.46111107  254.80499268    4.90999985    2.53999996
   12.46388912  274.00900269    4.90999985    2.53999996
   12.46722221  270.62100220    4.90999985    2.53999996
   12.47055531  261.47198486    4.90999985    2.53999996
   12.47638798  261.47198486    4.90999985    2.53999996
   12.48055553  256.96701050    4.90999985    2.55999994
   12.48388958  248.25799561    4.90999985    2.53999996
   12.48694515  249.86999512    4.90999985    2.53999996
   12.49027824  236.85899353    4.90999985    2.53999996
   12.49333382  250.09500122    4.90999985    2.53999996
   12.49444485  256.88198853    4.90999985    2.53999996
   12.49694443  259.18399048    4.90999985    2.53999996
   12.50027752  246.11700439    4.90999985    2.53999996
   12.50333309  300.81799316    4.90999985    2.55999994
   12.50666714  313.82901001    4.90999985    2.53999996
   12.51000023  327.72698975    4.90999985    2.55999994
   12.51305580  295.21200562    4.90999985    2.55999994
   12.51916599  295.21200562    4.90999985    2.53999996
   12.52333355  281.53298950    4.90999985    2.53999996
   12.52666664  281.45599365    4.90999985    2.53999996
   12.52777767  250.81399536    4.90999985    2.53999996
   12.52999973  293.71499634    4.90999985    2.53999996
   12.53333378  217.27499390    4.90999985    2.53999996
   12.53638935  241.20100403    4.90999985    2.53999996
   12.53972244  225.11599731    4.90999985    2.55999994
   12.54305553  212.66099548    4.90999985    2.53999996
   12.54611111  214.50700378    4.90999985    2.55999994
   12.54944515  222.36700439    4.90999985    2.55999994
   12.55277824  234.77600098    4.90999985    2.53999996
   12.55583382  230.97799683    4.90999985    2.53999996
   12.56194496  230.97799683    4.90999985    2.55999994
   12.56611156  215.61000061    4.90999985    2.53999996
   12.56944466  215.97399902    4.90999985    2.55999994
   12.57250023  230.45500183    4.90999985    2.55999994
   12.57583332  220.79699707    4.90999985    2.55999994
   12.57916641  226.47000122    4.90999985    2.55999994
   12.58222198  232.97700500    4.90999985    2.55999994
   12.58555508  217.13999939    4.90999985    2.55999994
   12.58861065  204.13099670    4.90999985    2.55999994
   12.59194374  230.05799866    4.90999985    2.55999994
   12.59444427  215.48199463    4.90999985    2.57999992
   12.59555531  203.22700500    4.90999985    2.55999994
   12.59888840  209.24800110    4.90999985    2.55999994
   12.60500050  209.24800110    4.90999985    2.55999994
   12.60916710  205.01499939    4.90999985    2.55999994
   12.61222267  215.09500122    4.90999985    2.55999994
   12.61555576  202.80700684    4.90999985    2.55999994
   12.61861134  208.94000244    4.90999985    2.57999992
   12.62194443  195.99000549    4.90999985    2.55999994
   12.62527752  218.30000305    4.90999985    2.57999992
   12.62777805  207.32299805    4.90999985    2.55999994
   12.62861156  203.35299683    4.90999985    2.55999994
   12.63194466  206.39199829    4.90999985    2.57999992
   12.63527775  206.50500488    4.90999985    2.55999994
   12.63833332  208.36799622    4.90999985    2.57999992
   12.64166641  191.02200317    4.90999985    2.57999992
   12.64777756  191.02200317    4.90999985    2.57999992
   12.65194416  184.52600098    4.90999985    2.57999992
   12.65527725  192.30799866    4.90999985    2.57999992
   12.65833282  176.40199280    4.90999985    2.57999992
   12.66111088  181.91700745    4.90999985    2.57999992
   12.66194439  193.29100037    4.90999985    2.57999992
   12.66527748  192.77600098    4.90999985    2.57999992
   12.66861153  199.47399902    4.90999985    2.57999992
   12.67166710  190.27799988    4.90999985    2.57999992
   12.67500019  205.19700623    4.90999985    2.57999992
   12.67805576  206.01600647    4.90999985    2.57999992
   12.68138885  192.05999756    4.90999985    2.59999990
   12.68472195  183.80000305    4.90999985    2.59999990
   12.69055557  183.80000305    4.90999985    2.59999990
   12.69472218  184.50900269    4.90999985    2.57999992
   12.69805527  180.97399902    4.90999985    2.59999990
   12.70111084  179.16999817    4.90999985    2.59999990
   12.70444393  189.25300598    4.90999985    2.59999990
   12.70749950  178.30999756    4.90999985    2.57999992
   12.71083355  179.04499817    4.90999985    2.59999990
   12.71416664  178.05299377    4.90999985    2.59999990
   12.71722221  187.07200623    4.90999985    2.59999990
   12.72055531  186.66900635    4.90999985    2.59999990
   12.72361088  181.28500366    4.90999985    2.59999990
   12.72694397  194.93099976    4.90999985    2.57999992
   12.72777748  181.77900696    4.90999985    2.57999992
   12.73333359  181.77900696    4.90999985    2.57999992
   12.73750019  178.64199829    4.90999985    2.59999990
   12.74083328  185.62699890    4.90999985    2.59999990
   12.74388885  172.63999939    4.90999985    2.59999990
   12.74722290  176.45199585    4.90999985    2.59999990
   12.75055599  175.02299500    4.90999985    2.59999990
   12.75361156  181.73100281    4.90999985    2.57999992
   12.75694466  185.37199402    4.90999985    2.59999990
   12.76000023  237.96200562    4.90999985    2.59999990
   12.76111126  218.91200256    4.90999985    2.59999990
   12.76361084  235.28599548    4.90999985    2.59999990
   12.76694393  226.78300476    4.90999985    2.59999990
   12.77027798  244.88099670    4.90999985    2.59999990
   12.77638817  244.88099670    4.90999985    2.59999990
   12.78055573  257.75900269    4.90999985    2.59999990
   12.78361130  190.68400574    4.90999985    2.61999989
   12.78694534  221.58000183    4.90999985    2.59999990
   12.79000092  182.71600342    4.90999985    2.61999989
   12.79333401  193.91499329    4.90999985    2.59999990
   12.79444504  197.08000183    4.90999985    2.59999990
   12.79694462  184.61300659    4.90999985    2.57999992
   12.80027771  170.67300415    4.90999985    2.59999990
   12.80361176  189.77699280    4.90999985    2.59999990
   12.80666733  177.20199585    4.90999985    2.59999990
   12.81000042  185.11900330    4.90999985    2.59999990
   12.81305599  178.64599609    4.90999985    2.59999990
   12.81916618  178.64599609    4.90999985    2.59999990
   12.82333374  179.40899658    4.90999985    2.59999990
   12.82638836  162.92700195    4.90999985    2.59999990
   12.82777786  174.29100037    4.90999985    2.59999990
   12.82999992  178.91299438    4.90999985    2.59999990
   12.83333302  177.04800415    4.90999985    2.59999990
   12.83666611  186.78399658    4.90999985    2.59999990
   12.83972168  172.95399475    4.90999985    2.59999990
   12.84305477  173.13200378    4.90999985    2.59999990
   12.84611034  186.19799805    4.90999985    2.61999989
   12.84944439  195.17599487    4.90999985    2.61999989
   12.85277843  187.66700745    4.90999985    2.61999989
   12.85583401  181.33099365    4.90999985    2.61999989
   12.86194515  181.33099365    4.90999985    2.61999989
   12.86611176  182.21600342    4.90999985    2.61999989
   12.86944485  191.06500244    4.90999985    2.61999989
   12.87250042  176.46800232    4.90999985    2.59999990
   12.87583351  191.14900208    4.90999985    2.59999990
   12.87916660  206.39199829    4.90999985    2.59999990
   12.88222218  234.67399597    4.90999985    2.59999990
   12.88555527  201.94900513    4.90999985    2.59999990
   12.88861084  224.57899475    4.90999985    2.61999989
   12.89194393  233.02900696    4.90999985    2.61999989
   12.89444447  220.39199829    4.90999985    2.61999989
   12.89555550  203.80099487    4.90999985    2.59999990
   12.89888859  246.36599731    4.90999985    2.59999990
   12.90499973  246.36599731    4.90999985    2.59999990
   12.90944386  211.82499695    4.90999985    2.59999990
   12.91249943  207.73500061    4.90999985    2.61999989
   12.91583252  218.30200195    4.90999985    2.59999990
   12.91888905  180.17599487    4.90999985    2.59999990
   12.92222214  186.96200562    4.90999985    2.61999989
   12.92555618  178.97099304    4.90999985    2.59999990
   12.92777824  195.27200317    4.90999985    2.61999989
   12.92888927  200.86999512    4.90999985    2.64000010
   12.93222237  185.55900574    4.90999985    2.61999989
   12.93555546  179.54400635    4.90999985    2.61999989
   12.93861103  188.21800232    4.90999985    2.61999989
   12.94194412  177.75100708    4.90999985    2.61999989
   12.94777775  177.75100708    4.90999985    2.61999989
   12.95194435  171.49800110    4.90999985    2.61999989
   12.95499992  160.00100708    4.90999985    2.61999989
   12.95833302  156.73500061    4.90999985    2.64000010
   12.96111107  172.63499451    4.90999985    2.64000010
   12.96166611  174.42999268    4.90999985    2.61999989
   12.96500015  149.43099976    4.90999985    2.61999989
   12.96833324  178.64999390    4.90999985    2.61999989
   12.97138882  163.56399536    4.90999985    2.61999989
   12.97472191  190.91099548    4.90999985    2.61999989
   12.97777748  163.95700073    4.90999985    2.64000010
   12.98111057  164.39700317    4.90999985    2.64000010
   12.98444462  168.04699707    4.90999985    2.64000010
   12.99055576  168.04699707    4.90999985    2.64000010
   12.99472237  168.66499329    4.90999985    2.64000010
   12.99805546  158.13999939    4.90999985    2.64000010
   13.00111103  160.66799927    4.90999985    2.64000010
   13.00444412  151.17599487    4.90999985    2.64000010
   13.00749969  164.50000000    4.90999985    2.64000010
   13.01083374  171.00599670    4.90999985    2.61999989
   13.01416683  164.85699463    4.90999985    2.64000010
   13.01722240  153.96099854    4.90999985    2.64000010
   13.02055550  165.30700684    4.90999985    2.64000010
   13.02361107  155.64900208    4.90999985    2.64000010
   13.02694416  151.26400757    4.90999985    2.64000010
   13.02777767  163.24200439    4.90999985    2.64000010
   13.03333378  163.24200439    4.90999985    2.66000009
   13.03750038  148.29299927    4.90999985    2.64000010
   13.04083347  153.10600281    4.90999985    2.64000010
   13.04388905  152.83399963    4.90999985    2.66000009
   13.04722309  170.36300659    4.90999985    2.64000010
   13.05055618  155.68899536    4.90999985    2.66000009
   13.05361176  166.48699951    4.90999985    2.66000009
   13.05694485  150.27000427    4.90999985    2.66000009
   13.06000042  158.61599731    4.90999985    2.66000009
   13.06111145  140.65199280    4.90999985    2.66000009
   13.06361103  154.83700562    4.90999985    2.67000008
   13.06694412  154.48699951    4.90999985    2.66000009
   13.07027817  170.41200256    4.90999985    2.66000009
   13.07638836  170.41200256    4.90999985    2.66000009
   13.08027744  150.79600525    4.90999985    2.66000009
   13.08361053  148.59800720    4.90999985    2.64000010
   13.08694458  157.78399658    4.90999985    2.66000009
   13.09000015  160.86500549    4.90999985    2.66000009
   13.09333324  161.64399719    4.90999985    2.66000009
   13.09444427  172.55000305    4.90999985    2.66000009
   13.09666634  158.52999878    4.90999985    2.67000008
   13.10000038  167.63499451    4.90999985    2.67000008
   13.10333347  147.38000488    4.90999985    2.66000009
   13.10638905  146.77600098    4.90999985    2.67000008
   13.10972214  163.50000000    4.90999985    2.66000009
   13.11277771  145.85800171    4.90999985    2.67000008
   13.11916637  145.85800171    4.90999985    2.66000009
   13.12333393  173.49899292    4.90999985    2.67000008
   13.12666702  160.92300415    4.90999985    2.67000008
   13.12777805  157.07899475    4.90999985    2.67000008
   13.13055611  166.38600159    4.90999985    2.67000008
   13.13361073  148.56799316    4.90999985    2.67000008
   13.13694477  146.55700684    4.90999985    2.67000008
   13.14000034  142.82000732    4.90999985    2.67000008
   13.14333344  144.03799438    4.90999985    2.67000008
   13.14666653  149.38400269    4.90999985    2.67000008
   13.14972210  153.99200439    4.90999985    2.67000008
   13.15305519  160.04600525    4.90999985    2.67000008
   13.15611076  142.80000305    4.90999985    2.67000008
   13.16194439  142.80000305    4.90999985    2.67000008
   13.16611099  177.76100159    4.90999985    2.67000008
   13.16916656  144.30900574    4.90999985    2.67000008
   13.17250061  146.61500549    4.90999985    2.67000008
   13.17583370  171.29699707    4.90999985    2.69000006
   13.17888927  153.09500122    4.90999985    2.67000008
   13.18222237  151.59500122    4.90999985    2.67000008
   13.18527794  138.08099365    4.90999985    2.69000006
   13.18861103  166.33299255    4.90999985    2.69000006
   13.19194412  152.11500549    4.90999985    2.67000008
   13.19444466  151.91499329    4.90999985    2.69000006
   13.19555569  164.53799438    4.90999985    2.67000008
   13.19861126  170.85000610    4.90999985    2.67000008
   13.20472240  170.85000610    4.90999985    2.69000006
   13.20888901  139.93800354    4.90999985    2.69000006
   13.21222210  148.28399658    4.90999985    2.69000006
   13.21527767  161.80299377    4.90999985    2.69000006
   13.21861076  150.39900208    4.90999985    2.69000006
   13.22194386  162.63000488    4.90999985    2.69000006
   13.22499943  150.99099731    4.90999985    2.69000006
   13.22777748  147.84199524    4.90999985    2.71000004
   13.22888851  131.76199341    4.90999985    2.71000004
   13.23194408  150.60400391    4.90999985    2.71000004
   13.23527813  168.21200562    4.90999985    2.69000006
   13.23833370  153.83700562    4.90999985    2.69000006
   13.24166679  155.75300598    4.90999985    2.69000006
   13.24777794  155.75300598    4.90999985    2.71000004
   13.25166702  187.05400085    4.90999985    2.71000004
   13.25500011  179.98899841    4.90999985    2.71000004
   13.25833321  147.09800720    4.90999985    2.71000004
   13.26111126  155.43299866    4.90999985    2.71000004
   13.26194477  165.03900146    4.90999985    2.71000004
   13.26500034  146.81199646    4.90999985    2.71000004
   13.26833344  154.01699829    4.90999985    2.71000004
   13.29083347  154.01699829    4.90999985    2.71000004
   13.29500008  156.77499390    4.90999985    2.71000004
   13.29805565  144.77000427    4.90999985    2.73000002
   13.30138874  155.46099854    4.90999985    2.71000004
   13.30472279  136.23199463    4.90999985    2.71000004
   13.30777836  144.67199707    4.90999985    2.71000004
   13.31111145  136.52400208    4.90999985    2.73000002
   13.31416702  148.61799622    4.90999985    2.71000004
   13.31750011  149.38499451    4.90999985    2.73000002
   13.32083321  137.58599854    4.90999985    2.73000002
   13.32388878  133.80999756    4.90999985    2.73000002
   13.32722187  130.15100098    4.90999985    2.73000002
   13.32777786  130.16600037    4.90999985    2.73000002
   13.33361053  130.16600037    4.90999985    2.73000002
   13.33777714  140.83799744    4.90999985    2.75000000
   13.34083271  154.66400146    4.90999985    2.73000002
   13.34416676  142.76300049    4.90999985    2.73000002
   13.34722233  126.05799866    4.90999985    2.73000002
   13.35055637  139.66000366    4.90999985    2.73000002
   13.35388947  134.39700317    4.90999985    2.73000002
   13.35694504  138.36500549    4.90999985    2.73000002
   13.36027813  129.35099792    4.90999985    2.73000002
   13.36111164  136.33700562    4.90999985    2.73000002
   13.36388969  137.99099731    4.90999985    2.73000002
   13.36694431  139.37699890    4.90999985    2.75000000
   13.37027836  147.58900452    4.90999985    2.73000002
   13.37638855  147.58900452    4.90999985    2.75000000
   13.38055611  152.36700439    4.90999985    2.73000002
   13.38388920  129.53900146    4.90999985    2.73000002
   13.38694477  129.96400452    4.90999985    2.73000002
   13.39027786  131.83999634    4.90999985    2.73000002
   13.39333344  130.75300598    4.90999985    2.73000002
   13.39444447  148.63600159    4.90999985    2.73000002
   13.39722252  123.48699951    4.90999985    2.73000002
   13.40027714  135.03900146    4.90999985    2.73000002
   13.40361118  127.35500336    4.90999985    2.73000002
   13.40694427  134.78100586    4.90999985    2.73000002
   13.40999985  130.98100281    4.90999985    2.75000000
   13.41333294  134.66200256    4.90999985    2.73000002
   13.41916656  134.66200256    4.90999985    2.73000002
   13.42333412  137.19799805    4.90999985    2.73000002
   13.42666721  138.28999329    4.90999985    2.75000000
   13.42777824  128.93099976    4.90999985    2.75000000
   13.43027782  130.55099487    4.90999985    2.73000002
   13.43333340  130.21600342    4.90999985    2.73000002
   13.43666649  144.30400085    4.90999985    2.75000000
   13.44000053  132.91200256    4.90999985    2.75000000
   13.44305515  138.32299805    4.90999985    2.75000000
   13.44638920  134.69799805    4.90999985    2.75000000
   13.44944477  141.45399475    4.90999985    2.75000000
   13.45277786  145.94999695    4.90999985    2.75000000
   13.45611095  139.02299500    4.90999985    2.75000000
   13.46222210  139.02299500    4.90999985    2.75000000
   13.46611118  137.82800293    4.90999985    2.75000000
   13.46944427  131.65600586    4.90999985    2.75000000
   13.47277737  134.63600159    4.90999985    2.75000000
   13.47583294  143.10699463    4.90999985    2.75000000
   13.47916603  137.02200317    4.90999985    2.75000000
   13.48222160  143.37600708    4.90999985    2.73000002
   13.48555565  165.15299988    4.90999985    2.75000000
   13.48888874  138.45199585    4.90999985    2.75000000
   13.49194431  146.34399414    4.90999985    2.75000000
   13.49444485  179.99800110    4.90999985    2.75000000
   13.49555588  146.83500671    4.90999985    2.75000000
   13.49861145  164.55299377    4.90999985    2.75000000
   13.50500011  164.55299377    4.90999985    2.75000000
   13.50916672  195.05200195    4.90999985    2.75000000
   13.51222229  175.66499329    4.90999985    2.75000000
   13.51555538  165.70799255    4.90999985    2.75000000
   13.51888847  155.35000610    4.90999985    2.75000000
   13.52194405  152.74600220    4.90999985    2.75000000
   13.52527714  132.09100342    4.90999985    2.75000000
   13.52777767  165.72200012    4.90999985    2.75000000
   13.52888870  143.66000366    4.90999985    2.75000000
   13.53194427  180.29699707    4.90999985    2.75000000
   13.53527832  148.16400146    4.90999985    2.75000000
   13.53861141  140.38900757    4.90999985    2.75000000
   13.54166698  146.07000732    4.90999985    2.75000000
   13.54777813  146.07000732    4.90999985    2.76999998
   13.55194473  163.99899292    4.90999985    2.75000000
   13.55527782  156.95799255    4.90999985    2.75000000
   13.55833340  138.36599731    4.90999985    2.76999998
   13.56111145  139.48199463    4.90999985    2.75000000
   13.56194496  148.03799438    4.90999985    2.75000000
   13.56500053  150.29800415    4.90999985    2.75000000
   13.56833363  135.73399353    4.90999985    2.75000000
   13.57166672  132.45300293    4.90999985    2.75000000
   13.57472229  154.77999878    4.90999985    2.76999998
   13.57805538  136.34399414    4.90999985    2.76999998
   13.58138847  146.93200684    4.90999985    2.76999998
   13.58444405  134.97500610    4.90999985    2.76999998
   13.59055519  134.97500610    4.90999985    2.76999998
   13.59472179  156.91200256    4.90999985    2.76999998
   13.59805489  142.95599365    4.90999985    2.75000000
   13.60111141  151.00599670    4.90999985    2.75000000
   13.60444450  143.70500183    4.90999985    2.78999996
   13.60777855  152.54899597    4.90999985    2.76999998
   13.61111164  152.97099304    4.90999985    2.76999998
   13.61416721  163.16499329    4.90999985    2.75000000
   13.61750031  151.76699829    4.90999985    2.75000000
   13.62055588  137.53700256    4.90999985    2.76999998
   13.62388897  146.52000427    4.90999985    2.76999998
   13.62722206  161.85899353    4.90999985    2.76999998
   13.62777805  167.34199524    4.90999985    2.76999998
   13.63361073  167.34199524    4.90999985    2.76999998
   13.63749981  140.01899719    4.90999985    2.76999998
   13.64083290  119.54799652    4.90999985    2.78999996
   13.64416695  153.60499573    4.90999985    2.75000000
   13.64722252  147.78100586    4.90999985    2.76999998
   13.65055561  162.55099487    4.90999985    2.78999996
   13.65361118  159.03999329    4.90999985    2.76999998
   13.65694427  160.86799622    4.90999985    2.75000000
   13.66027737  132.37600708    4.90999985    2.76999998
   13.66111088  123.56300354    4.90999985    2.76999998
   13.66388893  128.86000061    4.90999985    2.76999998
   13.66722298  138.42900085    4.90999985    2.76999998
   13.67027855  128.75799561    4.90999985    2.76999998
   13.67638874  128.75799561    4.90999985    2.76999998
   13.68055630  128.88299561    4.90999985    2.76999998
   13.68361092  131.31100464    4.90999985    2.76999998
   13.68694496  132.72399902    4.90999985    2.76999998
   13.69000053  134.66700745    4.90999985    2.76999998
   13.69333363  140.78199768    4.90999985    2.76999998
   13.69444466  130.89799500    4.90999985    2.76999998
   13.69694424  131.97300720    4.90999985    2.76999998
   13.70027733  137.22599792    4.90999985    2.76999998
   13.70333290  138.42399597    4.90999985    2.76999998
   13.70666695  132.07699585    4.90999985    2.76999998
   13.70972157  130.50900269    4.90999985    2.76999998
   13.71305561  140.26100159    4.90999985    2.75000000
   13.71916580  140.26100159    4.90999985    2.76999998
   13.72333336  154.54200745    4.90999985    2.76999998
   13.72666645  190.56599426    4.90999985    2.76999998
   13.72777748  168.50500488    4.90999985    2.76999998
   13.73027706  190.98100281    4.90999985    2.76999998
   13.73361111  143.15800476    4.90999985    2.76999998
   13.73666668  139.67500305    4.90999985    2.76999998
   13.74000072  155.75100708    4.90999985    2.76999998
   13.74305534  180.20700073    4.90999985    2.76999998
   13.74638939  153.87500000    4.90999985    2.78999996
   13.74972248  168.71000671    4.90999985    2.76999998
   13.75277805  151.48699951    4.90999985    2.78999996
   13.75611115  159.79800415    4.90999985    2.76999998
   13.76194477  159.79800415    4.90999985    2.76999998
   13.76611137  160.42500305    4.90999985    2.78999996
   13.76944447  163.13999939    4.90999985    2.76999998
   13.77250004  169.17500305    4.90999985    2.76999998
   13.77583313  151.70599365    4.90999985    2.78999996
   13.77916622  144.81100464    4.90999985    2.76999998
   13.78222179  146.26499939    4.90999985    2.76999998
   13.78555584  134.81799316    4.90999985    2.78999996
   13.78861141  125.16999817    4.90999985    2.78999996
   13.79194450  131.93699646    4.90999985    2.76999998
   13.79444504  131.94999695    4.90999985    2.76999998
   13.79555607  125.93699646    4.90999985    2.76999998
   13.79888916  133.99699402    4.90999985    2.76999998
   13.80500031  133.99699402    4.90999985    2.76999998
   13.80888939  127.70400238    4.90999985    2.78999996
   13.81222248  147.24099731    4.90999985    2.78999996
   13.81555557  134.77600098    4.90999985    2.78999996
   13.81861115  133.19099426    4.90999985    2.78999996
   13.82194424  150.74600220    4.90999985    2.78999996
   13.82527733  130.85899353    4.90999985    2.78999996
   13.82777786  131.99299622    4.90999985    2.78999996
   13.82888889  123.22699738    4.90999985    2.78999996
   13.83222198  119.76599884    4.90999985    2.78999996
   13.83527756  129.81700134    4.90999985    2.78999996
   13.83861065  137.94700623    4.90999985    2.78999996
   13.84166622  117.08699799    4.90999985    2.76999998
   13.84777737  117.08699799    4.90999985    2.78999996
   13.85194492  140.30799866    4.90999985    2.78999996
   13.85500050  140.78199768    4.90999985    2.76999998
   13.85833359  138.90600586    4.90999985    2.76999998
   13.86111164  127.90799713    4.90999985    2.78999996
   13.86194515  138.71400452    4.90999985    2.78999996
   13.86527824  135.50799561    4.90999985    2.78999996
   13.86833382  125.54799652    4.90999985    2.78999996
   13.87166691  139.89399719    4.90999985    2.78999996
   13.87472248  134.09399414    4.90999985    2.78999996
   13.87805557  129.92399597    4.90999985    2.78999996
   13.88138866  127.02400208    4.90999985    2.78999996
   13.88444424  136.79499817    4.90999985    2.78999996
   13.89055538  136.79499817    4.90999985    2.80999994
   13.89472198  141.29899597    4.90999985    2.78999996
   13.89805508  136.33399963    4.90999985    2.78999996
   13.90111065  135.07299805    4.90999985    2.80999994
   13.90444374  138.34399414    4.90999985    2.78999996
   13.90749931  138.68299866    4.90999985    2.78999996
   13.91083336  133.97999573    4.90999985    2.78999996
   13.91416645  119.81800079    4.90999985    2.78999996
   13.91722298  128.54499817    4.90999985    2.80999994
   13.92055607  130.91700745    4.90999985    2.82999992
   13.92361164  134.90600586    4.90999985    2.80999994
   13.92694473  136.31900024    4.90999985    2.80999994
   13.92777824  133.66000366    4.90999985    2.80999994
   13.93333340  133.66000366    4.90999985    2.78999996
   13.93750000  133.92900085    4.90999985    2.80999994
   13.94083309  133.44099426    4.90999985    2.80999994
   13.94416714  136.36000061    4.90999985    2.78999996
   13.94722271  131.24000549    4.90999985    2.78999996
   13.95055580  133.65699768    4.90999985    2.80999994
   13.95361137  130.97799683    4.90999985    2.78999996
   13.95694447  113.99400330    4.90999985    2.80999994
   13.96027756  133.96400452    4.90999985    2.80999994
   13.96111107  125.67199707    4.90999985    2.80999994
   13.96361065  140.78599548    4.90999985    2.80999994
   13.96694374  127.99199677    4.90999985    2.80999994
   13.96999931  139.18400574    4.90999985    2.80999994
   13.97638798  139.18400574    4.90999985    2.80999994
   13.98027706  127.01000214    4.90999985    2.80999994
   13.98361111  127.72399902    4.90999985    2.78999996
   13.98694515  139.46099854    4.90999985    2.78999996
   13.99000072  128.63499451    4.90999985    2.78999996
   13.99333382  134.34300232    4.90999985    2.80999994
   13.99444485  125.25599670    4.90999985    2.80999994
   13.99694443  121.25900269    4.90999985    2.80999994
   14.00027752  116.26399994    4.90999985    2.78999996
   14.00333309  136.93899536    4.90999985    2.80999994
   14.00666714  128.26899719    4.90999985    2.78999996
   14.01000023  137.75799561    4.90999985    2.80999994
   14.01305580  130.56300354    4.90999985    2.80999994
   14.01916599  130.56300354    4.90999985    2.80999994
   14.02333355  119.41999817    4.90999985    2.80999994
   14.02638817  120.12599945    4.90999985    2.80999994
   14.02777767  127.59899902    4.90999985    2.82999992
   14.02999973  120.80100250    4.90999985    2.80999994
   14.03333378  137.28900146    4.90999985    2.80999994
   14.03638935  126.83000183    4.90999985    2.80999994
   14.03972244  133.34700012    4.90999985    2.80999994
   14.04277802  126.36499786    4.90999985    2.80999994
   14.04611111  127.60099792    4.90999985    2.80999994
   14.04944515  114.86900330    4.90999985    2.80999994
   14.05249977  120.24199677    4.90999985    2.78999996
   14.05583382  128.13099670    4.90999985    2.80999994
   14.06194496  128.13099670    4.90999985    2.80999994
   14.06611156  127.23899841    4.90999985    2.80999994
   14.06916618  123.07499695    4.90999985    2.80999994
   14.07250023  115.48799896    4.90999985    2.80999994
   14.07583332  127.81600189    4.90999985    2.80999994
   14.07888889  126.16100311    4.90999985    2.80999994
   14.08222198  123.52400208    4.90999985    2.80999994
   14.08527756  125.06700134    4.90999985    2.80999994
   14.08861065  129.69200134    4.90999985    2.80999994
   14.09194374  129.64900208    4.90999985    2.82999992
   14.09472179  124.41100311    4.90999985    2.80999994
   14.09555531  134.25399780    4.90999985    2.80999994
   14.09888840  122.02400208    4.90999985    2.80999994
   14.10472298  122.02400208    4.90999985    2.80999994
   14.10888958  128.99899292    4.90999985    2.80999994
   14.11222267  129.89500427    4.90999985    2.82999992
   14.11527824  140.40600586    4.90999985    2.80999994
   14.11861134  124.67400360    4.90999985    2.80999994
   14.12194443  133.46200562    4.90999985    2.82999992
   14.12500000  130.69500732    4.90999985    2.82999992
   14.12805557  133.55999756    4.90999985    2.82999992
   14.12861156  123.69599915    4.90999985    2.82999992
   14.13194466  131.39900208    4.90999985    2.82999992
   14.13500023  124.17099762    4.90999985    2.80999994
   14.13833332  121.30200195    4.90999985    2.80999994
   14.14166641  117.27500153    4.90999985    2.80999994
   14.14777756  117.27500153    4.90999985    2.82999992
   14.15166664  127.90000153    4.90999985    2.80999994
   14.15499973  131.57899475    4.90999985    2.80999994
   14.15833282  133.72799683    4.90999985    2.80999994
   14.16138840  124.43199921    4.90999985    2.82999992
   14.16166592  132.99299622    4.90999985    2.80999994
   14.16499996  123.70300293    4.90999985    2.82999992
   14.16805553  122.63700104    4.90999985    2.82999992
   14.17138958  114.72000122    4.90999985    2.82999992
   14.17444515  117.59300232    4.90999985    2.82999992
   14.17777824  116.09100342    4.90999985    2.82999992
   14.18111134  133.21000671    4.90999985    2.80999994
   14.18416691  127.18199921    4.90999985    2.82999992
   14.19055557  127.18199921    4.90999985    2.82999992
   14.19472218  121.02200317    4.90999985    2.82999992
   14.19777775  126.36199951    4.90999985    2.82999992
   14.20111084   95.27059937    4.90999985    2.82999992
   14.20416641  123.62400055    4.90999985    2.82999992
   14.20749950  126.95500183    4.90999985    2.80999994
   14.21083355  124.15100098    4.90999985    2.82999992
   14.21388912  130.82499695    4.90999985    2.84999990
   14.21722221  124.34200287    4.90999985    2.80999994
   14.22055531  118.54100037    4.90999985    2.82999992
   14.22361088  119.38500214    4.90999985    2.80999994
   14.22694397  119.01599884    4.90999985    2.82999992
   14.22805500  121.54799652    4.90999985    2.82999992
   14.23333359  121.54799652    4.90999985    2.82999992
   14.23750019  123.73899841    4.90999985    2.82999992
   14.24083328  115.17800140    4.90999985    2.82999992
   14.24388885  126.04199982    4.90999985    2.82999992
   14.24722290  117.65599823    4.90999985    2.80999994
   14.25027752  124.18399811    4.90999985    2.82999992
   14.25361156  125.31300354    4.90999985    2.82999992
   14.25694466  121.61299896    4.90999985    2.84999990
   14.26000023  118.95500183    4.90999985    2.82999992
   14.26138878  118.20700073    4.90999985    2.82999992
   14.26361084  115.80599976    4.90999985    2.82999992
   14.26694393  117.88200378    4.90999985    2.84999990
   14.26999950  124.89399719    4.90999985    2.82999992
   14.27611065  124.89399719    4.90999985    2.82999992
   14.28027725  120.34300232    4.90999985    2.82999992
   14.28361130  127.91699982    4.90999985    2.82999992
   14.28666687  128.88099670    4.90999985    2.82999992
   14.30416679  122.99400330    4.90999985    2.82999992
   14.30666733  113.96299744    4.90999985    2.84999990
   14.31000042  112.20800018    4.90999985    2.82999992
   14.31333351  121.26399994    4.90999985    2.82999992
   14.31916618  121.26399994    4.90999985    2.82999992
   14.32333374  112.37500000    4.90999985    2.84999990
   14.32666683  112.26699829    4.90999985    2.84999990
   14.32999992  114.20500183    4.90999985    2.82999992
   14.33305550  122.17600250    4.90999985    2.84999990
   14.33638859  121.01899719    4.90999985    2.84999990
   14.33722210  121.51399994    4.90999985    2.84999990
   14.34000015  116.42199707    4.90999985    2.84999990
   14.34333324  124.00399780    4.90999985    2.84999990
   14.34638882  109.55300140    4.90999985    2.84999990
   14.34972191  132.15699768    4.90999985    2.84999990
   14.35277843  127.34200287    4.90999985    2.84999990
   14.35611153  118.07499695    4.90999985    2.84999990
   14.36194515  118.07499695    4.90999985    2.84999990
   14.36611176  124.52899933    4.90999985    2.84999990
   14.36944485  128.66700745    4.90999985    2.84999990
   14.37055588  113.34600067    4.90999985    2.84999990
   14.37305546  130.69400024    4.90999985    2.84999990
   14.37638855  121.83599854    4.90999985    2.84999990
   14.37944412  124.43000031    4.90999985    2.84999990
   14.38277817  118.14700317    4.90999985    2.84999990
   14.38583279  131.65800476    4.90999985    2.84999990
   14.38916683  124.80200195    4.90999985    2.84999990
   14.39249992  111.02300262    4.90999985    2.84999990
   14.39555550  114.81300354    4.90999985    2.84999990
   14.39888859  122.21700287    4.90999985    2.84999990
   14.40499973  122.21700287    4.90999985    2.84999990
   14.40888882  111.28700256    4.90999985    2.86999989
   14.41222191  123.50000000    4.90999985    2.86999989
   14.41555500  132.05799866    4.90999985    2.84999990
   14.41861153  121.67500305    4.90999985    2.84999990
   14.42194462  121.32499695    4.90999985    2.84999990
   14.42500019  126.87599945    4.90999985    2.84999990
   14.42833328  127.37100220    4.90999985    2.84999990
   14.43166733  126.15899658    4.90999985    2.84999990
   14.43472195  131.26899719    4.90999985    2.84999990
   14.43722248  134.84899902    4.90999985    2.84999990
   14.43833351  122.76899719    4.90999985    2.84999990
   14.44166660  123.87799835    4.90999985    2.84999990
   14.44777775  123.87799835    4.90999985    2.84999990
   14.45194435  116.28800201    4.90999985    2.84999990
   14.45499992  123.85800171    4.90999985    2.84999990
   14.45833302  119.23200226    4.90999985    2.84999990
   14.46166611  123.15799713    4.90999985    2.84999990
   14.46472168  124.05999756    4.90999985    2.84999990
   14.46805477  125.32299805    4.90999985    2.86999989
   14.47055531  124.30500031    4.90999985    2.86999989
   14.47166634  116.70700073    4.90999985    2.86999989
   14.47499943  123.18000031    4.90999985    2.86999989
   14.47805500  127.79199982    4.90999985    2.86999989
   14.48138809  136.21499634    4.90999985    2.86999989
   14.48444462  128.55299377    4.90999985    2.84999990
   14.49055576  128.55299377    4.90999985    2.86999989
   14.49472237  125.62500000    4.90999985    2.84999990
   14.49805546  123.19899750    4.90999985    2.84999990
   14.50111103  127.72499847    4.90999985    2.84999990
   14.50388908  131.21800232    4.90999985    2.84999990
   14.50472260  127.33300018    4.90999985    2.86999989
   14.50805569  130.37199402    4.90999985    2.86999989
   14.51111126  130.51100159    4.90999985    2.84999990
   14.51444435  125.28600311    4.90999985    2.84999990
   14.51749992  139.58200073    4.90999985    2.84999990
   14.52083302  118.21099854    4.90999985    2.86999989
   14.52416611  130.78500366    4.90999985    2.84999990
   14.52722168  128.58000183    4.90999985    2.84999990
   14.53333378  128.58000183    4.90999985    2.84999990
   14.53750038  125.82700348    4.90999985    2.84999990
   14.54083347  113.09999847    4.90999985    2.86999989
   14.54388905  115.76399994    4.90999985    2.86999989
   14.54722309  126.58399963    4.90999985    2.86999989
   14.55055618  124.28500366    4.90999985    2.84999990
   14.55361176  118.23000336    4.90999985    2.84999990
   14.55694485  120.66100311    4.90999985    2.84999990
   14.56000042  118.93699646    4.90999985    2.84999990
   14.56333351  124.73999786    4.90999985    2.84999990
   14.56666660  120.56999969    4.90999985    2.84999990
   14.56972218  122.04900360    4.90999985    2.84999990
   14.57083321  131.70599365    4.90999985    2.84999990
   14.57666683  131.70599365    4.90999985    2.86999989
   14.58055592  114.61499786    4.90999985    2.86999989
   14.58388901  114.05200195    4.90999985    2.86999989
   14.58722210  124.67400360    4.90999985    2.84999990
   14.59027767  119.70600128    4.90999985    2.86999989
   14.59361076  123.38999939    4.90999985    2.84999990
   14.59666634  126.65200043    4.90999985    2.84999990
   14.60000038  120.19899750    4.90999985    2.84999990
   14.60333347  125.86599731    4.90999985    2.86999989
   14.60416698  129.68400574    4.90999985    2.84999990
   14.60694504  119.90899658    4.90999985    2.84999990
   14.61027813  123.82099915    4.90999985    2.86999989
   14.61333370  118.94400024    4.90999985    2.86999989
   14.61944485  118.94400024    4.90999985    2.86999989
   14.62361145  121.76000214    4.90999985    2.84999990
   14.62666702  118.26799774    4.90999985    2.86999989
   14.63000011  119.26599884    4.90999985    2.86999989
   14.63305569  122.26200104    4.90999985    2.86999989
   14.63638878  114.15799713    4.90999985    2.86999989
   14.63777733  128.84399414    4.90999985    2.86999989
   14.64000034  129.98199463    4.90999985    2.86999989
   14.64333344  125.41300201    4.90999985    2.86999989
   14.64638901  121.04399872    4.90999985    2.86999989
   14.64972210  118.23500061    4.90999985    2.86999989
   14.65277767  127.24299622    4.90999985    2.86999989
   14.65611076  117.16899872    4.90999985    2.86999989
   14.66194439  117.16899872    4.90999985    2.86999989
   14.66611099  130.16200256    4.90999985    2.86999989
   14.66944504  118.85800171    4.90999985    2.86999989
   14.67083359  114.50499725    4.90999985    2.86999989
   14.67305565  132.86500549    4.90999985    2.86999989
   14.67638874  118.45200348    4.90999985    2.86999989
   14.67944431  130.06700134    4.90999985    2.86999989
   14.68277836  114.93099976    4.90999985    2.86999989
   14.68611145  124.37100220    4.90999985    2.86999989
   14.68916702  128.15100098    4.90999985    2.86999989
   14.69250011  128.56399536    4.90999985    2.86999989
   14.69555569  128.45100403    4.90999985    2.86999989
   14.69888878  120.31700134    4.90999985    2.86999989
   14.70472240  120.31700134    4.90999985    2.86999989
   14.70888901  120.52899933    4.90999985    2.86999989
   14.71222210  117.22299957    4.90999985    2.86999989
   14.71527767  116.48899841    4.90999985    2.86999989
   14.71861076  132.13900757    4.90999985    2.86999989
   14.72194386  127.35500336    4.90999985    2.86999989
   14.72499943  128.17500305    4.90999985    2.86999989
   14.72833252  129.01300049    4.90999985    2.86999989
   14.73138809  121.80300140    4.90999985    2.86999989
   14.82916641   -1.00000000   -1.00000000   -1.00000000
   14.94722271   -1.00000000   -1.00000000   -1.00000000
   15.05583382   -1.00000000   -1.00000000   -1.00000000
   15.29027843  111.75399780    4.90999985    2.89000010
   15.29361153  183.48699951    4.90999985    2.89000010
   15.29666710  183.24499512    4.90999985    2.89000010
   15.30000019  200.45199585    4.90999985    2.91000009
   15.30305576  168.23599243    4.90999985    2.91000009
   15.30638885  169.83000183    4.90999985    2.93000007
   15.31055546  169.83000183    4.90999985    2.91000009
   15.31472206  180.72300720    4.90999985    2.91000009
   15.31777763  187.10800171    4.90999985    2.89000010
   15.32111073  188.64399719    4.90999985    2.91000009
   15.32361126  172.00999451    4.90999985    2.91000009
   15.32472229  173.00599670    4.90999985    2.91000009
   15.32777786  165.84399414    4.90999985    2.89000010
   15.33111095  179.32600403    4.90999985    2.91000009
   15.33416653  163.57200623    4.90999985    2.91000009
   15.33749962  159.31399536    4.90999985    2.91000009
   15.34083271  149.82400513    4.90999985    2.91000009
   15.34388828  111.43599701    4.90999985    2.91000009
   15.34722233  157.31700134    4.90999985    2.91000009
   15.35333347  157.31700134    4.90999985    2.91000009
   15.35750008  143.59899902    4.90999985    2.91000009
   15.36083412  136.32000732    4.90999985    2.91000009
   15.36388969  137.31900024    4.90999985    2.91000009
   15.36722279  160.59599304    4.90999985    2.91000009
   15.37027836  163.34800720    4.90999985    2.91000009
   15.37361145  141.25100708    4.90999985    2.91000009
   15.37694454  123.73400116    4.90999985    2.91000009
   15.38000011  126.25000000    4.90999985    2.91000009
   15.38333321  147.36399841    4.90999985    2.91000009
   15.38638878  141.29100037    4.90999985    2.89000010
   15.38972187  149.52200317    4.90999985    2.91000009
   15.39027786  143.55499268    4.90999985    2.91000009
   15.39638901  143.55499268    4.90999985    2.93000007
   15.40027714  122.68599701    4.90999985    2.91000009
   15.40361118  151.44299316    4.90999985    2.91000009
   15.40666676  142.78199768    4.90999985    2.91000009
   15.40999985  158.45799255    4.90999985    2.91000009
   15.41333294  147.30400085    4.90999985    2.91000009
   15.41638851  137.00100708    4.90999985    2.93000007
   15.41972256  132.44799805    4.90999985    2.91000009
   15.42305565  138.32699585    4.90999985    2.91000009
   15.42361164  142.97900391    4.90999985    2.91000009
   15.42666721  130.97099304    4.90999985    2.91000009
   15.42972279  146.16400146    4.90999985    2.91000009
   15.43305588  123.73999786    4.90999985    2.91000009
   15.43916702  123.73999786    4.90999985    2.93000007
   15.44333363  137.56100464    4.90999985    2.91000009
   15.44638920  137.08599854    4.90999985    2.91000009
   15.44972229  135.30099487    4.90999985    2.91000009
   15.45277786  129.63200378    4.90999985    2.91000009
   15.45611095  116.92099762    4.90999985    2.93000007
   15.45694447  137.26600647    4.90999985    2.91000009
   15.45972157  119.92600250    4.90999985    2.93000007
   15.46305561  126.81199646    4.90999985    2.93000007
   15.46611118  138.88400269    4.90999985    2.91000009
   15.46944427  147.65699768    4.90999985    2.91000009
   15.47249985  158.82800293    4.90999985    2.91000009
   15.47583294  135.30799866    4.90999985    2.91000009
   15.48194408  135.30799866    4.90999985    2.91000009
   15.48611164  129.12199402    4.90999985    2.91000009
   15.48944473  130.26300049    4.90999985    2.91000009
   15.49027824  137.13400269    4.90999985    2.93000007
   15.49305534  137.54400635    4.90999985    2.91000009
   15.49611092  140.87800598    4.90999985    2.91000009
   15.49944496  128.14900208    4.90999985    2.91000009
   15.50249958  149.58200073    4.90999985    2.93000007
   15.50583363  124.56300354    4.90999985    2.91000009
   15.50916672  126.99600220    4.90999985    2.91000009
   15.51222229  121.98200226    4.90999985    2.91000009
   15.51555538  129.01300049    4.90999985    2.91000009
   15.51861095  134.88000488    4.90999985    2.91000009
   15.52472210  134.88000488    4.90999985    2.91000009
   15.52888870  129.08700562    4.90999985    2.93000007
   15.53222179  145.22099304    4.90999985    2.91000009
   15.53527832  131.24499512    4.90999985    2.91000009
   15.53861141  128.14799500    4.90999985    2.93000007
   15.54166698  143.59700012    4.90999985    2.91000009
   15.54500008  148.14700317    4.90999985    2.93000007
   15.54833412  126.95899963    4.90999985    2.93000007
   15.55138874  126.05200195    4.90999985    2.93000007
   15.55472279  126.17500305    4.90999985    2.93000007
   15.55694485  138.90100098    4.90999985    2.91000009
   15.55833340  127.20300293    4.90999985    2.93000007
   15.56138897  116.14499664    4.90999985    2.93000007
   15.56750011  116.14499664    4.90999985    2.93000007
   15.57166672  114.90399933    4.90999985    2.93000007
   15.57499981  127.70300293    4.90999985    2.93000007
   15.57805538  129.51199341    4.90999985    2.93000007
   15.58138847  127.46099854    4.90999985    2.93000007
   15.58472157  133.15800476    4.90999985    2.93000007
   15.58777714  124.41799927    4.90999985    2.93000007
   15.59027767  121.28299713    4.90999985    2.93000007
   15.59166622  130.22700500    4.90999985    2.93000007
   15.59472179  132.25000000    4.90999985    2.91000009
   15.59805489  129.48199463    4.90999985    2.93000007
   15.60111141  117.40699768    4.90999985    2.93000007
   15.60444450  133.12399292    4.90999985    2.91000009
   15.61055565  133.12399292    4.90999985    2.93000007
   15.61444473  133.25999451    4.90999985    2.93000007
   15.61777782  122.00499725    4.90999985    2.93000007
   15.62111092  120.17900085    4.90999985    2.91000009
   15.62361145  137.54699707    4.90999985    2.93000007
   15.62472248  123.93399811    4.90999985    2.91000009
   15.62777805  128.46299744    4.90999985    2.93000007
   15.63111115  124.48200226    4.90999985    2.91000009
   15.63416672  136.34300232    4.90999985    2.93000007
   15.63749981  125.94300079    4.90999985    2.93000007
   15.64083290  133.56900024    4.90999985    2.93000007
   15.64388847  127.40899658    4.90999985    2.93000007
   15.64722252  126.43099976    4.90999985    2.93000007
   15.65333271  126.43099976    4.90999985    2.93000007
   15.65749931  116.56900024    4.90999985    2.93000007
   15.66055489  129.19000244    4.90999985    2.93000007
   15.66388893  129.96099854    4.90999985    2.91000009
   15.66694450  122.34600067    4.90999985    2.93000007
   15.67027855  116.75299835    4.90999985    2.93000007
   15.67361164  125.56700134    4.90999985    2.93000007
   15.67666721  126.12100220    4.90999985    2.93000007
   15.68000031  133.61300659    4.90999985    2.93000007
   15.68305588  125.42500305    4.90999985    2.93000007
   15.68638897  120.88800049    4.90999985    2.93000007
   15.68972206  115.71700287    4.90999985    2.94000006
   15.69027805  127.51799774    4.90999985    2.93000007
   15.69611073  127.51799774    4.90999985    2.93000007
   15.70027733  127.98500061    4.90999985    2.93000007
   15.70361137  123.37000275    4.90999985    2.93000007
   15.70666695  120.25399780    4.90999985    2.93000007
   15.71000004  121.60299683    4.90999985    2.94000006
   15.71305561  125.29499817    4.90999985    2.93000007
   15.71638870  125.90899658    4.90999985    2.93000007
   15.71972179  118.63600159    4.90999985    2.93000007
   15.72277737  119.54699707    4.90999985    2.93000007
   15.72361088  122.62500000    4.90999985    2.93000007
   15.72666645  115.45700073    4.90999985    2.94000006
   15.72972202  116.00000000    4.90999985    2.93000007
   15.73305511  107.01699829    4.90999985    2.93000007
   15.73888874  107.01699829    4.90999985    2.93000007
   15.74305534  119.00800323    4.90999985    2.93000007
   15.74638939  122.05899811    4.90999985    2.93000007
   15.74944496  121.80699921    4.90999985    2.93000007
   15.75277805  122.58499908    4.90999985    2.93000007
   15.75611115  115.70999908    4.90999985    2.93000007
   15.75694466  111.32599640    4.90999985    2.93000007
   15.75972176  110.73100281    4.90999985    2.93000007
   15.76277733  116.38700104    4.90999985    2.93000007
   15.76611137  125.39600372    4.90999985    2.91000009
   15.76944447  117.86599731    4.90999985    2.93000007
   15.77250004  118.16600037    4.90999985    2.91000009
   15.77583313  146.80400085    4.90999985    2.93000007
   15.78194427  146.80400085    4.90999985    2.91000009
   15.78583336  123.09899902    4.90999985    2.91000009
   15.78916740  122.93299866    4.90999985    2.93000007
   15.79027843  123.90699768    4.90999985    2.93000007
   15.79277802  111.69899750    4.90999985    2.93000007
   15.79583359  122.22000122    4.90999985    2.93000007
   15.79916668  118.62000275    4.90999985    2.93000007
   15.80249977  116.29699707    4.90999985    2.91000009
   15.80555534  112.96600342    4.90999985    2.93000007
   15.80888939  123.97299957    4.90999985    2.93000007
   15.81194496  121.34400177    4.90999985    2.93000007
   15.81527805  115.69999695    4.90999985    2.93000007
   15.81861115  112.90200043    4.90999985    2.91000009
   15.82472229  112.90200043    4.90999985    2.93000007
   15.82888889  117.15399933    4.90999985    2.91000009
   15.83194447  115.94899750    4.90999985    2.93000007
   15.83527756  117.63999939    4.90999985    2.91000009
   15.83861065  125.22399902    4.90999985    2.93000007
   15.84166622  112.80500031    4.90999985    2.91000009
   15.84499931  117.81500244    4.90999985    2.93000007
   15.84805489  118.26000214    4.90999985    2.91000009
   15.85138893  122.56099701    4.90999985    2.93000007
   15.85444450  120.76699829    4.90999985    2.93000007
   15.85694504  122.22699738    4.90999985    2.93000007
   15.85833359  124.26699829    4.90999985    2.93000007
   15.86138916  124.80400085    4.90999985    2.93000007
   15.86750031  124.80400085    4.90999985    2.93000007
   15.87166691  114.62200165    4.90999985    2.93000007
   15.87500000  121.22899628    4.90999985    2.91000009
   15.87805557  118.74700165    4.90999985    2.93000007
   15.88138866  116.53500366    4.90999985    2.93000007
   15.88472176  120.39199829    4.90999985    2.91000009
   15.88777733  128.88299561    4.90999985    2.93000007
   15.89027786  118.03900146    4.90999985    2.91000009
   15.89138889  117.27999878    4.90999985    2.93000007
   15.89444447  122.96600342    4.90999985    2.93000007
   15.89777756  120.17700195    4.90999985    2.91000009
   15.90111065  123.26300049    4.90999985    2.93000007
   15.90416622  113.78099823    4.90999985    2.91000009
   15.91027737  113.78099823    4.90999985    2.91000009
   15.91444397  117.86900330    4.90999985    2.93000007
   15.91777802  121.64900208    4.90999985    2.91000009
   15.92083359  118.52300262    4.90999985    2.93000007
   15.92361164  117.27600098    4.90999985    2.93000007
   15.92472267  118.85900116    4.90999985    2.93000007
   15.92777824  119.12999725    4.90999985    2.93000007
   15.93111134  114.48100281    4.90999985    2.93000007
   15.93444443  123.40599823    4.90999985    2.93000007
   15.93750000  122.00499725    4.90999985    2.93000007
   15.94083309  118.66100311    4.90999985    2.93000007
   15.94388866  122.33899689    4.90999985    2.93000007
   15.94722271  118.07900238    4.90999985    2.93000007
   15.95333290  118.07900238    4.90999985    2.93000007
   15.95749950  116.97000122    4.90999985    2.93000007
   15.96055508  121.41500092    4.90999985    2.93000007
   15.96388912  121.47299957    4.90999985    2.93000007
   15.96694374  113.00199890    4.90999985    2.93000007
   15.97027779  121.81800079    4.90999985    2.93000007
   15.97361088  124.48400116    4.90999985    2.91000009
   15.97666645  117.80899811    4.90999985    2.93000007
   15.97999954  122.29499817    4.90999985    2.93000007
   15.98305511  116.18399811    4.90999985    2.93000007
   15.98638916  108.52300262    4.90999985    2.91000009
   15.98972225  118.63999939    4.90999985    2.93000007
   15.99027824  116.82399750    4.90999985    2.91000009
   15.99611092  116.82399750    4.90999985    2.91000009
   16.00027847  119.48899841    4.90999985    2.93000007
   16.00333405  127.73799896    4.90999985    2.91000009
   16.00666618  124.24500275    4.90999985    2.91000009
   16.01000023  123.51200104    4.90999985    2.91000009
   16.01305580  106.55799866    4.90999985    2.91000009
   16.01638794  115.26999664    4.90999985    2.93000007
   16.01944351  113.76599884    4.90999985    2.93000007
   16.02277756  118.91600037    4.90999985    2.91000009
   16.02361107  115.92800140    4.90999985    2.91000009
   16.02638817  122.51799774    4.90999985    2.91000009
   16.02944374  120.84600067    4.90999985    2.91000009
   16.03277779  122.41600037    4.90999985    2.93000007
   16.03888893  122.41600037    4.90999985    2.91000009
   16.04305458  118.01999664    4.90999985    2.93000007
   16.04638863  122.61900330    4.90999985    2.93000007
   16.04944420  118.86599731    4.90999985    2.93000007
   16.05277634  120.14800262    4.90999985    2.93000007
   16.05583191  121.36199951    4.90999985    2.93000007
   16.05694389  124.05699921    4.90999985    2.93000007
   16.05972099  120.37300110    4.90999985    2.91000009
   16.06277657  126.44400024    4.90999985    2.93000007
   16.06611061  121.48400116    4.90999985    2.93000007
   16.06944466  119.08799744    4.90999985    2.91000009
   16.07250023  133.43299866    4.90999985    2.93000007
   16.07583427  127.33300018    4.90999985    2.91000009
   16.08166695  127.33300018    4.90999985    2.91000009
   16.08583450  122.67600250    4.90999985    2.93000007
   16.08916664  125.51999664    4.90999985    2.93000007
   16.09027863  119.61299896    4.90999985    2.91000009
   16.09277916  129.41900635    4.90999985    2.93000007
   16.09583473  120.87599945    4.90999985    2.93000007
   16.09916687  115.06800079    4.90999985    2.91000009
   16.10250092  122.04900360    4.90999985    2.93000007
   16.10555649  122.05899811    4.90999985    2.93000007
   16.10888863  118.78800201    4.90999985    2.93000007
   16.11222267  128.26800537    4.90999985    2.91000009
   16.11527824  124.08499908    4.90999985    2.93000007
   16.11861038  131.94999695    4.90999985    2.93000007
   16.12472153  131.94999695    4.90999985    2.91000009
   16.12861061  130.98500061    4.90999985    2.91000009
   16.13194466  128.36999512    4.90999985    2.91000009
   16.13527679  130.67700195    4.90999985    2.91000009
   16.13833237  124.31400299    4.90999985    2.91000009
   16.14166641  128.01199341    4.90999985    2.93000007
   16.14472198  124.24800110    4.90999985    2.93000007
   16.14805603  121.48200226    4.90999985    2.93000007
   16.15138817  124.25099945    4.90999985    2.91000009
   16.15444374  119.58000183    4.90999985    2.93000007
   16.15694427  115.96900177    4.90999985    2.93000007
   16.15805435  124.05699921    4.90999985    2.93000007
   16.16138840  124.45400238    4.90999985    2.91000009
   16.16749954  124.45400238    4.90999985    2.93000007
   16.17166519  119.01799774    4.90999985    2.91000009
   16.17472076  120.97499847    4.90999985    2.93000007
   16.17805481  119.28199768    4.90999985    2.93000007
   16.18138885  119.64700317    4.90999985    2.91000009
   16.18444443  130.15899658    4.90999985    2.93000007
   16.18777657  127.48899841    4.90999985    2.91000009
   16.19027710  121.82399750    4.90999985    2.93000007
   16.19138718  129.15800476    4.90999985    2.91000009
   16.19472122  116.75599670    4.90999985    2.93000007
   16.19777679  116.72799683    4.90999985    2.91000009
   16.20111275  116.37000275    4.90999985    2.93000007
   16.20416832  118.11399841    4.90999985    2.91000009
   16.21027946  118.11399841    4.90999985    2.93000007
   16.21444511  117.98000336    4.90999985    2.93000007
   16.21777916  123.96700287    4.90999985    2.93000007
   16.22083473  117.89299774    4.90999985    2.93000007
   16.22361183  120.88500214    4.90999985    2.93000007
   16.22444534  129.04200745    4.90999985    2.93000007
   16.22777748  133.00599670    4.90999985    2.93000007
   16.23083305  120.49500275    4.90999985    2.93000007
   16.23416710  122.47799683    4.90999985    2.93000007
   16.23722267  117.26499939    4.90999985    2.93000007
   16.24055672  130.46299744    4.90999985    2.94000006
   16.24388885  122.98500061    4.90999985    2.93000007
   16.24694443  123.82399750    4.90999985    2.93000007
   16.25305557  123.82399750    4.90999985    2.91000009
   16.25722313  122.78600311    4.90999985    2.93000007
   16.26055527  125.59799957    4.90999985    2.93000007
   16.26361084  126.30500031    4.90999985    2.93000007
   16.26694489  119.54299927    4.90999985    2.93000007
   16.27027702  111.30300140    4.90999985    2.93000007
   16.27333260  123.00099945    4.90999985    2.93000007
   16.27666664  125.03500366    4.90999985    2.94000006
   16.28000069  119.74800110    4.90999985    2.93000007
   16.28305435  115.59999847    4.90999985    2.93000007
   16.28638840  118.63500214    4.90999985    2.93000007
   16.28944397  125.15200043    4.90999985    2.93000007
   16.29027748  129.37600708    4.90999985    2.93000007
   16.31110954  129.37600708    4.90999985    2.93000007
   16.31527710  127.33499908    4.90999985    2.93000007
   16.31833458  130.99400330    4.90999985    2.93000007
   16.32166672  135.31599426    4.90999985    2.93000007
   16.32361221  125.20500183    4.90999985    2.93000007
   16.32527924  121.13500214    4.90999985    2.93000007
   16.32861137  118.08200073    4.90999985    2.93000007
   16.33166695  124.21499634    4.90999985    2.93000007
   16.33500099  123.51300049    4.90999985    2.91000009
   16.33833313  128.04800415    4.90999985    2.93000007
   16.34138870  109.92500305    4.90999985    2.93000007
   16.34472275  101.37599945    4.90999985    2.93000007
   16.34777832  130.88800049    4.90999985    2.93000007
   16.35388947  130.88800049    4.90999985    2.93000007
   16.35805511  121.11399841    4.90999985    2.94000006
   16.36111069  120.45999908    4.90999985    2.91000009
   16.36444473  111.71700287    4.90999985    2.93000007
   16.36777878  115.06099701    4.90999985    2.93000007
   16.37083435  116.57499695    4.90999985    2.91000009
   16.37416649  119.86399841    4.90999985    2.93000007
   16.37722206  118.24700165    4.90999985    2.93000007
   16.38055611  110.97000122    4.90999985    2.93000007
   16.38388824  120.94799805    4.90999985    2.93000007
   16.38694382  125.24600220    4.90999985    2.93000007
   16.39027786  117.70099640    4.90999985    2.93000007
   16.39083290  120.52500153    4.90999985    2.93000007
   16.39666748  120.52500153    4.90999985    2.93000007
   16.40083313  115.88600159    4.90999985    2.93000007
   16.40416718  127.34999847    4.90999985    2.93000007
   16.40722275  120.21199799    4.90999985    2.91000009
   16.41055489  114.80200195    4.90999985    2.93000007
   16.41361046  120.00599670    4.90999985    2.93000007
   16.41694450  116.73500061    4.90999985    2.93000007
   16.42027664  115.18900299    4.90999985    2.93000007
   16.42333221  128.85699463    4.90999985    2.93000007
   16.42416573  123.96900177    4.90999985    2.93000007
   16.42722130  118.13500214    4.90999985    2.93000007
   16.43027687  115.87899780    4.90999985    2.93000007
   16.43361092  118.36399841    4.90999985    2.93000007
   16.43944359  118.36399841    4.90999985    2.93000007
   16.44361115  115.30300140    4.90999985    2.94000006
   16.44694328  123.15699768    4.90999985    2.93000007
   16.45000076  110.51599884    4.90999985    2.93000007
   16.45333481  120.49299622    4.90999985    2.94000006
   16.45666695  125.37100220    4.90999985    2.93000007
   16.45750046  122.84999847    4.90999985    2.93000007
   16.46027946  119.83999634    4.90999985    2.93000007
   16.46333504  118.85900116    4.90999985    2.93000007
   16.46666718  117.48999786    4.90999985    2.93000007
   16.46972275  119.01200104    4.90999985    2.93000007
   16.47305679  119.46700287    4.90999985    2.93000007
   16.47638893  128.47000122    4.90999985    2.91000009
   16.48250008  128.47000122    4.90999985    2.94000006
   16.48638916  121.24199677    4.90999985    2.94000006
   16.48972321  112.98999786    4.90999985    2.93000007
   16.49083328  124.05200195    4.90999985    2.93000007
   16.49361229  118.99199677    4.90999985    2.93000007
   16.49666786  124.99800110    4.90999985    2.93000007
   16.50000000  118.26399994    4.90999985    2.93000007
   16.50305557  127.81600189    4.90999985    2.93000007
   16.50638962  115.62100220    4.90999985    2.93000007
   16.50972176  120.13999939    4.90999985    2.94000006
   16.51277733  126.62300110    4.90999985    2.94000006
   16.51611137  120.70899963    4.90999985    2.93000007
   16.51916695  115.74299622    4.90999985    2.93000007
   16.52527809  115.74299622    4.90999985    2.93000007
   16.52944374  124.32099915    4.90999985    2.93000007
   16.53249931  117.93499756    4.90999985    2.93000007
   16.53583336  122.98600006    4.90999985    2.93000007
   16.53916550  115.12899780    4.90999985    2.93000007
   16.54222107  131.19099426    4.90999985    2.93000007
   16.54555511  133.72900391    4.90999985    2.93000007
   16.54861069  122.86299896    4.90999985    2.93000007
   16.55194283  122.86299896    4.90999985    2.93000007
   16.55527687  121.95300293    4.90999985    2.93000007
   16.55749893  125.33599854    4.90999985    2.93000007
   16.55888748  120.30599976    4.90999985    2.93000007
   16.56194305  127.16300201    4.90999985    2.93000007
   16.56805611  127.16300201    4.90999985    2.93000007
   16.57222366  124.04000092    4.90999985    2.93000007
   16.57555580  124.77500153    4.90999985    2.93000007
   16.57861137  120.41000366    4.90999985    2.93000007
   16.58194542  124.01200104    4.90999985    2.93000007
   16.58500099  120.67600250    4.90999985    2.93000007
   16.58833313  118.40299988    4.90999985    2.93000007
   16.59083366  122.58200073    4.90999985    2.93000007
   16.59222221  122.83399963    4.90999985    2.93000007
   16.59527779  126.23899841    4.90999985    2.93000007
   16.59861183  115.38500214    4.90999985    2.93000007
   16.60166740  109.28199768    4.90999985    2.93000007
   16.60499954  123.00800323    4.90999985    2.94000006
   16.61083412  123.00800323    4.90999985    2.91000009
   16.61499977  122.38099670    4.90999985    2.93000007
   16.61833382  127.25299835    4.90999985    2.91000009
   16.62138939  124.87999725    4.90999985    2.93000007
   16.62416649  121.32199860    4.90999985    2.93000007
   16.62527847  128.01499939    4.90999985    2.93000007
   16.62833405  120.03299713    4.90999985    2.93000007
   16.63166618  131.20799255    4.90999985    2.93000007
   16.63472176  123.19699860    4.90999985    2.93000007
   16.63805580  118.10800171    4.90999985    2.93000007
   16.64138794  123.08200073    4.90999985    2.93000007
   16.64444351  115.75700378    4.90999985    2.94000006
   16.64777756  123.94599915    4.90999985    2.93000007
   16.65388870  123.94599915    4.90999985    2.93000007
   16.65777779  107.77799988    4.90999985    2.93000007
   16.66110992  119.29199982    4.90999985    2.94000006
   16.66444397  109.65000153    4.90999985    2.93000007
   16.66749954  117.69000244    4.90999985    2.93000007
   16.67083359  125.59400177    4.90999985    2.93000007
   16.67388916  123.06600189    4.90999985    2.93000007
   16.67722130  125.56199646    4.90999985    2.93000007
   16.68055534  114.94100189    4.90999985    2.93000007
   16.68361092  131.91999817    4.90999985    2.93000007
   16.68694305  124.68800354    4.90999985    2.93000007
   16.68999863  122.14199829    4.90999985    2.93000007
   16.69083214  122.63500214    4.90999985    2.93000007
   16.69666672  122.63500214    4.90999985    2.93000007
   16.70083427  124.04499817    4.90999985    2.91000009
   16.70388985  121.85399628    4.90999985    2.93000007
   16.70722389  123.30999756    4.90999985    2.93000007
   16.71027946  135.23199463    4.90999985    2.93000007
   16.71361160  120.83200073    4.90999985    2.93000007
   16.71694565  118.94400024    4.90999985    2.91000009
   16.72000122  128.52699280    4.90999985    2.93000007
   16.72333336  126.00000000    4.90999985    2.93000007
   16.72416687  120.78199768    4.90999985    2.93000007
   16.72694588  127.53399658    4.90999985    2.93000007
   16.73000145  113.20800018    4.90999985    2.93000007
   16.73333359  119.89399719    4.90999985    2.93000007
   16.73944473  119.89399719    4.90999985    2.93000007
   16.74361229  131.32699585    4.90999985    2.93000007
   16.74694443  128.51100159    4.90999985    2.93000007
   16.75000000  128.90100098    4.90999985    2.93000007
   16.75333405  126.54599762    4.90999985    2.93000007
   16.75638962  136.77099609    4.90999985    2.94000006
   16.75749969  142.28399658    4.90999985    2.93000007
   16.76027870  134.66999817    4.90999985    2.94000006
   16.76333427  145.92100525    4.90999985    2.93000007
   16.76666641  149.53700256    4.90999985    2.93000007
   16.76972198  143.22200012    4.90999985    2.93000007
   16.77305603  144.36599731    4.90999985    2.93000007
   16.77638817  125.38999939    4.90999985    2.93000007
   16.78222275  125.38999939    4.90999985    2.93000007
   16.78638840  145.37199402    4.90999985    2.93000007
   16.78972244  145.29299927    4.90999985    2.93000007
   16.79083252  143.03900146    4.90999985    2.93000007
   16.79333305  132.92199707    4.90999985    2.91000009
   16.79638863  152.82899475    4.90999985    2.93000007
   16.79972076  175.60899353    4.90999985    2.93000007
   16.80305481  167.14500427    4.90999985    2.94000006
   16.80611038  172.54200745    4.90999985    2.93000007
   16.80944443  160.30799866    4.90999985    2.94000006
   16.81277657  161.30400085    4.90999985    2.93000007
   16.81583214  155.70399475    4.90999985    2.93000007
   16.81916809  152.58000183    4.90999985    2.93000007
   16.82527924  152.58000183    4.90999985    2.93000007
   16.82916832  163.43899536    4.90999985    2.93000007
   16.83250046  164.04400635    4.90999985    2.93000007
   16.83583450  166.39399719    4.90999985    2.94000006
   16.83889008  155.13000488    4.90999985    2.93000007
   16.84222221  129.02000427    4.90999985    2.93000007
   16.84555626  150.43400574    4.90999985    2.93000007
   16.84861183  148.40400696    4.90999985    2.94000006
   16.85194397  157.19999695    4.90999985    2.94000006
   16.85499954  155.83399963    4.90999985    2.93000007
   16.85750008  145.43899536    4.90999985    2.93000007
   16.85888863  151.97099304    4.90999985    2.94000006
   16.86194420  148.42100525    4.90999985    2.93000007
   16.86805534  148.42100525    4.90999985    2.93000007
   16.87222290  172.74099731    4.90999985    2.94000006
   16.87527847  169.47500610    4.90999985    2.94000006
   16.87861061  174.53999329    4.90999985    2.93000007
   16.88194466  154.32200623    4.90999985    2.93000007
   16.88500023  189.57400513    4.90999985    2.93000007
   16.88833237  190.59899902    4.90999985    2.93000007
   16.89083290  196.97000122    4.90999985    2.94000006
   16.89194489  191.39300537    4.90999985    2.93000007
   16.89500046  200.42700195    4.90999985    2.93000007
   16.89833260  209.78999329    4.90999985    2.93000007
   16.90166664  178.52600098    4.90999985    2.94000006
   16.90472221  183.56700134    4.90999985    2.93000007
   16.91083336  183.56700134    4.90999985    2.93000007
   16.91499901  185.41200256    4.90999985    2.93000007
   16.91805458  181.72999573    4.90999985    2.93000007
   16.92138863  176.89799500    4.90999985    2.94000006
   16.92416573  163.07899475    4.90999985    2.94000006
   16.92499924  178.47399902    4.90999985    2.93000007
   16.92805481  181.07099915    4.90999985    2.93000007
   16.93138885  147.49899292    4.90999985    2.93000007
   16.93444443  146.26199341    4.90999985    2.94000006
   16.93777657  157.93499756    4.90999985    2.94000006
   16.94111061  152.70500183    4.90999985    2.94000006
   16.94416618  159.67599487    4.90999985    2.93000007
   16.94749832  152.70300293    4.90999985    2.93000007
   16.95361137  152.70300293    4.90999985    2.93000007
   16.95777893  159.17700195    4.90999985    2.93000007
   16.96111107  157.26800537    4.90999985    2.94000006
   16.96416664  172.90499878    4.90999985    2.93000007
   16.96750069  161.33000183    4.90999985    2.93000007
   16.97083473  199.90499878    4.90999985    2.94000006
   16.97389030  228.24499512    4.90999985    2.94000006
   16.97722244  221.38999939    4.90999985    2.94000006
   16.98055649  202.54600525    4.90999985    2.94000006
   16.98361206  208.20799255    4.90999985    2.93000007
   16.98694420  214.27299500    4.90999985    2.93000007
   16.98999977  214.66400146    4.90999985    2.93000007
   16.99083328  204.00999451    4.90999985    2.93000007
   16.99638939  204.00999451    4.90999985    2.93000007
   17.00055504  191.32099915    4.90999985    2.93000007
   17.00388908  207.65100098    4.90999985    2.93000007
   17.00722313  165.51600647    4.90999985    2.93000007
   17.01027870  190.31799316    4.90999985    2.93000007
   17.01361084  214.43099976    4.90999985    2.93000007
   17.01666641  208.35899353    4.90999985    2.93000007
   17.02000046  190.31799316    4.90999985    2.93000007
   17.02333260  153.59599304    4.90999985    2.93000007
   17.02416611  205.15800476    4.90999985    2.93000007
   17.02694511  180.90299988    4.90999985    2.93000007
   17.03000069  183.59800720    4.90999985    2.93000007
   17.03333282  190.59199524    4.90999985    2.93000007
   17.03944397  190.59199524    4.90999985    2.93000007
   17.04361153  182.22599792    4.90999985    2.93000007
   17.04666710  149.40600586    4.90999985    2.93000007
   17.04999924  170.58999634    4.90999985    2.93000007
   17.05333328  176.03500366    4.90999985    2.93000007
   17.05638885  175.28599548    4.90999985    2.93000007
   17.05749893  156.52699280    4.90999985    2.93000007
   17.05999947  137.43299866    4.90999985    2.93000007
   17.06305504  165.79200745    4.90999985    2.93000007
   17.06638718  175.60800171    4.90999985    2.93000007
   17.06972313  154.19700623    4.90999985    2.93000007
   17.07277870  150.86999512    4.90999985    2.93000007
   17.07611275  162.39199829    4.90999985    2.93000007
   17.08222389  162.39199829    4.90999985    2.93000007
   17.08638954  149.70899963    4.90999985    2.93000007
   17.08944511  155.71499634    4.90999985    2.93000007
   17.09083366  129.22900391    4.90999985    2.93000007
   17.09333420  150.09300232    4.90999985    2.93000007
   17.09638977  140.55799866    4.90999985    2.93000007
   17.09972191  157.25700378    4.90999985    2.93000007
   17.10305595  135.34300232    4.90999985    2.93000007
   17.10611153  157.61999512    4.90999985    2.93000007
   17.10944557  164.72700500    4.90999985    2.93000007
   17.11277771  146.26899719    4.90999985    2.93000007
   17.11583328  148.10400391    4.90999985    2.93000007
   17.11916733  153.78999329    4.90999985    2.93000007
   17.12500000  153.78999329    4.90999985    2.93000007
   17.12916756  153.69900513    4.90999985    2.93000007
   17.13249969  131.18099976    4.90999985    2.93000007
   17.13555527  154.37600708    4.90999985    2.93000007
   17.13888931  148.41099548    4.90999985    2.93000007
   17.14222145  125.26300049    4.90999985    2.93000007
   17.14527702  146.72700500    4.90999985    2.93000007
   17.14861107  126.59999847    4.90999985    2.93000007
   17.15166664  164.82099915    4.90999985    2.93000007
   17.15499878  125.56600189    4.90999985    2.93000007
   17.15749931  131.73599243    4.90999985    2.93000007
   17.15861130  149.40499878    4.90999985    2.93000007
   17.16166687  132.20700073    4.90999985    2.93000007
   17.16777802  132.20700073    4.90999985    2.93000007
   17.17194366  156.39199829    4.90999985    2.93000007
   17.17527771  141.52000427    4.90999985    2.93000007
   17.17860985  155.30499268    4.90999985    2.93000007
   17.18166542  148.05599976    4.90999985    2.93000007
   17.18499947  154.02299500    4.90999985    2.93000007
   17.18805504  129.41999817    4.90999985    2.93000007
   17.19083214  166.88200378    4.90999985    2.93000007
   17.19194412  151.29699707    4.90999985    2.93000007
   17.19527626  153.49800110    4.90999985    2.93000007
   17.19833183  170.74400330    4.90999985    2.93000007
   17.20166779  147.27900696    4.90999985    2.93000007
   17.20472336  159.55799866    4.90999985    2.93000007
   17.21083450  159.55799866    4.90999985    2.93000007
   17.21500015  143.27900696    4.90999985    2.93000007
   17.21805573  138.24800110    4.90999985    2.93000007
   17.22138977  141.74800110    4.90999985    2.93000007
   17.22416687  141.75700378    4.90999985    2.93000007
   17.22500038  151.77299500    4.90999985    2.93000007
   17.22833443  117.82499695    4.90999985    2.93000007
   17.23139000  133.52299500    4.90999985    2.93000007
   17.23472214  141.39599609    4.90999985    2.93000007
   17.23777771  142.54600525    4.90999985    2.93000007
   17.24111176  147.71299744    4.90999985    2.93000007
   17.24444389  142.89199829    4.90999985    2.93000007
   17.24749947  121.51499939    4.90999985    2.93000007
   17.25361061  121.51499939    4.90999985    2.93000007
   17.25777817  122.69599915    4.90999985    2.93000007
   17.26083374  124.58699799    4.90999985    2.93000007
   17.26416588  157.16499329    4.90999985    2.93000007
   17.26749992  141.07000732    4.90999985    2.93000007
   17.27055550  149.96499634    4.90999985    2.93000007
   17.27388954  146.35099792    4.90999985    2.93000007
   17.27722168  139.28599548    4.90999985    2.93000007
   17.28027725  130.23100281    4.90999985    2.93000007
   17.28361130  131.47500610    4.90999985    2.93000007
   17.28666687  126.13700104    4.90999985    2.93000007
   17.28999901  123.41000366    4.90999985    2.93000007
   17.29083252  116.19699860    4.90999985    2.93000007
   17.29638863  116.19699860    4.90999985    2.93000007
   17.30055428  127.10500336    4.90999985    2.93000007
   17.30388832  115.97899628    4.90999985    2.93000007
   17.30694389  116.39700317    4.90999985    2.93000007
   17.32472229  143.22099304    4.90999985    2.93000007
   17.32694626  139.23899841    4.90999985    2.93000007
   17.33027840  123.26200104    4.90999985    2.93000007
   17.33361244  127.40200043    4.90999985    2.93000007
   17.33944511  127.40200043    4.90999985    2.93000007
   17.34361267  146.74200439    4.90999985    2.93000007
   17.34694481  137.18299866    4.90999985    2.93000007
   17.35000038  128.79899597    4.90999985    2.93000007
   17.35333443  123.86799622    4.90999985    2.93000007
   17.35639000  134.28300476    4.90999985    2.93000007
   17.35777855  130.57600403    4.90999985    2.93000007
   17.36027908  135.24200439    4.90999985    2.93000007
   17.36361122  140.28599548    4.90999985    2.93000007
   17.36666679  125.08200073    4.90999985    2.93000007
   17.37000084  130.06399536    4.90999985    2.93000007
   17.37333298  136.98399353    4.90999985    2.93000007
   17.37638855  131.18699646    4.90999985    2.93000007
   17.38222313  131.18699646    4.90999985    2.93000007
   17.38638878  156.34700012    4.90999985    2.93000007
   17.38972282  154.50799561    4.90999985    2.93000007
   17.39111137  175.22099304    4.90999985    2.93000007
   17.39333344  164.56199646    4.90999985    2.93000007
   17.39666748  160.14700317    4.90999985    2.93000007
   17.39972115  159.98899841    4.90999985    2.93000007
   17.40305519  163.48300171    4.90999985    2.93000007
   17.40611076  173.81399536    0.92000002    2.98000002
   17.40944481  163.28599548    0.19000000    0.50000000
   17.41277695  165.00199890    0.11000000    0.20999999
   17.41611099  142.27999878    0.09000000    0.07000000
   17.41916656  156.89799500    0.09000000    0.07000000
   17.42527771  156.89799500    0.09000000    0.07000000
   17.42916679  154.38699341    0.09000000    0.07000000
   17.43249893  153.80599976    0.09000000    0.07000000
   17.43583298  150.72500610    0.09000000    0.07000000
   17.43888855  159.15699768    0.09000000    0.07000000
   17.44222069  131.92300415    0.09000000    0.07000000
   17.44555473  150.64799500    0.09000000    0.07000000
   17.44861031  128.63099670    0.09000000    0.07000000
   17.45194435  124.75299835    0.09000000    0.07000000
   17.45499992  132.38200378    0.09000000    0.07000000
   17.45777893  142.38800049    0.09000000    0.07000000
   17.45861244  133.18699646    0.09000000    0.07000000
   17.46194458  131.39900208    0.09000000    0.07000000
   17.46805573  131.39900208    0.09000000    0.07000000
   17.47222328  138.21200562    0.09000000    0.07000000
   17.47527885  152.14799500    0.09000000    0.07000000
   17.47861099  127.81300354    0.09000000    0.07000000
   17.48194504  128.50000000    0.09000000    0.07000000
   17.48500061  143.70100403    0.09000000    0.07000000
   17.48833275  150.58399963    0.09000000    0.07000000
   17.49111176  144.39999390    0.09000000    0.07000000
   17.49194527  135.91900635    0.09000000    0.07000000
   17.49527740  132.90400696    0.09000000    0.07000000
   17.49833298  146.27200317    0.09000000    0.07000000
   17.50166702  122.86799622    0.09000000    0.07000000
   17.50499916  128.70700073    0.09000000    0.07000000
   17.51083374  128.70700073    0.09000000    0.07000000
   17.51499939  126.18199921    0.09000000    0.07000000
   17.51805496  125.21399689    0.09000000    0.07000000
   17.52138901  116.04100037    0.09000000    0.07000000
   17.52444458  128.00799561    0.09000000    0.07000000
   17.52499962  133.33200073    0.09000000    0.07000000
   17.52833366  130.63200378    0.09000000    0.07000000
   17.53138924  135.55900574    0.09000000    0.07000000
   17.53472137  128.06100464    0.09000000    0.07000000
   17.53777695  130.60899353    0.09000000    0.07000000
   17.54111099  124.60600281    0.09000000    0.07000000
   17.54444313  122.78199768    0.09000000    0.07000000
   17.54749870  131.39500427    0.09000000    0.07000000
   17.55360985  131.39500427    0.09000000    0.07000000
   17.55777740  128.66499329    0.09000000    0.07000000
   17.55833244  135.58500671    0.09000000    0.07000000
   17.56166649  139.71600342    0.09000000    0.07000000
   17.56472206  135.19700623    0.09000000    0.07000000
   17.56805611  127.85500336    0.09000000    0.07000000
   17.57139015  118.74099731    0.09000000    0.07000000
   17.57444572  132.11099243    0.09000000    0.07000000
   17.57777786  142.93200684    0.09000000    0.07000000
   17.58083344  142.73899841    0.09000000    0.07000000
   17.58416748  140.11199951    0.09000000    0.07000000
   17.58750153  126.27100372    0.09000000    0.07000000
   17.59055710  128.16600037    0.09000000    0.07000000
   17.59111214  126.59200287    0.09000000    0.07000000
   17.59666824  126.59200287    0.09000000    0.07000000
   17.60055542  134.22200012    0.09000000    0.07000000
   17.60388947  136.21400452    0.09000000    0.07000000
   17.60722351  131.25399780    0.09000000    0.07000000
   17.61027908  122.13500214    0.09000000    0.07000000
   17.61361122  129.72099304    0.09000000    0.07000000
   17.61666679  129.98100281    0.09000000    0.07000000
   17.62000084  134.76600647    0.09000000    0.07000000
   17.62333298  131.57200623    0.09000000    0.07000000
   17.62444496  131.69799805    0.09000000    0.07000000
   17.62694550  126.80000305    0.09000000    0.07000000
   17.63027763  132.84800720    0.09000000    0.07000000
   17.63333321  128.32200623    0.09000000    0.07000000
   17.63944435  128.32200623    0.09000000    0.07000000
   17.64361191  153.50799561    0.09000000    0.07000000
   17.64666748  149.91299438    0.09000000    0.07000000
   17.64999962  165.59599304    0.09000000    0.07000000
   17.65305519  196.79400635    0.09000000    0.07000000
   17.65638924  156.90299988    0.09000000    0.07000000
   17.65777779  203.21699524    0.09000000    0.07000000
   17.65999985  188.23599243    0.09000000    0.07000000
   17.66333389  209.84199524    0.09000000    0.07000000
   17.66638756  228.57899475    0.09000000    0.07000000
   17.66972160  217.84100342    0.09000000    0.07000000
   17.67305565  233.28700256    0.09000000    0.07000000
   17.67611122  231.01199341    0.09000000    0.07000000
   17.68222237  231.01199341    0.09000000    0.07000000
   17.68638802  230.73800659    0.09000000    0.07000000
   17.68944359  209.42599487    0.09000000    0.07000000
   17.69111061  204.20700073    0.09000000    0.07000000
   17.69305420  218.07600403    0.09000000    0.07000000
   17.69638824  192.94299316    0.09000000    0.07000000
   17.69944382  205.83700562    0.09000000    0.07000000
   17.70277786  199.30099487    0.09000000    0.07000000
   17.70611191  191.98199463    0.09000000    0.07000000
   17.70916748  159.29100037    0.09000000    0.07000000
   17.71250153  169.67599487    0.09000000    0.07000000
   17.71583366  179.48199463    0.09000000    0.07000000
   17.71888924  178.77699280    0.09000000    0.07000000
   17.72500038  178.77699280    0.09000000    0.07000000
   17.72916794  180.05200195    0.09000000    0.07000000
   17.73250008  193.95799255    0.09000000    0.07000000
   17.73555565  162.61799622    0.09000000    0.07000000
   17.73888969  167.49299622    0.09000000    0.07000000
   17.74222183  186.05700684    0.09000000    0.07000000
   17.74527740  170.87699890    0.09000000    0.07000000
   17.74861145  171.18200684    0.09000000    0.07000000
   17.75194359  171.12500000    0.09000000    0.07000000
   17.75499916  188.33799744    0.09000000    0.07000000
   17.75805473  182.54800415    0.09000000    0.07000000
   17.75861168  179.61700439    0.09000000    0.07000000
   17.76194382  177.32099915    0.09000000    0.07000000
   17.76805496  177.32099915    0.09000000    0.07000000
   17.77194405  149.42399597    0.09000000    0.07000000
   17.77527809  144.07400513    0.09000000    0.07000000
   17.77861023  164.64599609    0.09000000    0.07000000
   17.78166580  168.53399658    0.09000000    0.07000000
   17.78499985  150.05900574    0.09000000    0.07000000
   17.78805542  170.30900574    0.09000000    0.07000000
   17.79138756  151.81799316    0.09000000    0.07000000
   17.79166603  169.03700256    0.09000000    0.07000000
   17.79500008  172.65100098    0.09000000    0.07000000
   17.79805565  172.07000732    0.09000000    0.07000000
   17.80138779  164.60099792    0.09000000    0.07000000
   17.80472183  128.99200439    0.09000000    0.07000000
   17.81083298  128.99200439    0.09000000    0.07000000
   17.81499863  157.83599854    0.09000000    0.07000000
   17.81805611  155.88299561    0.09000000    0.07000000
   17.82139015  167.87899780    0.09000000    0.07000000
   17.82472229  156.47200012    0.09000000    0.07000000
   17.82500076  141.55400085    0.09000000    0.07000000
   17.82833481  176.83900452    0.09000000    0.07000000
   17.83139038  155.90400696    0.09000000    0.07000000
   17.83472252  152.58799744    0.09000000    0.07000000
   17.83805656  158.30000305    0.09000000    0.07000000
   17.84111214  162.31700134    0.09000000    0.07000000
   17.84444427  164.27000427    0.09000000    0.07000000
   17.84749985  154.78799438    0.09000000    0.07000000
   17.85361099  154.78799438    0.09000000    0.07000000
   17.85777855  148.29100037    0.09000000    0.07000000
   17.85833359  144.69400024    0.09000000    0.07000000
   17.86138916  108.22200012    0.09000000    0.07000000
   17.86472321  139.78399658    0.09000000    0.07000000
   17.86805534  145.23599243    0.09000000    0.07000000
   17.87111092  139.82000732    0.09000000    0.07000000
   17.87444496  151.75900269    0.09000000    0.07000000
   17.87750053  144.60400391    0.09000000    0.07000000
   17.88083267  140.02400208    0.09000000    0.07000000
   17.88416672  129.02799988    0.09000000    0.07000000
   17.88722229  152.03100586    0.09000000    0.07000000
   17.89055634  153.89599609    0.09000000    0.07000000
   17.89166641  151.80799866    0.09000000    0.07000000
   17.89638901  151.80799866    0.09000000    0.07000000
   17.90055466  123.04900360    0.09000000    0.07000000
   17.90388870  144.11700439    0.09000000    0.07000000
   17.90694427  138.18200684    0.09000000    0.07000000
   17.91027832  136.33099365    0.09000000    0.07000000
   17.91361046  146.76800537    0.09000000    0.07000000
   17.91666603  128.13999939    0.09000000    0.07000000
   17.92000008  125.20800018    0.09000000    0.07000000
   17.92333221  125.28099823    0.09000000    0.07000000
   17.92499924  132.08999634    0.09000000    0.07000000
   17.92666626  128.71200562    0.09000000    0.07000000
   17.93000031  124.68299866    0.09000000    0.07000000
   17.93333244  145.54600525    0.09000000    0.07000000
   17.93944359  145.54600525    0.09000000    0.07000000
   17.94333267  134.36999512    0.09000000    0.07000000
   17.94666672  123.41500092    0.09000000    0.07000000
   17.95000076  123.48500061    0.09000000    0.07000000
   17.95305634  133.49099731    0.09000000    0.07000000
   17.95639038  127.45099640    0.09000000    0.07000000
   17.95833397  122.03500366    0.09000000    0.07000000
   17.95972252  132.86399841    0.09000000    0.07000000
   17.96305656  142.58999634    0.09000000    0.07000000
   17.96638870  134.17999268    0.09000000    0.07000000
   17.96944427  133.06799316    0.09000000    0.07000000
   17.97277832  135.67100525    0.09000000    0.07000000
   17.97583389  154.17500305    0.09000000    0.07000000
   17.98222351  154.17500305    0.09000000    0.07000000
   17.98638916  136.88499451    0.09000000    0.07000000
   17.98944473  118.72899628    0.09000000    0.07000000
   17.99166679  126.51300049    0.09000000    0.07000000
   17.99305534  122.03099823    0.09000000    0.07000000
   17.99638939  129.58500671    0.09000000    0.07000000
   17.99972153  118.65399933    0.09000000    0.07000000
   18.00277710  119.02400208    0.09000000    0.07000000
   18.00611115  125.01699829    0.09000000    0.07000000
   18.00916672  129.34300232    0.09000000    0.07000000
   18.01250076  129.30900574    0.09000000    0.07000000
   18.01583290  127.06099701    0.09000000    0.07000000
   18.01888847  116.42700195    0.09000000    0.07000000
   18.02499962  116.42700195    0.09000000    0.07000000
   18.02916718  119.39700317    0.09000000    0.07000000
   18.03249931  119.77300262    0.09000000    0.07000000
   18.03555489  129.77900696    0.09000000    0.07000000
   18.03888893  127.55500031    0.09000000    0.07000000
   18.04194450  128.65499878    0.09000000    0.07000000
   18.04527664  114.89700317    0.09000000    0.07000000
   18.04861069  127.27200317    0.09000000    0.07000000
   18.05166626  133.36500549    0.09000000    0.07000000
   18.05499840  130.16799927    0.09000000    0.07000000
   18.05805397  124.04900360    0.09000000    0.07000000
   18.05861092  118.86399841    0.09000000    0.07000000
   18.06194305  127.37899780    0.09000000    0.07000000
   18.06777954  127.37899780    0.09000000    0.07000000
   18.07194519  120.81400299    0.09000000    0.07000000
   18.07527924  120.95700073    0.09000000    0.07000000
   18.07833481  128.48599243    0.09000000    0.07000000
   18.08166695  136.35600281    0.09000000    0.07000000
   18.08500099  122.11699677    0.09000000    0.07000000
   18.08805656  118.47699738    0.09000000    0.07000000
   18.09138870  115.24099731    0.09000000    0.07000000
   18.09194565  126.54399872    0.09000000    0.07000000
   18.09500122  124.83499908    0.09000000    0.07000000
   18.09805679  120.49600220    0.09000000    0.07000000
   18.10138893  131.62399292    0.09000000    0.07000000
   18.10472298  137.80099487    0.09000000    0.07000000
   18.11083412  137.80099487    0.09000000    0.07000000
   18.11472321  153.52799988    0.09000000    0.07000000
   18.11805534  132.84800720    0.09000000    0.07000000
   18.12138939  128.94200134    0.09000000    0.07000000
   18.12444496  143.97300720    0.09000000    0.07000000
   18.12527847  122.03600311    0.09000000    0.07000000
   18.12805557  152.01899719    0.09000000    0.07000000
   18.13138962  128.40600586    0.09000000    0.07000000
   18.13444519  125.60099792    0.09000000    0.07000000
   18.13777733  131.02400208    0.09000000    0.07000000
   18.14083290  126.02700043    0.09000000    0.07000000
   18.14416695  132.72599792    0.09000000    0.07000000
   18.14722252  119.97899628    0.09000000    0.07000000
   18.15361023  119.97899628    0.09000000    0.07000000
   18.15777779  125.04399872    0.09000000    0.07000000
   18.15861130  122.99500275    0.09000000    0.07000000
   18.16138840  118.81300354    0.09000000    0.07000000
   18.16472244  119.16300201    0.09000000    0.07000000
   18.16777802  113.27400208    0.09000000    0.07000000
   18.17111015  126.65000153    0.09000000    0.07000000
   18.17444420  127.78299713    0.09000000    0.07000000
   18.17777634  127.57299805    0.09000000    0.07000000
   18.18083191  120.81199646    0.09000000    0.07000000
   18.18416595  123.03199768    0.09000000    0.07000000
   18.18750000  118.92299652    0.09000000    0.07000000
   18.19055557  125.00599670    0.09000000    0.07000000
   18.19194412  126.04699707    0.09000000    0.07000000
   18.19638824  126.04699707    0.09000000    0.07000000
   18.20055580  120.61100006    0.09000000    0.07000000
   18.20388985  121.11699677    0.09000000    0.07000000
   18.20694542  116.91200256    0.09000000    0.07000000
   18.21027946  123.66600037    0.09000000    0.07000000
   18.21333504  123.67500305    0.09000000    0.07000000
   18.21666718  123.26000214    0.09000000    0.07000000
   18.22000122  127.39600372    0.09000000    0.07000000
   18.22305679  123.82900238    0.09000000    0.07000000
   18.22527885  122.61399841    0.09000000    0.07000000
   18.22666740  126.34899902    0.09000000    0.07000000
   18.22972298  117.62500000    0.09000000    0.07000000
   18.23305511  119.53800201    0.09000000    0.07000000
   18.23916626  119.53800201    0.09000000    0.07000000
   18.24333382  119.60700226    0.09000000    0.07000000
   18.24666786  113.16400146    0.09000000    0.07000000
   18.24972153  108.79199982    0.09000000    0.07000000
   18.25305557  124.39900208    0.09000000    0.07000000
   18.25638962  110.08000183    0.09000000    0.07000000
   18.25861168  121.50199890    0.09000000    0.07000000
   18.26000023  117.46900177    0.09000000    0.07000000
   18.26333427  122.25099945    0.09000000    0.07000000
   18.26638794  122.64900208    0.09000000    0.07000000
   18.26972198  112.65000153    0.09000000    0.07000000
   18.27277756  118.06400299    0.09000000    0.07000000
   18.27611160  125.89600372    0.09000000    0.07000000
   18.28222275  125.89600372    0.09000000    0.07000000
   18.28610992  129.57600403    0.09000000    0.07000000
   18.28944397  114.76499939    0.09000000    0.07000000
   18.29194450  118.96600342    0.09000000    0.07000000
   18.29305458  124.86499786    0.09000000    0.07000000
   18.29638863  123.64900208    0.09000000    0.07000000
   18.29944420  120.45500183    0.09000000    0.07000000
   18.30277634  123.97399902    0.09000000    0.07000000
   18.30583191  122.09400177    0.09000000    0.07000000
   18.30916595  131.16799927    0.09000000    0.07000000
   18.31250000  125.38099670    0.09000000    0.07000000
   18.31555557  127.82099915    0.09000000    0.07000000
   18.31888962  122.46299744    0.09000000    0.07000000
   18.32500076  122.46299744    0.09000000    0.07000000
   18.34333420  124.80799866    0.09000000    0.07000000
   18.34666824  122.28700256    0.09000000    0.07000000
   18.34972191  126.74600220    0.09000000    0.07000000
   18.35305595  139.80799866    0.09000000    0.07000000
   18.35611153  126.99199677    0.09000000    0.07000000
   18.35944557  132.94099426    0.09000000    0.07000000
   18.36277771  123.65799713    0.09000000    0.07000000
   18.36805534  123.65799713    0.09000000    0.07000000
   18.37222290  133.89399719    0.09000000    0.07000000
   18.37527847  142.38200378    0.09000000    0.07000000
   18.37638855  138.45399475    0.09000000    0.07000000
   18.37916756  134.92399597    0.09000000    0.07000000
   18.38222313  134.07800293    0.09000000    0.07000000
   18.38555527  130.28500366    0.09000000    0.07000000
   18.38861084  127.74400330    0.09000000    0.07000000
   18.39194489  151.11099243    0.09000000    0.07000000
   18.39527702  134.79699707    0.09000000    0.07000000
   18.39833260  118.16600037    0.09000000    0.07000000
   18.40166664  133.51400757    0.09000000    0.07000000
   18.40472221  138.24899292    0.09000000    0.07000000
   18.41083336  138.24899292    0.09000000    0.07000000
   18.41499901  145.49899292    0.09000000    0.07000000
   18.41833305  128.71499634    0.09000000    0.07000000
   18.42138863  141.72599792    0.09000000    0.07000000
   18.42472076  136.67500305    0.09000000    0.07000000
   18.42777634  139.97399902    0.09000000    0.07000000
   18.43111038  133.57099915    0.09000000    0.07000000
   18.43444443  129.80099487    0.09000000    0.07000000
   18.43750000  136.94500732    0.09000000    0.07000000
   18.44083214  149.29699707    0.09000000    0.07000000
   18.44305420  146.49699402    0.09000000    0.07000000
   18.44444275  139.91000366    0.09000000    0.07000000
   18.44749832  145.52999878    0.09000000    0.07000000
   18.45361137  145.52999878    0.09000000    0.07000000
   18.45777893  122.22200012    0.09000000    0.07000000
   18.46111107  133.63000488    0.09000000    0.07000000
   18.46416664  126.83899689    0.09000000    0.07000000
   18.46750069  134.19099426    0.09000000    0.07000000
   18.47083473  123.13800049    0.09000000    0.07000000
   18.47389030  140.36700439    0.09000000    0.07000000
   18.47638893  153.77999878    0.09000000    0.07000000
   18.47777748  148.52900696    0.09000000    0.07000000
   18.48083305  136.01300049    0.09000000    0.07000000
   18.48416710  134.38600159    0.09000000    0.07000000
   18.48722267  125.14600372    0.09000000    0.07000000
   18.49055672  134.27600098    0.09000000    0.07000000
   18.49666786  134.27600098    0.09000000    0.07000000
   18.50055504  144.04899597    0.09000000    0.07000000
   18.50388908  147.53399658    0.09000000    0.07000000
   18.50722313  135.70899963    0.09000000    0.07000000
   18.50972176  144.66000366    0.09000000    0.07000000
   18.51083374  153.64300537    0.09000000    0.07000000
   18.51388931  148.66299438    0.09000000    0.07000000
   18.51722145  152.55400085    0.09000000    0.07000000
   18.52055550  149.44299316    0.09000000    0.07000000
   18.52361107  140.35000610    0.09000000    0.07000000
   18.52694511  148.88200378    0.09000000    0.07000000
   18.53000069  138.30599976    0.09000000    0.07000000
   18.53333282  157.69500732    0.09000000    0.07000000
   18.53944397  157.69500732    0.09000000    0.07000000
   18.54361153  130.70899963    0.09000000    0.07000000
   18.54666710  139.17999268    0.09000000    0.07000000
   18.54999924  156.75300598    0.09000000    0.07000000
   18.55333328  137.69299316    0.09000000    0.07000000
   18.55638885  141.80799866    0.09000000    0.07000000
   18.55972099  151.75399780    0.09000000    0.07000000
   18.56277657  149.91499329    0.09000000    0.07000000
   18.56611061  157.51400757    0.09000000    0.07000000
   18.56944466  140.66900635    0.09000000    0.07000000
   18.57250023  145.45100403    0.09000000    0.07000000
   18.57583427  129.23100281    0.09000000    0.07000000
   18.57638931  171.34100342    0.09000000    0.07000000
   18.58222389  171.34100342    0.09000000    0.07000000
   18.58638954  130.45199585    0.09000000    0.07000000
   18.58972359  148.98899841    0.09000000    0.07000000
   18.59277916  130.72099304    0.09000000    0.07000000
   18.59611130  133.70700073    0.09000000    0.07000000
   18.59916687  127.57099915    0.09000000    0.07000000
   18.60250092  137.28799438    0.09000000    0.07000000
   18.60583305  174.99299622    0.09000000    0.07000000
   18.60888863  136.97000122    0.09000000    0.07000000
   18.60972214  149.33999634    0.09000000    0.07000000
   18.61250114  173.87600708    0.09000000    0.07000000
   18.61555672  142.77299500    0.09000000    0.07000000
   18.61888885  134.88000488    0.09000000    0.07000000
   18.62500000  134.88000488    0.09000000    0.07000000
   18.62944412  120.02400208    0.09000000    0.07000000
   18.63277817  137.05400085    0.09000000    0.07000000
   18.63611031  122.81800079    0.09000000    0.07000000
   18.63916588  143.55999756    0.09000000    0.07000000
   18.64249992  135.23699951    0.09000000    0.07000000
   18.64305496  135.44299316    0.09000000    0.07000000
   18.64611053  134.07400513    0.09000000    0.07000000
   18.64916611  134.87300110    0.09000000    0.07000000
   18.65250015  152.34899902    0.09000000    0.07000000
   18.65583229  126.29900360    0.09000000    0.07000000
   18.65888786  131.20500183    0.09000000    0.07000000
   18.66222191  153.74400330    0.09000000    0.07000000
   18.66805458  153.74400330    0.09000000    0.07000000
   18.67194366  114.41699982    0.09000000    0.07000000
   18.67527771  130.53999329    0.09000000    0.07000000
   18.67638779  141.31199646    0.09000000    0.07000000
   18.67888832  128.58399963    0.09000000    0.07000000
   18.68194389  119.08300018    0.09000000    0.07000000
   18.68527603  143.65400696    0.09000000    0.07000000
   18.68861008  137.86799622    0.09000000    0.07000000
   18.69166565  121.09700012    0.09000000    0.07000000
   18.69499969  146.30799866    0.09000000    0.07000000
   18.69805527  122.51100159    0.09000000    0.07000000
   18.70138931  124.42900085    0.09000000    0.07000000
   18.70472336  120.01399994    0.09000000    0.07000000
   18.71083450  120.01399994    0.09000000    0.07000000
   18.71500015  119.77100372    0.09000000    0.07000000
   18.71805573  117.13899994    0.09000000    0.07000000
   18.72138977  139.46699524    0.09000000    0.07000000
   18.72472191  117.88999939    0.09000000    0.07000000
   18.72777748  123.61900330    0.09000000    0.07000000
   18.73111153  117.96900177    0.09000000    0.07000000
   18.73416710  119.41400146    0.09000000    0.07000000
   18.73750114  121.73799896    0.09000000    0.07000000
   18.74083328  120.88899994    0.09000000    0.07000000
   18.74305534  121.90599823    0.09000000    0.07000000
   18.74444389  130.30900574    0.09000000    0.07000000
   18.74749947  114.59100342    0.09000000    0.07000000
   18.75361061  114.59100342    0.09000000    0.07000000
   18.75777817  119.96700287    0.09000000    0.07000000
   18.76111031  125.07399750    0.09000000    0.07000000
   18.76416588  134.08200073    0.09000000    0.07000000
   18.76749992  119.22899628    0.09000000    0.07000000
   18.77055550  120.62500000    0.09000000    0.07000000
   18.77388954  129.26199341    0.09000000    0.07000000
   18.77638817  118.58999634    0.09000000    0.07000000
   18.77750015  117.18399811    0.09000000    0.07000000
   18.78055573  124.82199860    0.09000000    0.07000000
   18.78388786  118.80599976    0.09000000    0.07000000
   18.78722191  128.43400574    0.09000000    0.07000000
   18.79027748  125.40499878    0.09000000    0.07000000
   18.79638863  125.40499878    0.09000000    0.07000000
   18.80055428  132.01499939    0.09000000    0.07000000
   18.80388832  123.88600159    0.09000000    0.07000000
   18.80694389  131.90600586    0.09000000    0.07000000
   18.80972099  119.86900330    0.09000000    0.07000000
   18.81083298  126.24099731    0.09000000    0.07000000
   18.81388855  135.00700378    0.09000000    0.07000000
   18.81722260  129.65499878    0.09000000    0.07000000
   18.82055664  122.05899811    0.09000000    0.07000000
   18.82361221  133.09899902    0.09000000    0.07000000
   18.82694626  120.05200195    0.09000000    0.07000000
   18.83000183  125.50900269    0.09000000    0.07000000
   18.83333397  159.60000610    0.09000000    0.07000000
   18.83944511  159.60000610    0.09000000    0.07000000
   18.84361267  157.76100159    0.09000000    0.07000000
   18.84666824  125.99199677    0.09000000    0.07000000
   18.85000038  138.08900452    0.09000000    0.07000000
   18.85305595  131.33599854    0.09000000    0.07000000
   18.85639000  150.00599670    0.09000000    0.07000000
   18.85972214  140.01899719    0.09000000    0.07000000
   18.86277771  135.91900635    0.09000000    0.07000000
   18.86611176  141.66099548    0.09000000    0.07000000
   18.86916733  144.05599976    0.09000000    0.07000000
   18.87249947  123.63200378    0.09000000    0.07000000
   18.87583351  148.70100403    0.09000000    0.07000000
   18.87638855  125.10099792    0.09000000    0.07000000
   18.88222313  125.10099792    0.09000000    0.07000000
   18.88638878  147.59199524    0.09000000    0.07000000
   18.88944435  156.21800232    0.09000000    0.07000000
   18.89277840  153.64700317    0.09000000    0.07000000
   18.89611053  137.95799255    0.09000000    0.07000000
   18.89916611  130.60499573    0.09000000    0.07000000
   18.90250015  130.04899597    0.09000000    0.07000000
   18.90555573  136.56799316    0.09000000    0.07000000
   18.90888786  130.54800415    0.09000000    0.07000000
   18.90972137  152.66000366    0.09000000    0.07000000
   18.91250038  130.70700073    0.09000000    0.07000000
   18.91555595  134.18899536    0.09000000    0.07000000
   18.91888809  132.56199646    0.09000000    0.07000000
   18.92499924  132.56199646    0.09000000    0.07000000
   18.92916679  129.86199951    0.09000000    0.07000000
   18.93249893  127.30699921    0.09000000    0.07000000
   18.93555450  131.09100342    0.09000000    0.07000000
   18.93888855  128.26899719    0.09000000    0.07000000
   18.94222069  124.82800293    0.09000000    0.07000000
   18.94305420  138.38400269    0.09000000    0.07000000
   18.94583321  125.52700043    0.09000000    0.07000000
   18.94888878  134.27999878    0.09000000    0.07000000
   18.95222282  136.02999878    0.09000000    0.07000000
   18.95555687  131.69700623    0.09000000    0.07000000
   18.95861244  132.51499939    0.09000000    0.07000000
   18.96194458  134.67999268    0.09000000    0.07000000
   18.96805573  134.67999268    0.09000000    0.07000000
   18.97194481  150.25599670    0.09000000    0.07000000
   18.97527885  131.71899414    0.09000000    0.07000000
   18.97638893  130.00300598    0.09000000    0.07000000
   18.97888947  133.36900330    0.09000000    0.07000000
   18.98194504  134.27099609    0.09000000    0.07000000
   18.98527718  137.39199829    0.09000000    0.07000000
   18.98861122  128.88400269    0.09000000    0.07000000
   18.99166679  126.35500336    0.09000000    0.07000000
   18.99500084  129.67100525    0.09000000    0.07000000
   18.99805641  131.11799622    0.09000000    0.07000000
   19.00138855  133.56399536    0.09000000    0.07000000
   19.00472260  131.85899353    0.09000000    0.07000000
   19.01083374  131.85899353    0.09000000    0.07000000
   19.01499939  135.41700745    0.09000000    0.07000000
   19.01805496  125.36100006    0.09000000    0.07000000
   19.02138901  131.74099731    0.09000000    0.07000000
   19.02472115  137.71800232    0.09000000    0.07000000
   19.02777672  128.38600159    0.09000000    0.07000000
   19.03111076  125.61799622    0.09000000    0.07000000
   19.03416634  119.78299713    0.09000000    0.07000000
   19.03750038  126.75599670    0.09000000    0.07000000
   19.04083252  118.71299744    0.09000000    0.07000000
   19.04305458  123.21099854    0.09000000    0.07000000
   19.04444313  140.41099548    0.09000000    0.07000000
   19.04749870  128.58900452    0.09000000    0.07000000
   19.05360985  128.58900452    0.09000000    0.07000000
   19.05777740  122.12999725    0.09000000    0.07000000
   19.06110954  118.94599915    0.09000000    0.07000000
   19.06416512  127.84999847    0.09000000    0.07000000
   19.06750107  124.19899750    0.09000000    0.07000000
   19.07055664  112.05899811    0.09000000    0.07000000
   19.07389069  128.77499390    0.09000000    0.07000000
   19.07638931  114.73400116    0.09000000    0.07000000
   19.07750130  127.05899811    0.09000000    0.07000000
   19.08055687  123.81999969    0.09000000    0.07000000
   19.08388901  120.51899719    0.09000000    0.07000000
   19.08722305  131.85099792    0.09000000    0.07000000
   19.09027863  118.89800262    0.09000000    0.07000000
   19.09638977  118.89800262    0.09000000    0.07000000
   19.10055542  127.02100372    0.09000000    0.07000000
   19.10388947  113.81999969    0.09000000    0.07000000
   19.10694504  123.44799805    0.09000000    0.07000000
   19.10972214  119.13999939    0.09000000    0.07000000
   19.11083412  114.02899933    0.09000000    0.07000000
   19.11388969  124.98600006    0.09000000    0.07000000
   19.11722183  120.15399933    0.09000000    0.07000000
   19.12055588  117.87899780    0.09000000    0.07000000
   19.12361145  117.60199738    0.09000000    0.07000000
   19.12694550  121.90399933    0.09000000    0.07000000
   19.13000107  138.15299988    0.09000000    0.07000000
   19.13333321  142.86000061    0.09000000    0.07000000
   19.13944435  142.86000061    0.09000000    0.07000000
   19.14333344  124.79699707    0.09000000    0.07000000
   19.14666748  106.32900238    0.09000000    0.07000000
   19.14999962  114.92700195    0.09000000    0.07000000
   19.15305519  124.34899902    0.09000000    0.07000000
   19.15638924  128.27499390    0.09000000    0.07000000
   19.15944481  125.18599701    0.09000000    0.07000000
   19.16277695  120.81500244    0.09000000    0.07000000
   19.16611099  126.33100128    0.09000000    0.07000000
   19.16916656  118.93000031    0.09000000    0.07000000
   19.17249870  117.11199951    0.09000000    0.07000000
   19.17555428  120.09400177    0.09000000    0.07000000
   19.17638779  112.52400208    0.09000000    0.07000000
   19.18222237  112.52400208    0.09000000    0.07000000
   19.18638802  114.32199860    0.09000000    0.07000000
   19.18944359  119.46499634    0.09000000    0.07000000
   19.19277763  119.13200378    0.09000000    0.07000000
   19.19610977  119.09200287    0.09000000    0.07000000
   19.19916534  122.71099854    0.09000000    0.07000000
   19.20250130  120.01399994    0.09000000    0.07000000
   19.20555687  131.02999878    0.09000000    0.07000000
   19.20888901  127.17800140    0.09000000    0.07000000
   19.20972252  117.01899719    0.09000000    0.07000000
   19.21250153  117.98000336    0.09000000    0.07000000
   19.21583366  125.92199707    0.09000000    0.07000000
   19.21888924  126.34700012    0.09000000    0.07000000
   19.22500038  126.34700012    0.09000000    0.07000000
   19.22916794  114.69899750    0.09000000    0.07000000
   19.23250008  114.24900055    0.09000000    0.07000000
   19.23555565  120.83200073    0.09000000    0.07000000
   19.23888969  124.69699860    0.09000000    0.07000000
   19.24194527  111.28500366    0.09000000    0.07000000
   19.24305534  114.88899994    0.09000000    0.07000000
   19.24583435  114.77400208    0.09000000    0.07000000
   19.24916649  123.19999695    0.09000000    0.07000000
   19.25222206  112.40100098    0.09000000    0.07000000
   19.25555611  118.54699707    0.09000000    0.07000000
   19.25861168  121.01000214    0.09000000    0.07000000
   19.26194382  122.67500305    0.09000000    0.07000000
   19.26777840  122.67500305    0.09000000    0.07000000
   19.27194405  123.19699860    0.09000000    0.07000000
   19.27527809  133.70899963    0.09000000    0.07000000
   19.27638817  122.72399902    0.09000000    0.07000000
   19.27888870  120.89900208    0.09000000    0.07000000
   19.28222275  121.27799988    0.09000000    0.07000000
   19.28527641  120.37400055    0.09000000    0.07000000
   19.28861046  127.46299744    0.09000000    0.07000000
   19.29166603  125.98400116    0.09000000    0.07000000
   19.29500008  124.64099884    0.09000000    0.07000000
   19.29833221  121.71499634    0.09000000    0.07000000
   19.30138779  123.29799652    0.09000000    0.07000000
   19.30472183  110.97699738    0.09000000    0.07000000
   19.31083298  110.97699738    0.09000000    0.07000000
   19.31472206  128.32699585    0.09000000    0.07000000
   19.31805611  121.96199799    0.09000000    0.07000000
   19.32139015  119.43199921    0.09000000    0.07000000
   19.32444572  116.51899719    0.09000000    0.07000000
   19.32777786  116.24099731    0.09000000    0.07000000
   19.33083344  124.74800110    0.09000000    0.07000000
   19.33416748  119.84600067    0.09000000    0.07000000
   19.33750153  124.98500061    0.09000000    0.07000000
   19.34055710  111.53700256    0.09000000    0.07000000
   19.34305573  122.62500000    0.09000000    0.07000000
   19.36388969  122.62500000    0.09000000    0.07000000
   19.36805534  122.31999969    0.09000000    0.07000000
   19.37111092  116.30200195    0.09000000    0.07000000
   19.37444496  122.22899628    0.09000000    0.07000000
   19.37638855  117.75299835    0.09000000    0.07000000
   19.37805557  122.66699982    0.09000000    0.07000000
   19.38138962  121.56099701    0.09000000    0.07000000
   19.38472176  120.51699829    0.09000000    0.07000000
   19.39638901   -1.00000000   -1.00000000   -1.00000000
   19.40250015   -1.00000000   -1.00000000   -1.00000000
