    HOUR (UT)   FLARE FACTOR    SKY TESTER    SUN TESTER
   12.12388897   -1.00000000   -1.00000000   -1.00000000
   12.14333344  102.39900208    4.90999985    1.58000004
   12.14777756  100.34600067    4.90999985    1.61000001
   12.15194416  132.94599915    4.90999985    1.63000000
   12.15527725  108.58399963    4.90999985    1.61000001
   12.15861034  109.81999969    4.90999985    1.63000000
   12.16166592   89.78589630    4.90999985    1.61000001
   12.16499996  118.93499756    4.90999985    1.63000000
   12.16805553   98.56410217    4.90999985    1.63000000
   12.17138958  108.40899658    4.90999985    1.64999998
   12.17472267  111.42099762    4.90999985    1.63000000
   12.17666721  111.00700378    4.90999985    1.63000000
   12.17805576  106.46199799    4.90999985    1.61000001
   12.18138885  107.76999664    4.90999985    1.63000000
   12.18472195  101.66200256    4.90999985    1.61000001
   12.18777752  117.50599670    4.90999985    1.61000001
   12.19111156  102.41200256    4.90999985    1.61000001
   12.19444466  104.65299988    4.90999985    1.60000002
   12.19750023  116.59999847    4.90999985    1.58000004
   12.20083332  103.76000214    4.90999985    1.60000002
   12.20388889  109.14099884    4.90999985    1.60000002
   12.20722198   80.87180328    4.90999985    1.60000002
   12.21000004   99.37809753    4.90999985    1.61000001
   12.21083355  114.01799774    4.90999985    1.61000001
   12.21416664   95.41519928    4.90999985    1.61000001
   12.21749973  105.79199982    4.90999985    1.60000002
   12.22055531  111.04199982    4.90999985    1.63000000
   12.22388840  132.55099487    4.90999985    1.64999998
   12.22694397  117.64800262    4.90999985    1.66999996
   12.23027706  106.00000000    4.90999985    1.66999996
   12.23361111  125.09899902    4.90999985    1.69000006
   12.23666668  109.97399902    4.90999985    1.69000006
   12.24000072  132.56100464    4.90999985    1.66999996
   12.24333382  118.10700226    4.90999985    1.64999998
   12.24361134  101.76300049    4.90999985    1.64999998
   12.24722290   91.05490112    4.90999985    1.63000000
   12.25055599  104.79000092    4.90999985    1.64999998
   12.25361156  157.64700317    4.90999985    1.69000006
   12.25694466  222.86700439    4.90999985    1.71000004
   12.26027775  119.35399628    4.90999985    1.73000002
   12.26333332  158.00399780    4.90999985    1.71000004
   12.26666641  196.22099304    4.90999985    1.73000002
   12.26972198   91.24050140    4.90999985    1.69000006
   12.27305508  103.63899994    4.90999985    1.64999998
   12.27638817   99.71540070    4.90999985    1.61000001
   12.27694416   97.87490082    4.90999985    1.61000001
   12.27999973  131.21400452    4.90999985    1.63000000
   12.28333378  105.93000031    4.90999985    1.64999998
   12.28666687  105.15399933    4.90999985    1.69000006
   12.28972244  115.22200012    4.90999985    1.69000006
   12.29305553  111.07399750    4.90999985    1.66999996
   12.29611111  106.70500183    4.90999985    1.64999998
   12.29944515   89.03440094    4.90999985    1.63000000
   12.30277824   76.34940338    4.90999985    1.63000000
   12.30583382   79.18090057    4.90999985    1.63000000
   12.30916691   98.14469910    4.90999985    1.61000001
   12.31027794   90.40899658    4.90999985    1.61000001
   12.31277752   92.51830292    4.90999985    1.60000002
   12.31611156   93.56980133    4.90999985    1.58000004
   12.31944466   83.79830170    4.90999985    1.53999996
   12.32250023  111.53700256    4.90999985    1.58000004
   12.32583332   97.45860291    4.90999985    1.60000002
   12.32888889   99.79329681    4.90999985    1.60000002
   12.33222198   98.20899963    4.90999985    1.60000002
   12.33555508   97.41950226    4.90999985    1.61000001
   12.33861065  112.54000092    4.90999985    1.61000001
   12.34194374  100.46499634    4.90999985    1.63000000
   12.34361076  120.66600037    4.90999985    1.64999998
   12.34555531   94.19950104    4.90999985    1.66999996
   12.34888840  126.82900238    4.90999985    1.71000004
   12.35222244  115.80500031    4.90999985    1.71000004
   12.35527802  130.32699585    4.90999985    1.73000002
   12.35861111  220.51499939    4.90999985    1.75000000
   12.36166668  171.85000610    4.90999985    1.76999998
   12.36500072  133.86099243    4.90999985    1.76999998
   12.36833382  172.65699768    4.90999985    1.76999998
   12.37138939  152.00799561    4.90999985    1.78999996
   12.37472248  182.84300232    4.90999985    1.76999998
   12.37694454  201.46699524    4.90999985    1.78999996
   12.37833309  182.50399780    4.90999985    1.78999996
   12.38166714  139.22399902    4.90999985    1.78999996
   12.38500023  157.89599609    4.90999985    1.78999996
   12.38805580  180.77600098    4.90999985    1.76999998
   12.39138889  159.71899414    4.90999985    1.78999996
   12.39444447  130.92599487    4.90999985    1.78999996
   12.39777756  123.84500122    4.90999985    1.78999996
   12.40111065  133.24899292    4.90999985    1.76999998
   12.40416622  112.25199890    4.90999985    1.76999998
   12.40749931  137.07200623    4.90999985    1.78999996
   12.41027737  187.80900574    4.90999985    1.78999996
   12.41111088  160.66999817    4.90999985    1.78999996
   12.41444397  133.05400085    4.90999985    1.80999994
   12.41777802  113.30699921    4.90999985    1.80999994
   12.42083359  116.93299866    4.90999985    1.78999996
   12.42416668  120.61299896    4.90999985    1.76999998
   12.42722225   92.97899628    4.90999985    1.76999998
   12.43055630  117.40000153    4.90999985    1.75000000
   12.43388939  125.69599915    4.90999985    1.76999998
   12.43694496  116.56999969    4.90999985    1.80999994
   12.44027805   97.69069672    4.90999985    1.78999996
   12.44361115  125.46399689    4.90999985    1.75000000
   12.44388866  105.57700348    4.90999985    1.75000000
   12.44722271  110.18599701    4.90999985    1.76999998
   12.45055580  109.00599670    4.90999985    1.76999998
   12.45361137  131.32299805    4.90999985    1.76999998
   12.45694447  229.81300354    4.90999985    1.78999996
   12.46000004  345.24899292    4.90999985    1.85000002
   12.46333313  199.14100647    4.90999985    1.86000001
   12.46666622  165.90499878    4.90999985    1.85000002
   12.46972179  139.47000122    4.90999985    1.83000004
   12.47305489  135.84800720    4.90999985    1.80999994
   12.47638798  155.66099548    4.90999985    1.80999994
   12.47694397  182.19099426    4.90999985    1.83000004
   12.47972202  229.56900024    4.90999985    1.83000004
   12.48305511  141.45700073    4.90999985    1.83000004
   12.48638916  205.88299561    4.90999985    1.80999994
   12.48944473  243.59800720    4.90999985    1.83000004
   12.49277782  240.30299377    4.90999985    1.85000002
   12.49583340  152.70300293    4.90999985    1.85000002
   12.49916649  125.67099762    4.90999985    1.76999998
   12.50249958  103.61900330    4.90999985    1.76999998
   12.50555515  127.45300293    4.90999985    1.75000000
   12.50888920  157.73800659    4.90999985    1.76999998
   12.51027775  197.06199646    4.90999985    1.78999996
   12.51249981  208.47700500    4.90999985    1.78999996
   12.51583290  234.32600403    4.90999985    1.80999994
   12.51916599  176.63000488    4.90999985    1.83000004
   12.52222157  141.26199341    4.90999985    1.80999994
   12.52555561  132.65400696    4.90999985    1.83000004
   12.52888870  209.43299866    4.90999985    1.85000002
   12.53194427  136.09599304    4.90999985    1.85000002
   12.53527832  144.07000732    4.90999985    1.85000002
   12.53833389  164.01300049    4.90999985    1.86000001
   12.54166698  165.24099731    4.90999985    1.86000001
   12.54361153  197.14300537    4.90999985    1.86000001
   12.54527855  181.96800232    4.90999985    1.88000000
   12.54861164  286.63299561    4.90999985    1.89999998
   12.55194473  325.84201050    4.90999985    1.91999996
   12.55500031  325.84298706    4.90999985    1.94000006
   12.55833340  385.69799805    4.90999985    1.94000006
   12.56166649  417.18399048    4.90999985    1.96000004
   12.56361103  419.00500488    4.90999985    1.96000004
   12.56500053  438.98400879    4.90999985    1.98000002
   12.56638908  398.07901001    4.90999985    1.98000002
   12.56777763  412.30801392    4.90999985    1.98000002
   12.56916618  437.40499878    4.90999985    2.00000000
   12.57055569  402.79501343    4.90999985    2.00000000
   12.57194424  399.73199463    4.90999985    2.01999998
   12.57333374  379.49798584    4.90999985    2.03999996
   12.57472229  414.26000977    4.90999985    2.01999998
   12.57611084  390.61199951    4.90999985    2.01999998
   12.57750034  401.57800293    4.90999985    2.01999998
   12.57888889  423.81201172    4.90999985    2.01999998
   12.58027744  424.17199707    4.90999985    2.01999998
   12.58166695  416.09600830    4.90999985    2.01999998
   12.58305550  419.14599609    4.90999985    2.01999998
   12.58444405  401.33999634    4.90999985    2.03999996
   12.58583260  402.36898804    4.90999985    2.05999994
   12.58722210  402.01998901    4.90999985    2.03999996
   12.58861065  394.85800171    4.90999985    2.05999994
   12.59000015  348.11801147    4.90999985    2.05999994
   12.59000015  417.18399048    4.90999985    1.96000004
   12.59000015  144.07000732    4.90999985    1.85000002
   12.59027767  164.01300049    4.90999985    1.86000001
   12.59027767  165.24099731    4.90999985    1.86000001
   12.59027767  181.96800232    4.90999985    1.88000000
   12.59055519  286.63299561    4.90999985    1.89999998
   12.59055519  325.84201050    4.90999985    1.91999996
   12.59055519  325.84298706    4.90999985    1.94000006
   12.59083271  385.69799805    4.90999985    1.94000006
   12.59138870  314.09201050    4.90999985    2.07999992
   12.59444427  337.42098999    4.90999985    2.09999990
   12.59777737  383.96499634    4.90999985    2.07999992
   12.60111141  352.17498779    4.90999985    2.03999996
   12.60416698  307.05599976    4.90999985    2.05999994
   12.61083412  307.05599976    4.90999985    2.05999994
   12.61472225  292.74899292    4.90999985    2.05999994
   12.61805534  326.61898804    4.90999985    2.03999996
   12.62138939  315.16400146    4.90999985    2.00000000
   12.62388897  290.43499756    4.84999990    1.94000006
   12.62500000  325.72601318    4.80000019    1.94000006
   12.62833309  349.31100464    4.65999985    1.88000000
   12.63138866  335.85000610    4.48999977    1.85000002
   12.63472176  343.01098633    4.30999994    1.76999998
   12.63805580  312.44198608    4.09999990    1.66999996
   12.64111137  276.33898926    3.97000003    1.60000002
   12.64444447  262.77700806    3.82999992    1.50000000
   12.64777756  263.38000488    3.72000003    1.38000000
   12.65361118  263.38000488    3.45000005    1.14999998
   12.65777779  265.57400513    3.26999998    1.00000000
   12.66083336  264.80300903    3.18000007    0.89999998
   12.66416645  264.08200073    3.07999992    0.79000002
   12.66750050  248.56500244    2.96000004    0.69000000
   12.67055607  275.08401489    2.89000010    0.63000000
   12.67388916  258.97000122    2.80999994    0.56999999
   12.67694473  260.02200317    2.73000002    0.52999997
   12.68027782  266.49301147    2.67000008    0.51999998
   12.68361092  234.23300171    2.59999990    0.51999998
   12.68666649  273.30599976    2.55999994    0.51999998
   12.69000053  282.42898560    2.50000000    0.52999997
   12.69055557  299.61801147    2.50000000    0.52999997
   12.69638920  299.61801147    2.39000010    0.56999999
   12.70055580  299.11599731    2.34999990    0.58999997
   12.70388889  293.19699097    2.30999994    0.61000001
   12.70694447  273.21200562    2.26999998    0.61000001
   12.71027756  275.10998535    2.23000002    0.61000001
   12.71333313  284.58599854    2.21000004    0.63000000
   12.71666622  288.09799194    2.17000008    0.63000000
   12.71999931  283.88000488    2.15000010    0.63000000
   12.72305489  265.14999390    2.13000011    0.63000000
   12.72388840  278.47500610    2.13000011    0.64999998
   12.72694397  245.66000366    2.13000011    0.64999998
   12.72999954  271.70498657    2.11999989    0.64999998
   12.73333359  275.41500854    2.09999990    0.64999998
   12.73916721  275.41500854    2.03999996    0.63000000
   12.74333382  270.30999756    1.98000002    0.63000000
   12.74666691  273.77999878    1.96000004    0.63000000
   12.74972248  250.13699341    1.94000006    0.63000000
   12.75305557  246.07600403    1.91999996    0.63000000
   12.75638866  261.61401367    1.89999998    0.63000000
   12.75722218  244.04800415    1.91999996    0.63000000
   12.76000023  300.98498535    1.89999998    0.61000001
   12.76305580  294.39099121    1.88000000    0.61000001
   12.76638889  289.44900513    1.86000001    0.61000001
   12.76944447  271.49398804    1.86000001    0.61000001
   12.77277756  258.32000732    1.86000001    0.61000001
   12.77611065  257.76300049    1.85000002    0.61000001
   12.78222179  257.76300049    1.83000004    0.61000001
   12.78611183  287.09500122    1.78999996    0.58999997
   12.78944492  309.80398560    1.75000000    0.58999997
   12.79055595  320.87298584    1.73000002    0.58999997
   12.79305553  280.97601318    1.71000004    0.58999997
   12.79638958  279.23699951    1.66999996    0.58999997
   12.79972267  279.23098755    1.66999996    0.58999997
   12.80277824  303.96200562    1.63000000    0.58999997
   12.80611134  336.02200317    1.61000001    0.56999999
   12.80944443  289.49899292    1.60000002    0.56999999
   12.81250000  255.99000549    1.60000002    0.56999999
   12.81583309  250.89100647    1.58000004    0.56999999
   12.81888866  300.59899902    1.55999994    0.56999999
   12.82499981  300.59899902    1.51999998    0.55000001
   12.82916641  289.03601074    1.50000000    0.55000001
   12.83222198  275.52899170    1.50000000    0.55000001
   12.83555508  251.88699341    1.48000002    0.55000001
   12.83861065  262.65399170    1.46000004    0.52999997
   12.84194374  274.58200073    1.46000004    0.51999998
   12.84527779  325.47198486    1.46000004    0.50000000
   12.84833336  298.81298828    1.44000006    0.50000000
   12.85166740  293.89199829    1.44000006    0.50000000
   12.85500050  292.06500244    1.44000006    0.50000000
   12.85722256  293.92700195    1.44000006    0.50000000
   12.85833359  299.33401489    1.41999996    0.50000000
   12.86166668  264.42599487    1.41999996    0.47999999
   12.86777782  264.42599487    1.39999998    0.47999999
   12.87194443  309.81399536    1.39999998    0.46000001
   12.87500000  308.68600464    1.38000000    0.46000001
   12.87833309  310.92599487    1.36000001    0.46000001
   12.88166714  304.61898804    1.36000001    0.44000000
   12.88472176  353.96798706    1.36000001    0.44000000
   12.88805580  379.35198975    1.36000001    0.41999999
   12.89055538  423.66699219    1.36000001    0.41999999
   12.89166641  410.74200439    1.36000001    0.40000001
   12.89388847  396.58700562    1.36000001    0.40000001
   12.89499950  433.70401001    1.36000001    0.40000001
   12.89638901  411.11599731    1.36000001    0.40000001
   12.89777756  408.49301147    1.34000003    0.40000001
   12.89916611  376.04199219    1.34000003    0.40000001
   12.90055561  358.70098877    1.34000003    0.40000001
   12.90194416  324.04598999    1.34000003    0.40000001
   12.90222168  308.68600464    1.38000000    0.46000001
   12.90222168  310.92599487    1.36000001    0.46000001
   12.90249920  304.61898804    1.36000001    0.44000000
   12.90249920  353.96798706    1.36000001    0.44000000
   12.90249920  379.35198975    1.36000001    0.41999999
   12.90277767  410.74200439    1.36000001    0.40000001
   12.90277767  299.33401489    1.41999996    0.50000000
   12.90277767  264.42599487    1.41999996    0.47999999
   12.90305519  309.81399536    1.39999998    0.46000001
   12.90361118  347.06600952    1.34000003    0.40000001
   12.90666676  308.07101440    1.34000003    0.40000001
   12.90999985  322.43200684    1.33000004    0.40000001
   12.91305542  306.15798950    1.33000004    0.40000001
   12.91638851  298.84600830    1.30999994    0.40000001
   12.92277813  298.84600830    1.28999996    0.38000000
   12.92694473  324.93701172    1.28999996    0.38000000
   12.93027782  308.17498779    1.26999998    0.40000001
   12.93333340  333.82901001    1.26999998    0.40000001
   12.93583298  319.09201050    1.25000000    0.40000001
   12.93722248  355.65899658    1.25000000    0.40000001
   12.94055557  310.05300903    1.23000002    0.38000000
   12.94361115  326.87600708    1.23000002    0.38000000
   12.94694424  305.67001343    1.21000004    0.38000000
   12.95027733  331.40701294    1.21000004    0.38000000
   12.95333290  334.54800415    1.21000004    0.38000000
   12.95666695  281.49600220    1.21000004    0.38000000
   12.95972157  290.73599243    1.19000006    0.40000001
   12.96583271  290.73599243    1.16999996    0.38000000
   12.96999931  317.70999146    1.14999998    0.38000000
   12.97305489  375.01998901    1.13000000    0.36000001
   12.97638798  328.86099243    1.13000000    0.38000000
   12.97944355  352.70901489    1.13000000    0.36000001
   12.98277760  345.39999390    1.11000001    0.36000001
   12.98611164  342.88800049    1.11000001    0.36000001
   12.98916721  342.71600342    1.09000003    0.36000001
   12.99250031  300.89999390    1.09000003    0.36000001
   12.99555588  289.00000000    1.09000003    0.36000001
   12.99888897  288.61700439    1.07000005    0.36000001
   13.00222206  284.92800903    1.07000005    0.36000001
   13.00277805  301.91598511    1.07000005    0.36000001
   13.00861073  301.91598511    1.03999996    0.36000001
   13.01277733  306.61199951    1.03999996    0.34000000
   13.01583290  312.32998657    1.01999998    0.34000000
   13.01916599  319.82000732    1.01999998    0.34000000
   13.02250004  303.30700684    1.00000000    0.34000000
   13.02555561  239.90100098    0.98000002    0.34000000
   13.02888870  272.10400391    0.98000002    0.34000000
   13.03222179  263.36401367    0.98000002    0.34000000
   13.03527832  257.76300049    0.95999998    0.34000000
   13.03611183  274.07598877    0.95999998    0.34000000
   13.03888893  261.39700317    0.95999998    0.34000000
   13.04222298  274.12799072    0.94000000    0.31999999
   13.04555607  311.14999390    0.94000000    0.31999999
   13.05138874  311.14999390    0.92000002    0.31999999
   13.05555534  307.33599854    0.89999998    0.30000001
   13.05888939  268.24700928    0.89999998    0.31999999
   13.06194496  317.56600952    0.89999998    0.30000001
   13.06527805  290.27600098    0.89999998    0.30000001
   13.06833363  270.20700073    0.89999998    0.30000001
   13.06944466  259.85000610    0.89999998    0.30000001
   13.07194424  254.09399414    0.89999998    0.31999999
   13.07527733  255.74800110    0.89999998    0.31999999
   13.07861137  299.98199463    0.89999998    0.30000001
   13.08166695  304.78399658    0.88000000    0.28000000
   13.08500004  334.37399292    0.88000000    0.28000000
   13.08805561  365.04800415    0.88000000    0.28000000
   13.09416676  365.04800415    0.88000000    0.25999999
   13.09833336  286.78399658    0.88000000    0.28000000
   13.10166740  278.51098633    0.88000000    0.25999999
   13.10277843  303.17999268    0.88000000    0.28000000
   13.10527802  299.38699341    0.88000000    0.28000000
   13.10861111  339.91598511    0.88000000    0.25999999
   13.11194515  293.70599365    0.89999998    0.25999999
   13.11500072  349.69500732    0.89999998    0.25999999
   13.11833382  345.15499878    0.89999998    0.25000000
   13.12138939  328.08200073    0.89999998    0.25000000
   13.12472248  356.98300171    0.89999998    0.25000000
   13.12805557  303.75100708    0.89999998    0.25000000
   13.13111115  324.96301270    0.89999998    0.25000000
   13.13722229  324.96301270    0.89999998    0.25000000
   13.14111137  243.37199402    0.89999998    0.25000000
   13.16083336  268.66299438    0.89999998    0.23000000
   13.16416645  245.11599731    0.89999998    0.23000000
   13.16722298  253.20199585    0.88000000    0.23000000
   13.16972256  236.64599609    0.88000000    0.23000000
   13.17083359  256.60900879    0.88000000    0.23000000
   13.17416668  316.33898926    0.88000000    0.20999999
   13.18027782  316.33898926    0.86000001    0.20999999
   13.18444443  253.19999695    0.86000001    0.20999999
   13.18750000  267.05499268    0.86000001    0.20999999
   13.19083309  249.34800720    0.86000001    0.19000000
   13.19388866  250.85899353    0.86000001    0.19000000
   13.19722271  232.64999390    0.86000001    0.19000000
   13.20055580  238.17500305    0.83999997    0.19000000
   13.20305538  250.59899902    0.83999997    0.19000000
   13.20416641  242.47500610    0.83999997    0.19000000
   13.20749950  226.94400024    0.83999997    0.19000000
   13.21083355  229.40499878    0.83999997    0.19000000
   13.21388912  229.18400574    0.81999999    0.19000000
   13.21722221  262.37701416    0.81999999    0.17000000
   13.22305489  262.37701416    0.83999997    0.17000000
   13.22722149  214.29899597    0.83999997    0.17000000
   13.23027706  225.14399719    0.83999997    0.17000000
   13.23361111  224.22999573    0.81999999    0.17000000
   13.23638916  222.75700378    0.81999999    0.15000001
   13.23722267  247.10899353    0.83999997    0.15000001
   13.24055576  216.31500244    0.81999999    0.15000001
   13.24388885  212.79200745    0.81999999    0.15000001
   13.24694443  213.38200378    0.81999999    0.17000000
   13.25027752  214.60299683    0.83999997    0.15000001
   13.25361156  219.99800110    0.81999999    0.15000001
   13.25666714  209.16600037    0.83999997    0.15000001
   13.26000023  195.30099487    0.81999999    0.13000000
   13.26583290  195.30099487    0.83999997    0.13000000
   13.26999950  203.39599609    0.81999999    0.13000000
   13.27333355  202.65800476    0.81999999    0.13000000
   13.27638817  204.62500000    0.81999999    0.13000000
   13.27972221  208.83599854    0.81999999    0.13000000
   13.28305531  216.46200562    0.81999999    0.13000000
   13.28611183  198.13800049    0.81999999    0.13000000
   13.28944492  205.55999756    0.83999997    0.11000000
   13.29250050  209.76600647    0.83999997    0.11000000
   13.29583359  218.90199280    0.83999997    0.09000000
   13.29916668  218.50000000    0.81999999    0.09000000
   13.30222225  211.26400757    0.81999999    0.09000000
   13.30305576  223.21499634    0.81999999    0.09000000
   13.30861092  223.21499634    0.81999999    0.09000000
   13.31277752  216.43899536    0.81999999    0.07000000
   13.31611156  222.47399902    0.81999999    0.07000000
   13.31944466  211.03100586    0.81999999    0.07000000
   13.32250023  221.51400757    0.81999999    0.07000000
   13.32583332  209.32499695    0.81999999    0.07000000
   13.32916641  216.44099426    0.81999999    0.07000000
   13.33222198  198.71800232    0.80000001    0.07000000
   13.33555508  217.95799255    0.80000001    0.07000000
   13.33638859  215.45100403    0.80000001    0.07000000
   13.33916664  212.22799683    0.80000001    0.05000000
   13.34249973  197.90100098    0.80000001    0.07000000
   13.34583282  189.54499817    0.79000002    0.05000000
   13.35166740  189.54499817    0.79000002    0.05000000
   13.35555553  208.15499878    0.79000002    0.05000000
   13.35888958  187.90299988    0.79000002    0.05000000
   13.36222267  209.30700684    0.79000002    0.05000000
   13.36527824  203.86099243    0.79000002    0.05000000
   13.47638798   -1.00000000   -1.00000000   -1.00000000
   13.57277775   -1.00000000   -1.00000000   -1.00000000
   13.67555618   -1.00000000   -1.00000000   -1.00000000
   13.71194458  101.32499695    4.90999985    2.46000004
   13.71500015  171.96299744    4.90999985    2.46000004
   13.71833324  165.69200134    4.86999989    2.42000008
   13.72166634  167.00000000    4.88999987    2.46000004
   13.72472191  175.33500671    4.84999990    2.44000006
   13.72805500  171.34899902    4.86999989    2.42000008
   13.73222160  171.34899902    4.86999989    2.42000008
   13.73638916  170.01499939    4.76000023    2.42000008
   13.73944473  166.09100342    4.73999977    2.40000010
   13.74277782  168.12800598    4.71999979    2.44000006
   13.74527836  171.91999817    4.57999992    2.42000008
   13.74638939  160.20599365    4.53999996    2.42000008
   13.74972248  172.70700073    4.48999977    2.44000006
   13.75277805  162.00700378    4.57999992    2.44000006
   13.75611115  165.67300415    4.65999985    2.44000006
   13.75944424  173.51899719    4.80000019    2.42000008
   13.76249981  168.68899536    4.90999985    2.44000006
   13.76583290  163.22799683    4.88999987    2.44000006
   13.76916599  164.73399353    4.84999990    2.44000006
   13.77499962  164.73399353    4.82999992    2.48000002
   13.77916622  158.17100525    4.90999985    2.46000004
   13.78249931  160.81900024    4.90999985    2.46000004
   13.78555584  159.20799255    4.90999985    2.46000004
   13.78888893  163.00799561    4.90999985    2.46000004
   13.79194450  161.75700378    4.90999985    2.44000006
   13.79527855  164.29499817    4.90999985    2.44000006
   13.79861164  158.56700134    4.90999985    2.42000008
   13.80166721  170.04100037    4.90999985    2.42000008
   13.80500031  173.34399414    4.90999985    2.46000004
   13.80833340  161.92799377    4.90999985    2.44000006
   13.81138897  169.92599487    4.90999985    2.46000004
   13.81194496  165.89100647    4.90999985    2.46000004
   13.81777763  165.89100647    4.90999985    2.44000006
   13.82194424  172.61399841    4.90999985    2.46000004
   13.82527733  179.80200195    4.90999985    2.42000008
   13.82833290  169.46400452    4.90999985    2.46000004
   13.83166695  176.57299805    4.90999985    2.46000004
   13.83500004  172.33700562    4.90999985    2.46000004
   13.83805561  166.23899841    4.90999985    2.46000004
   13.84138870  164.31199646    4.90999985    2.46000004
   13.84472179  180.05400085    4.84999990    2.46000004
   13.84527779  174.50199890    4.80999994    2.48000002
   13.84833336  164.35600281    4.73999977    2.46000004
   13.85138893  168.20399475    4.71999979    2.46000004
   13.85472298  166.61599731    4.82999992    2.46000004
   13.86083412  166.61599731    4.90999985    2.42000008
   13.86472225  187.51100159    4.90999985    2.44000006
   13.86805534  178.40899658    4.90999985    2.42000008
   13.87138939  180.45199585    4.90999985    2.42000008
   13.87444496  183.06700134    4.90999985    2.44000006
   13.87777805  178.59399414    4.90999985    2.44000006
   13.87861156  181.28100586    4.90999985    2.44000006
   13.88138866  175.63600159    4.90999985    2.46000004
   13.88444424  169.88299561    4.90999985    2.46000004
   13.88777733  175.04200745    4.90999985    2.46000004
   13.89111137  171.99699402    4.90999985    2.48000002
   13.89416695  176.09300232    4.90999985    2.48000002
   13.89750004  178.66000366    4.90999985    2.46000004
   13.90361118  178.66000366    4.90999985    2.46000004
   13.90777779  177.27699280    4.90999985    2.48000002
   13.91083336  180.44799805    4.90999985    2.46000004
   13.91194439  173.54899597    4.90999985    2.46000004
   13.91472149  184.10400391    4.90999985    2.46000004
   13.91777802  183.41799927    4.90999985    2.46000004
   13.92111111  182.48800659    4.90999985    2.46000004
   13.92444515  179.36599731    4.90999985    2.46000004
   13.92750072  169.73899841    4.90999985    2.46000004
   13.93083382  166.12899780    4.90999985    2.48000002
   13.93416691  163.57899475    4.88999987    2.46000004
   13.93722248  183.22399902    4.84999990    2.46000004
   13.94055557  185.11199951    4.86999989    2.46000004
   13.94638920  185.11199951    4.90999985    2.46000004
   13.95055580  174.15699768    4.90999985    2.46000004
   13.95388889  170.69099426    4.90999985    2.46000004
   13.95694447  180.97000122    4.90999985    2.46000004
   13.96027756  187.07499695    4.90999985    2.46000004
   13.96333313  176.86599731    4.90999985    2.46000004
   13.96666622  174.66799927    4.90999985    2.46000004
   13.96999931  168.04499817    4.90999985    2.46000004
   13.97305489  178.60899353    4.90999985    2.46000004
   13.97638798  185.83599854    4.90999985    2.46000004
   13.97861099  175.92100525    4.90999985    2.48000002
   13.97999954  177.23300171    4.90999985    2.46000004
   13.98305511  171.25100708    4.90999985    2.48000002
   13.98916721  171.25100708    4.90999985    2.48000002
   13.99333382  179.22300720    4.90999985    2.48000002
   13.99666691  173.51400757    4.90999985    2.46000004
   13.99972248  180.98800659    4.90999985    2.44000006
   14.00305557  179.83000183    4.90999985    2.46000004
   14.00638866  180.84800720    4.90999985    2.46000004
   14.00944424  189.95799255    4.90999985    2.48000002
   14.01194477  170.41299438    4.90999985    2.48000002
   14.01333332  166.37699890    4.90999985    2.48000002
   14.01638889  169.28300476    4.90999985    2.46000004
   14.01972198  183.54100037    4.90999985    2.46000004
   14.02305508  192.13900757    4.90999985    2.42000008
   14.02611065  187.27499390    4.90999985    2.42000008
   14.03222179  187.27499390    4.90999985    2.42000008
   14.03611183  174.11199951    4.90999985    2.44000006
   14.03944492  169.47000122    4.90999985    2.46000004
   14.04277802  180.80000305    4.90999985    2.46000004
   14.04527855  175.04699707    4.90999985    2.48000002
   14.04638958  183.63400269    4.90999985    2.48000002
   14.04944515  178.88999939    4.90999985    2.50000000
   14.05277824  172.46800232    4.90999985    2.48000002
   14.05611134  171.96000671    4.90999985    2.46000004
   14.05916691  174.51800537    4.90999985    2.46000004
   14.06250000  162.99400330    4.90999985    2.48000002
   14.06583309  168.36199951    4.90999985    2.48000002
   14.06888866  166.27999878    4.90999985    2.48000002
   14.07499981  166.27999878    4.90999985    2.46000004
   14.07916641  157.72700500    4.90999985    2.44000006
   14.08222198  172.07499695    4.90999985    2.46000004
   14.08555508  172.07000732    4.90999985    2.44000006
   14.08888817  169.37699890    4.90999985    2.46000004
   14.09194374  181.71400452    4.90999985    2.46000004
   14.09527779  175.63999939    4.90999985    2.48000002
   14.09833336  172.19500732    4.90999985    2.48000002
   14.10166740  169.51899719    4.90999985    2.50000000
   14.10500050  173.01600647    4.90999985    2.48000002
   14.10805607  172.64399719    4.90999985    2.46000004
   14.11138916  167.06399536    4.90999985    2.44000006
   14.11194515  172.00999451    4.90999985    2.44000006
   14.11777782  172.00999451    4.90999985    2.44000006
   14.12194443  157.22999573    4.90999985    2.46000004
   14.12527752  169.16099548    4.90999985    2.46000004
   14.12833309  170.16999817    4.90999985    2.48000002
   14.13166714  170.10499573    4.90999985    2.46000004
   14.13472176  173.31399536    4.90999985    2.48000002
   14.13805580  168.22500610    4.90999985    2.48000002
   14.14138889  159.21400452    4.90999985    2.50000000
   14.14444447  165.28399658    4.90999985    2.48000002
   14.14527798  155.91000366    4.90999985    2.50000000
   14.14805508  166.51100159    4.90999985    2.50000000
   14.15138817  167.34399414    4.90999985    2.50000000
   14.15444374  183.12600708    4.90999985    2.46000004
   14.16055489  183.12600708    4.90999985    2.46000004
   14.16472149  161.53500366    4.90999985    2.46000004
   14.16805553  170.46299744    4.90999985    2.46000004
   14.17138958  159.07400513    4.90999985    2.46000004
   14.17444515  166.85400391    4.90999985    2.46000004
   14.17777824  164.30900574    4.90999985    2.46000004
   14.17861176  160.81599426    4.90999985    2.48000002
   14.18138885  156.45199585    4.90999985    2.46000004
   14.18472195  162.44599915    4.90999985    2.48000002
   14.18777752  170.75500488    4.90999985    2.48000002
   14.19111156  163.94099426    4.90999985    2.48000002
   14.19416714  166.34399414    4.90999985    2.48000002
   14.19750023  169.63800049    4.90999985    2.50000000
   14.20361137  169.63800049    4.90999985    2.51999998
   14.20749950  159.37399292    4.90999985    2.50000000
   14.21083355  160.61099243    4.90999985    2.50000000
   14.21194458  161.53500366    4.90999985    2.51999998
   14.21444416  154.01300049    4.90999985    2.51999998
   14.21777725  173.92100525    4.90999985    2.51999998
   14.22083282  160.07699585    4.90999985    2.51999998
   14.22416592  161.70899963    4.90999985    2.51999998
   14.22749996  165.69299316    4.90999985    2.51999998
   14.23055553  162.86099243    4.90999985    2.50000000
   14.23388958  161.54699707    4.90999985    2.51999998
   14.23694515  170.11999512    4.90999985    2.50000000
   14.24027824  166.99099731    4.90999985    2.51999998
   14.24638939  166.99099731    4.90999985    2.51999998
   14.25055599  165.14399719    4.90999985    2.51999998
   14.25361156  165.15699768    4.90999985    2.53999996
   14.25694466  164.03500366    4.90999985    2.53999996
   14.26027775  163.19599915    4.90999985    2.53999996
   14.26333332  160.31799316    4.90999985    2.51999998
   14.26666641  169.82899475    4.90999985    2.53999996
   14.26972198  166.61999512    4.90999985    2.51999998
   14.27305508  162.76100159    4.90999985    2.51999998
   14.27638817  176.57400513    4.90999985    2.51999998
   14.27861118  170.43200684    4.90999985    2.53999996
   14.27999973  183.26699829    4.90999985    2.53999996
   14.28333378  175.36199951    4.90999985    2.53999996
   14.28916740  175.36199951    4.90999985    2.53999996
   14.29333401  159.68800354    4.90999985    2.53999996
   14.29666710  170.51199341    4.90999985    2.55999994
   14.29972267  166.73599243    4.90999985    2.55999994
   14.30305576  158.87899780    4.90999985    2.53999996
   14.30638885  169.41600037    4.90999985    2.55999994
   14.30944443  170.03500366    4.90999985    2.53999996
   14.31194496  155.94700623    4.90999985    2.53999996
   14.31305599  156.41700745    4.90999985    2.53999996
   14.31638908  152.80799866    4.90999985    2.55999994
   14.31944466  150.24699402    4.90999985    2.53999996
   14.32277775  154.63900757    4.90999985    2.57999992
   14.32583332  161.37699890    4.90999985    2.55999994
   14.33194447  161.37699890    4.90999985    2.55999994
   14.33611107  149.65199280    4.90999985    2.55999994
   14.33944416  162.27900696    4.90999985    2.55999994
   14.34249973  173.80299377    4.90999985    2.55999994
   14.34527779  154.17100525    4.90999985    2.55999994
   14.34638882  163.45700073    4.90999985    2.55999994
   14.34972191  166.87100220    4.90999985    2.53999996
   14.35277843  173.29400635    4.90999985    2.53999996
   14.35611153  160.58999634    4.90999985    2.53999996
   14.35916710  162.12800598    4.90999985    2.53999996
   14.36250019  158.75999451    4.90999985    2.55999994
   14.36583328  163.14700317    4.90999985    2.53999996
   14.36888885  161.38400269    4.90999985    2.55999994
   14.37500000  161.38400269    4.90999985    2.57999992
   14.37888908  157.01199341    4.90999985    2.55999994
   14.38222218  157.03300476    4.90999985    2.57999992
   14.38555527  159.61099243    4.90999985    2.55999994
   14.38861084  153.11300659    4.90999985    2.55999994
   14.39194393  155.92900085    4.90999985    2.55999994
   14.39527798  166.82200623    4.90999985    2.55999994
   14.39833355  158.28799438    4.90999985    2.55999994
   14.40166664  154.95399475    4.90999985    2.55999994
   14.40472221  167.37100220    4.90999985    2.55999994
   14.40805531  160.19900513    4.90999985    2.55999994
   14.41138840  160.26899719    4.90999985    2.53999996
   14.41194439  158.13699341    4.90999985    2.53999996
   14.41777802  158.13699341    4.90999985    2.57999992
   14.42194462  162.41900635    4.90999985    2.57999992
   14.42500019  161.05700684    4.90999985    2.59999990
   14.42833328  166.35000610    4.90999985    2.59999990
   14.43166733  153.00199890    4.90999985    2.57999992
   14.43472195  156.85299683    4.90999985    2.59999990
   14.43805599  154.56500244    4.90999985    2.57999992
   14.44111156  163.94299316    4.90999985    2.57999992
   14.44444466  165.78900146    4.90999985    2.57999992
   14.44527817  154.64700317    4.90999985    2.57999992
   14.44805527  165.10099792    4.90999985    2.57999992
   14.45138836  157.04200745    4.90999985    2.57999992
   14.45444393  157.58500671    4.90999985    2.55999994
   14.46055508  157.58500671    4.90999985    2.57999992
   14.46472168  154.04400635    4.90999985    2.57999992
   14.46805477  159.35000610    4.90999985    2.57999992
   14.47111034  168.22999573    4.90999985    2.59999990
   14.47444439  149.39300537    4.90999985    2.57999992
   14.47749996  162.28100586    4.90999985    2.57999992
   14.47861099  150.87600708    4.90999985    2.57999992
   14.48111057  151.41600037    4.90999985    2.59999990
   14.48444462  155.27699280    4.90999985    2.59999990
   14.48750019  145.67500305    4.90999985    2.61999989
   14.49083328  148.00500488    4.90999985    2.61999989
   14.49416733  147.50500488    4.90999985    2.61999989
   14.49722290  147.16700745    4.90999985    2.61999989
   14.50333309  147.16700745    4.90999985    2.61999989
   14.50749969  157.00599670    4.90999985    2.64000010
   14.51083374  152.47099304    4.90999985    2.64000010
   14.51194477  153.80999756    4.90999985    2.64000010
   14.51444435  154.27099609    4.90999985    2.64000010
   14.51777744  162.31100464    4.90999985    2.61999989
   14.52083302  154.95599365    4.90999985    2.61999989
   14.52416611  161.76400757    4.90999985    2.61999989
   14.52750015  160.97399902    4.90999985    2.61999989
   14.53055573  152.38499451    4.90999985    2.64000010
   14.53388977  155.31700134    4.90999985    2.64000010
   14.53694534  152.22900391    4.90999985    2.64000010
   14.54027843  163.72500610    4.90999985    2.64000010
   14.54638958  163.72500610    4.90999985    2.66000009
   14.55027771  158.16900635    4.90999985    2.66000009
   14.55361176  168.76199341    4.90999985    2.64000010
   14.55694485  151.44000244    4.90999985    2.64000010
   14.56000042  159.94599915    4.90999985    2.64000010
   14.56333351  151.01499939    4.90999985    2.64000010
   14.56666660  152.37600708    4.90999985    2.64000010
   14.56972218  158.57400513    4.90999985    2.64000010
   14.57305527  145.04499817    4.90999985    2.64000010
   14.57638836  163.03900146    4.90999985    2.64000010
   14.57861137  156.55599976    4.90999985    2.64000010
   14.57999992  165.64500427    4.90999985    2.64000010
   14.58333302  162.76300049    4.90999985    2.66000009
   14.58916664  162.76300049    4.90999985    2.66000009
   14.59333324  149.56700134    4.90999985    2.66000009
   14.59638882  154.08399963    4.90999985    2.66000009
   14.59972191  154.36799622    4.90999985    2.66000009
   14.60305595  152.29100037    4.90999985    2.66000009
   14.60611153  150.70899963    4.90999985    2.66000009
   14.60944462  154.38299561    4.90999985    2.67000008
   14.61194515  157.17500305    4.90999985    2.66000009
   14.61305618  159.86099243    4.90999985    2.66000009
   14.61638927  155.03599548    4.90999985    2.66000009
   14.61944485  148.18600464    4.90999985    2.67000008
   14.62277794  140.54100037    4.90999985    2.66000009
   14.62611103  157.77999878    4.90999985    2.67000008
   14.63194466  157.77999878    4.90999985    2.66000009
   14.63611126  156.50199890    4.90999985    2.66000009
   14.63944435  152.22599792    4.90999985    2.67000008
   14.64249992  140.47900391    4.90999985    2.67000008
   14.64527798  145.05499268    4.90999985    2.67000008
   14.64611053  154.52000427    4.90999985    2.67000008
   14.64944458  141.39900208    4.90999985    2.67000008
   14.65249920  152.07800293    4.90999985    2.66000009
   14.65583324  146.08599854    4.90999985    2.66000009
   14.65916634  151.25900269    4.90999985    2.67000008
   14.66222191  148.25300598    4.90999985    2.66000009
   14.66555500  143.27200317    4.90999985    2.66000009
   14.66861153  152.12199402    4.90999985    2.66000009
   14.67472267  152.12199402    4.90999985    2.67000008
   14.67888927  148.28100586    4.90999985    2.67000008
   14.68222237  152.97900391    4.90999985    2.67000008
   14.68527794  150.52400208    4.90999985    2.67000008
   14.68861103  149.90299988    4.90999985    2.67000008
   14.69194412  152.90199280    4.90999985    2.66000009
   14.69499969  145.76400757    4.90999985    2.67000008
   14.69833374  146.71400452    4.90999985    2.67000008
   14.70166683  147.72999573    4.90999985    2.66000009
   14.70472240  149.37500000    4.90999985    2.67000008
   14.70805550  153.15699768    4.90999985    2.67000008
   14.71111107  143.40699768    4.90999985    2.67000008
   14.71222210  155.48199463    4.90999985    2.67000008
   14.73277760  155.48199463    4.90999985    2.67000008
   14.73694515  139.91099548    4.90999985    2.67000008
   14.74027824  145.40100098    4.90999985    2.67000008
   14.74333382  147.88099670    4.90999985    2.69000006
   14.74555588  128.73500061    4.90999985    2.67000008
   14.74694443  144.10800171    4.90999985    2.69000006
   14.75027752  145.95899963    4.90999985    2.69000006
   14.75333309  139.58599854    4.90999985    2.69000006
   14.75666714  142.64300537    4.90999985    2.67000008
   14.76000023  145.96899414    4.90999985    2.67000008
   14.76305580  145.63000488    4.90999985    2.67000008
   14.76638889  144.33200073    4.90999985    2.69000006
   14.76972198  144.13499451    4.90999985    2.67000008
   14.77555561  144.13499451    4.90999985    2.69000006
   14.77972221  130.32899475    4.90999985    2.67000008
   14.78277779  133.46499634    4.90999985    2.69000006
   14.78611183  157.44599915    4.90999985    2.69000006
   14.78944492  151.98100281    4.90999985    2.69000006
   14.79250050  150.72000122    4.90999985    2.69000006
   14.79583359  149.58200073    4.90999985    2.67000008
   14.79916668  145.03799438    4.90999985    2.67000008
   14.80222225  153.46800232    4.90999985    2.69000006
   14.80555534  143.51300049    4.90999985    2.69000006
   14.80861092  141.10699463    4.90999985    2.69000006
   14.81194496  138.38999939    4.90999985    2.69000006
   14.81250000  143.94999695    4.90999985    2.69000006
   14.81833363  143.94999695    4.90999985    2.67000008
   14.82250023  137.49299622    4.90999985    2.69000006
   14.82583332  136.78300476    4.90999985    2.69000006
   14.82888889  136.94599915    4.90999985    2.67000008
   14.83222198  144.71699524    4.90999985    2.69000006
   14.83555508  140.65299988    4.90999985    2.69000006
   14.83861065  135.44900513    4.90999985    2.67000008
   14.84194374  147.86199951    4.90999985    2.69000006
   14.84499931  143.32499695    4.90999985    2.69000006
   14.84583282  137.57899475    4.90999985    2.67000008
   14.84888840  140.23100281    4.90999985    2.69000006
   14.85194492  136.14799500    4.90999985    2.67000008
   14.85527802  143.66700745    4.90999985    2.69000006
   14.86111164  143.66700745    4.90999985    2.69000006
   14.86527824  136.78399658    4.90999985    2.69000006
   14.86861134  145.53199768    4.90999985    2.69000006
   14.87194443  137.31500244    4.90999985    2.69000006
   14.87500000  142.07400513    4.90999985    2.69000006
   14.87833309  129.85099792    4.90999985    2.69000006
   14.87916660  129.83500671    4.90999985    2.69000006
   14.88194466  142.75599670    4.90999985    2.69000006
   14.88500023  138.52099609    4.90999985    2.69000006
   14.88833332  144.78100586    4.90999985    2.69000006
   14.89166641  135.96200562    4.90999985    2.69000006
   14.89472198  148.43400574    4.90999985    2.69000006
   14.89805508  136.14500427    4.90999985    2.69000006
   14.90416622  136.14500427    4.90999985    2.69000006
   14.90833282  139.15299988    4.90999985    2.69000006
   14.91138840  138.74000549    4.90999985    2.69000006
   14.91249943  143.79299927    4.90999985    2.69000006
   14.91527748  138.94900513    4.90999985    2.71000004
   14.91833401  144.34300232    4.90999985    2.69000006
   14.92166710  141.96400452    4.90999985    2.67000008
   14.92500019  151.87100220    4.90999985    2.69000006
   14.92805576  149.18099976    4.90999985    2.69000006
   14.93138885  140.54299927    4.90999985    2.69000006
   14.93444443  144.06100464    4.90999985    2.69000006
   14.93777752  147.44400024    4.90999985    2.67000008
   14.94111156  143.91000366    4.90999985    2.69000006
   14.94694424  143.91000366    4.90999985    2.71000004
   14.95111084  143.24699402    4.90999985    2.69000006
   14.95416641  147.79600525    4.90999985    2.69000006
   14.95749950  143.61599731    4.90999985    2.71000004
   14.96083355  138.20799255    4.90999985    2.71000004
   14.96388912  141.79100037    4.90999985    2.69000006
   14.96722221  143.63099670    4.90999985    2.71000004
   14.97055531  129.64500427    4.90999985    2.69000006
   14.97361088  138.56199646    4.90999985    2.69000006
   14.97694397  138.99800110    4.90999985    2.69000006
   14.97916603  136.44500732    4.90999985    2.69000006
   14.98055553  149.00799561    4.90999985    2.69000006
   14.98361111  146.01499939    4.90999985    2.69000006
   14.98972225  146.01499939    4.90999985    2.71000004
   14.99388885  148.71600342    4.90999985    2.69000006
   14.99722290  134.88000488    4.90999985    2.69000006
   15.00027752  147.76199341    4.90999985    2.69000006
   15.00361156  141.60899353    4.90999985    2.69000006
   15.00694466  145.91600037    4.90999985    2.69000006
   15.01000023  145.50799561    4.90999985    2.71000004
   15.01249981  141.04299927    4.90999985    2.69000006
   15.01388931  137.26300049    4.90999985    2.69000006
   15.01694393  142.49099731    4.90999985    2.69000006
   15.02027798  141.23399353    4.90999985    2.71000004
   15.02361107  140.25000000    4.90999985    2.69000006
   15.02666664  148.90499878    4.90999985    2.71000004
   15.03249931  148.90499878    4.90999985    2.71000004
   15.03666687  142.12899780    4.90999985    2.69000006
   15.04000092  142.52000427    4.90999985    2.71000004
   15.04333401  146.61900330    4.90999985    2.71000004
   15.04583359  140.88699341    4.90999985    2.71000004
   15.04694462  133.74200439    4.90999985    2.71000004
   15.05000019  135.97900391    4.90999985    2.71000004
   15.05333328  138.42799377    4.90999985    2.71000004
   15.05666733  140.84700012    4.90999985    2.71000004
   15.05972195  148.87300110    4.90999985    2.69000006
   15.06305599  131.57699585    4.90999985    2.71000004
   15.06638908  130.30900574    4.90999985    2.69000006
   15.06944466  148.04800415    4.90999985    2.71000004
   15.07555580  148.04800415    4.90999985    2.71000004
   15.07972240  134.87199402    4.90999985    2.71000004
   15.08277798  142.63800049    4.90999985    2.71000004
   15.08611107  144.84500122    4.90999985    2.71000004
   15.08916664  146.24000549    4.90999985    2.71000004
   15.09249973  132.99499512    4.90999985    2.71000004
   15.09583282  140.45500183    4.90999985    2.71000004
   15.09888840  150.24000549    4.90999985    2.71000004
   15.10222244  136.72399902    4.90999985    2.71000004
   15.10555553  131.77000427    4.90999985    2.71000004
   15.10861111  140.82099915    4.90999985    2.71000004
   15.11194515  137.37500000    4.90999985    2.69000006
   15.11250019  127.02999878    4.90999985    2.69000006
   15.11833382  127.02999878    4.90999985    2.71000004
   15.12250042  128.41999817    4.90999985    2.71000004
   15.12555599  133.39100647    4.90999985    2.71000004
   15.12888908  139.71499634    4.90999985    2.71000004
   15.13222218  138.50500488    4.90999985    2.71000004
   15.13527775  137.05599976    4.90999985    2.71000004
   15.13861084  140.19500732    4.90999985    2.71000004
   15.14194393  142.41799927    4.90999985    2.71000004
   15.14499950  139.56100464    4.90999985    2.71000004
   15.14583302  136.38900757    4.90999985    2.71000004
   15.14861107  135.11399841    4.90999985    2.71000004
   15.15194416  142.65400696    4.90999985    2.73000002
   15.15499973  142.73300171    4.90999985    2.71000004
   15.16111088  142.73300171    4.90999985    2.71000004
   15.16527748  147.49499512    4.90999985    2.73000002
   15.16861153  149.13400269    4.90999985    2.71000004
   15.17166710  139.83200073    4.90999985    2.71000004
   15.17500019  149.02299500    4.90999985    2.71000004
   15.17833328  138.47500610    4.90999985    2.71000004
   15.17916679  141.25999451    4.90999985    2.71000004
   15.18194485  152.04499817    4.90999985    2.71000004
   15.18500042  148.74699402    4.90999985    2.71000004
   15.18833351  148.11700439    4.90999985    2.73000002
   15.19166660  143.28599548    4.90999985    2.73000002
   15.19472218  145.19299316    4.90999985    2.71000004
   15.19805527  150.46499634    4.90999985    2.73000002
   15.20388889  150.46499634    4.90999985    2.71000004
   15.20805550  139.91400146    4.90999985    2.75000000
   15.21138859  138.87199402    4.90999985    2.71000004
   15.21249962  141.73800659    4.90999985    2.73000002
   15.21500015  137.63200378    4.90999985    2.71000004
   15.21805477  140.07699585    4.90999985    2.71000004
   15.22138882  142.59800720    4.90999985    2.71000004
   15.22472191  147.48199463    4.90999985    2.73000002
   15.22777748  148.99600220    4.90999985    2.71000004
   15.23111057  148.40299988    4.90999985    2.71000004
   15.23444462  134.15199280    4.90999985    2.71000004
   15.23750019  143.24600220    4.90999985    2.73000002
   15.24083328  138.54899597    4.90999985    2.73000002
   15.24694443  138.54899597    4.90999985    2.71000004
   15.25111103  138.82600403    4.90999985    2.71000004
   15.25416660  138.44099426    4.90999985    2.73000002
   15.25749969  127.70300293    4.90999985    2.71000004
   15.26055527  134.53500366    4.90999985    2.71000004
   15.26388931  136.00100708    4.90999985    2.71000004
   15.26722240  138.94500732    4.90999985    2.73000002
   15.27027798  136.66999817    4.90999985    2.71000004
   15.27361107  141.11000061    4.90999985    2.73000002
   15.27694416  123.79299927    4.90999985    2.71000004
   15.27916622  144.05799866    4.90999985    2.75000000
   15.28055573  131.22700500    4.90999985    2.73000002
   15.28388977  139.76600647    4.90999985    2.73000002
   15.28972244  139.76600647    4.90999985    2.75000000
   15.29388905  142.15299988    4.90999985    2.71000004
   15.29694462  135.75999451    4.90999985    2.73000002
   15.30027771  139.86999512    4.90999985    2.73000002
   15.30361176  143.55599976    4.90999985    2.73000002
   15.30666733  139.28799438    4.90999985    2.73000002
   15.31000042  149.40800476    4.90999985    2.73000002
   15.31250000  146.93400574    4.90999985    2.71000004
   15.31361103  142.61999512    4.90999985    2.71000004
   15.31666660  143.90299988    4.90999985    2.73000002
   15.31999969  135.61000061    4.90999985    2.73000002
   15.32333374  128.91799927    4.90999985    2.75000000
   15.32638836  136.18899536    4.90999985    2.73000002
   15.33249950  136.18899536    4.90999985    2.73000002
   15.33666611  144.42799377    4.90999985    2.71000004
   15.34000015  149.29800415    4.90999985    2.73000002
   15.34305477  144.78700256    4.90999985    2.73000002
   15.34583282  146.45899963    4.90999985    2.73000002
   15.34666634  150.30099487    4.90999985    2.71000004
   15.34972191  153.82899475    4.90999985    2.73000002
   15.35305595  139.48599243    4.90999985    2.73000002
   15.35638905  143.63699341    4.90999985    2.73000002
   15.35944462  155.73500061    4.90999985    2.73000002
   15.36277771  147.59300232    4.90999985    2.73000002
   15.36611176  157.61500549    4.90999985    2.73000002
   15.36916637  141.33099365    4.90999985    2.73000002
   15.37527752  141.33099365    4.90999985    2.73000002
   15.37944412  144.46800232    4.90999985    2.71000004
   15.38277817  142.82000732    4.90999985    2.73000002
   15.38583279  146.77799988    4.90999985    2.73000002
   15.38916683  140.55400085    4.90999985    2.71000004
   15.39249992  135.46400452    4.90999985    2.73000002
   15.39555550  145.90499878    4.90999985    2.73000002
   15.39888859  149.28199768    4.90999985    2.73000002
   15.40222168  142.70100403    4.90999985    2.75000000
   15.40527725  136.43400574    4.90999985    2.75000000
   15.40861034  138.24400330    4.90999985    2.75000000
   15.41194439  140.24099731    4.90999985    2.73000002
   15.41249943  131.76400757    4.90999985    2.75000000
   15.41833401  131.76400757    4.90999985    2.73000002
   15.42222214  130.10899353    4.90999985    2.73000002
   15.42555618  138.47500610    4.90999985    2.73000002
   15.42888927  134.79600525    4.90999985    2.73000002
   15.43194485  129.22200012    4.90999985    2.75000000
   15.43527794  134.42599487    4.90999985    2.75000000
   15.43861103  132.06799316    4.90999985    2.73000002
   15.44166660  143.07899475    4.90999985    2.75000000
   15.44499969  132.75300598    4.90999985    2.75000000
   15.44583321  141.14500427    4.90999985    2.75000000
   15.44861126  143.23500061    4.90999985    2.75000000
   15.45194435  138.09399414    4.90999985    2.75000000
   15.45499992  137.15499878    4.90999985    2.73000002
   15.46111107  137.15499878    4.90999985    2.73000002
   15.46527767  128.42900085    4.90999985    2.73000002
   15.46833324  143.10200500    4.90999985    2.75000000
   15.47166634  147.63499451    4.90999985    2.75000000
   15.47499943  146.96299744    4.90999985    2.75000000
   15.47805500  138.63299561    4.90999985    2.73000002
   15.47916603  137.15100098    4.90999985    2.75000000
   15.48166656  131.64999390    4.90999985    2.73000002
   15.48500061  134.71400452    4.90999985    2.75000000
   15.48805618  148.20599365    4.90999985    2.73000002
   15.49138927  133.48100281    4.90999985    2.75000000
   15.49444485  132.94099426    4.90999985    2.73000002
   15.49777794  127.65799713    4.90999985    2.73000002
   15.50388908  127.65799713    4.90999985    2.73000002
   15.50805569  146.60000610    4.90999985    2.73000002
   15.51138878  143.69799805    4.90999985    2.75000000
   15.51249981  137.72599792    4.90999985    2.75000000
   15.51500034  140.50100708    4.90999985    2.75000000
   15.51833344  130.65800476    4.90999985    2.75000000
   15.52138901  138.00300598    4.90999985    2.75000000
   15.52472210  131.46699524    4.90999985    2.73000002
   15.52777767  136.10299683    4.90999985    2.75000000
   15.53111076  132.73300171    4.90999985    2.73000002
   15.53444481  130.88000488    4.90999985    2.73000002
   15.53750038  131.84700012    4.90999985    2.73000002
   15.54083347  135.90699768    4.90999985    2.73000002
   15.54666710  135.90699768    4.90999985    2.73000002
   15.55083370  136.41299438    4.90999985    2.73000002
   15.55416679  144.46899414    4.90999985    2.75000000
   15.55722237  135.92500305    4.90999985    2.73000002
   15.56055546  145.77200317    4.90999985    2.75000000
   15.56388950  128.01600647    4.90999985    2.73000002
   15.56694412  137.61199951    4.90999985    2.75000000
   15.57027817  125.64199829    4.90999985    2.75000000
   15.57361126  139.36000061    4.90999985    2.73000002
   15.57666683  133.15600586    4.90999985    2.75000000
   15.57916641  137.28799438    4.90999985    2.73000002
   15.58027744  146.42399597    4.90999985    2.73000002
   15.58361053  136.31500244    4.90999985    2.75000000
   15.58972168  136.31500244    4.90999985    2.75000000
   15.59361076  135.42500305    4.90999985    2.73000002
   15.59694386  137.10000610    4.90999985    2.75000000
   15.60027790  129.82499695    4.90999985    2.75000000
   15.60333347  125.93000031    4.90999985    2.75000000
   15.60666752  134.83099365    4.90999985    2.75000000
   15.61000061  127.09700012    4.90999985    2.73000002
   15.61250019  140.11300659    4.90999985    2.75000000
   15.61361122  135.07200623    4.90999985    2.75000000
   15.61694431  131.17799377    4.90999985    2.75000000
   15.61999989  133.89300537    4.90999985    2.75000000
   15.62333393  140.38200378    4.90999985    2.76999998
   15.62666702  135.65699768    4.90999985    2.76999998
   15.63249969  135.65699768    4.90999985    2.75000000
   15.63666630  130.13200378    4.90999985    2.75000000
   15.63972187  139.72599792    4.90999985    2.75000000
   15.64305496  131.48699951    4.90999985    2.75000000
   15.64583302  138.41099548    4.90999985    2.75000000
   15.64666653  135.14799500    4.90999985    2.75000000
   15.64999962  136.57400513    4.90999985    2.75000000
   15.65305519  131.49000549    4.90999985    2.75000000
   15.65638828  140.18499756    4.90999985    2.75000000
   15.65972137  146.19500732    4.90999985    2.75000000
   15.66277695  139.11000061    4.90999985    2.75000000
   15.66611099  133.44599915    4.90999985    2.75000000
   15.66916656  135.63400269    4.90999985    2.75000000
   15.67527771  135.63400269    4.90999985    2.76999998
   15.67944431  137.23100281    4.90999985    2.75000000
   15.68277836  128.85000610    4.90999985    2.76999998
   15.68583298  136.69799805    4.90999985    2.76999998
   15.68916702  140.42399597    4.90999985    2.75000000
   15.69222260  132.91200256    4.90999985    2.75000000
   15.69555569  131.76600647    4.90999985    2.75000000
   15.69888878  138.27999878    4.90999985    2.75000000
   15.70194435  135.34100342    4.90999985    2.76999998
   15.70527744  145.81199646    4.90999985    2.75000000
   15.70861053  143.79400635    4.90999985    2.75000000
   15.71166611  125.46199799    4.90999985    2.76999998
   15.71249962  132.55299377    4.90999985    2.76999998
   15.71805477  132.55299377    4.90999985    2.76999998
   15.72222137  127.45500183    4.90999985    2.76999998
   15.72555542  145.81599426    4.90999985    2.75000000
   15.72861099  140.60699463    4.90999985    2.75000000
   15.74638939  136.58900452    4.90999985    2.76999998
   15.74861145  135.52499390    4.90999985    2.76999998
   15.75194454  137.59500122    4.90999985    2.75000000
   15.75527763  128.72900391    4.90999985    2.75000000
   15.76111126  128.72900391    4.90999985    2.75000000
   15.76527786  137.78999329    4.90999985    2.78999996
   15.76861095  142.75199890    4.90999985    2.75000000
   15.77166653  139.22399902    4.90999985    2.75000000
   15.77499962  128.88600159    4.90999985    2.75000000
   15.77833271  139.27200317    4.90999985    2.75000000
   15.77944374  143.49200439    4.90999985    2.75000000
   15.78194427  140.62199402    4.90999985    2.75000000
   15.78527832  142.15600586    4.90999985    2.75000000
   15.78833389  140.23500061    4.90999985    2.75000000
   15.79166698  141.99000549    4.90999985    2.75000000
   15.79500008  149.39599609    4.90999985    2.75000000
   15.79805565  135.26800537    4.90999985    2.75000000
   15.80388927  135.26800537    4.90999985    2.76999998
   15.80805588  135.44000244    4.90999985    2.76999998
   15.81138897  139.31900024    4.90999985    2.76999998
   15.81277752  136.63999939    4.90999985    2.76999998
   15.81500053  138.74699402    4.90999985    2.76999998
   15.81833363  142.68600464    4.90999985    2.76999998
   15.82138920  141.86099243    4.90999985    2.76999998
   15.82472229  134.60699463    4.90999985    2.76999998
   15.82805538  142.43499756    4.90999985    2.73000002
   15.83111095  142.11599731    4.90999985    2.76999998
   15.83444405  149.58999634    4.90999985    2.76999998
   15.83777714  144.37300110    4.90999985    2.76999998
   15.84083271  145.77699280    4.90999985    2.76999998
   15.84694386  145.77699280    4.90999985    2.76999998
   15.85111141  140.74499512    4.90999985    2.75000000
   15.85416698  139.43499756    4.90999985    2.75000000
   15.85750008  129.17700195    4.90999985    2.76999998
   15.86055565  138.03799438    4.90999985    2.76999998
   15.86388969  136.54299927    4.90999985    2.76999998
   15.86722279  134.66499329    4.90999985    2.78999996
   15.87027836  150.67500305    4.90999985    2.73000002
   15.87361145  149.58399963    4.90999985    2.76999998
   15.87694454  143.55900574    4.90999985    2.75000000
   15.87944412  146.31900024    4.90999985    2.76999998
   15.88055611  139.83399963    4.90999985    2.76999998
   15.88388920  149.82299805    4.90999985    2.76999998
   15.88972187  149.82299805    4.90999985    2.76999998
   15.89388847  135.15800476    4.90999985    2.76999998
   15.89694405  148.77699280    4.90999985    2.76999998
   15.90027714  143.46499634    4.90999985    2.76999998
   15.90361118  151.90100098    4.90999985    2.76999998
   15.90666676  145.36300659    4.90999985    2.76999998
   15.90999985  138.85299683    4.90999985    2.76999998
   15.91277695  143.80000305    4.90999985    2.76999998
   15.91361046  147.52900696    4.90999985    2.76999998
   15.91694450  144.82800293    4.90999985    2.76999998
   15.92000008  149.84500122    4.90999985    2.76999998
   15.92333412  138.12899780    4.90999985    2.76999998
   15.92666721  134.36599731    4.90999985    2.75000000
   15.93249989  134.36599731    4.90999985    2.78999996
   15.93666649  134.28500366    4.90999985    2.78999996
   15.94000053  134.54600525    4.90999985    2.76999998
   15.94305515  136.80299377    4.90999985    2.76999998
   15.94638920  142.73800659    4.90999985    2.76999998
   15.94666672  135.98100281    4.90999985    2.76999998
   15.94999981  131.01600647    4.90999985    2.76999998
   15.95305538  133.00399780    4.90999985    2.76999998
   15.95638847  125.34300232    4.90999985    2.76999998
   15.95972157  136.05799866    4.90999985    2.78999996
   15.96277714  139.85299683    4.90999985    2.76999998
   15.96611118  135.99200439    4.90999985    2.78999996
   15.96944427  136.73199463    4.90999985    2.76999998
   15.97527695  136.73199463    4.90999985    2.76999998
   15.97972202  134.14900208    4.90999985    2.78999996
   15.97999954  137.90199280    4.90999985    2.76999998
   15.98333359  137.44599915    4.90999985    2.76999998
   15.98638916  141.41299438    4.90999985    2.76999998
   15.98972225  138.99200439    4.90999985    2.78999996
   15.99305534  142.99600220    4.90999985    2.76999998
   15.99611092  122.56900024    4.90999985    2.78999996
   15.99944496  128.26800537    4.90999985    2.78999996
   16.00277710  136.98199463    4.90999985    2.78999996
   16.00583267  129.10200500    4.90999985    2.78999996
   16.00916672  144.13400269    4.90999985    2.76999998
   16.01250076  147.31500244    4.90999985    2.76999998
   16.01305580  134.39399719    4.90999985    2.76999998
   16.01833344  134.39399719    4.90999985    2.76999998
   16.02249908  144.52600098    4.90999985    2.76999998
   16.02555466  150.60499573    4.90999985    2.76999998
   16.02888870  149.95700073    4.90999985    2.78999996
   16.03194427  144.79400635    4.90999985    2.76999998
   16.03527641  145.36599731    4.90999985    2.78999996
   16.03861046  137.98199463    4.90999985    2.78999996
   16.04166603  132.02200317    4.90999985    2.76999998
   16.04500008  137.56799316    4.90999985    2.76999998
   16.04638863  137.61900330    4.90999985    2.76999998
   16.04861069  144.30099487    4.90999985    2.76999998
   16.05194283  135.75999451    4.90999985    2.76999998
   16.05499840  144.39999390    4.90999985    2.76999998
   16.06110954  144.39999390    4.90999985    2.76999998
   16.06527710  146.07400513    4.90999985    2.76999998
   16.06833458  129.52000427    4.90999985    2.76999998
   16.07166672  137.50399780    4.90999985    2.76999998
   16.07500076  145.10000610    4.90999985    2.78999996
   16.07805634  142.83599854    4.90999985    2.76999998
   16.07972336  147.02600098    4.90999985    2.76999998
   16.08166695  138.97099304    4.90999985    2.76999998
   16.08500099  143.83299255    4.90999985    2.76999998
   16.08833313  145.34500122    4.90999985    2.76999998
   16.09138870  142.01800537    4.90999985    2.76999998
   16.09472275  137.19900513    4.90999985    2.76999998
   16.09777832  127.23799896    4.90999985    2.78999996
   16.10388947  127.23799896    4.90999985    2.78999996
   16.10805511  145.07600403    4.90999985    2.76999998
   16.11138916  142.11300659    4.90999985    2.78999996
   16.11305618  139.21200562    4.90999985    2.78999996
   16.11499977  133.77000427    4.90999985    2.78999996
   16.11833382  139.87899780    4.90999985    2.78999996
   16.12166595  133.07699585    4.90999985    2.76999998
   16.12472153  130.58299255    4.90999985    2.78999996
   16.12805557  138.00999451    4.90999985    2.78999996
   16.13111115  148.58200073    4.90999985    2.76999998
   16.13444519  137.63099670    4.90999985    2.76999998
   16.13777733  141.11700439    4.90999985    2.78999996
   16.14083290  136.61999512    4.90999985    2.78999996
   16.14666748  136.61999512    4.90999985    2.76999998
   16.15083313  150.17599487    4.90999985    2.78999996
   16.15416718  144.50199890    4.90999985    2.76999998
   16.15749931  157.42900085    4.90999985    2.78999996
   16.16055489  138.77000427    4.90999985    2.78999996
   16.16388893  143.75300598    4.90999985    2.76999998
   16.16722107  145.67700195    4.90999985    2.78999996
   16.17027664  124.39199829    4.90999985    2.78999996
   16.17361069  136.29499817    4.90999985    2.78999996
   16.17666626  152.39500427    4.90999985    2.78999996
   16.17972183  141.81500244    4.90999985    2.76999998
   16.18027687  144.31399536    4.90999985    2.78999996
   16.18361092  145.70799255    4.90999985    2.78999996
   16.18972206  145.70799255    4.90999985    2.78999996
   16.19388771  139.39100647    4.90999985    2.78999996
   16.19694328  135.20300293    4.90999985    2.78999996
   16.20027924  136.75700378    4.90999985    2.76999998
   16.20333481  139.61900330    4.90999985    2.78999996
   16.20666695  140.70700073    4.90999985    2.78999996
   16.21000099  142.42500305    4.90999985    2.78999996
   16.21305656  139.79699707    4.90999985    2.78999996
   16.21333504  141.51600647    4.90999985    2.76999998
   16.21666718  137.97099304    4.90999985    2.78999996
   16.22000122  137.50399780    4.90999985    2.76999998
   16.22305679  143.92799377    4.90999985    2.78999996
   16.22638893  137.47999573    4.90999985    2.80999994
   16.23250008  137.47999573    4.90999985    2.80999994
   16.23666763  138.96800232    4.90999985    2.78999996
   16.23972321  141.44000244    4.90999985    2.78999996
   16.24305534  142.22700500    4.90999985    2.78999996
   16.24638939  138.00300598    4.90999985    2.78999996
   16.24666786  143.22300720    4.90999985    2.78999996
   16.25000000  135.65499878    4.90999985    2.78999996
   16.25333405  145.15699768    4.90999985    2.78999996
   16.25638962  148.37600708    4.90999985    2.78999996
   16.25972176  134.32200623    4.90999985    2.78999996
   16.26277733  144.53300476    4.90999985    2.78999996
   16.26611137  142.12600708    4.90999985    2.78999996
   16.26944351  142.08799744    4.90999985    2.78999996
   16.27527809  142.08799744    4.90999985    2.78999996
   16.27944374  150.80099487    4.90999985    2.78999996
   16.28000069  150.51199341    4.90999985    2.78999996
   16.28333282  144.91999817    4.90999985    2.78999996
   16.28638840  151.50199890    4.90999985    2.78999996
   16.28972244  136.27499390    4.90999985    2.76999998
   16.29277802  142.02000427    4.90999985    2.78999996
   16.29611015  132.99600220    4.90999985    2.78999996
   16.29944420  135.40299988    4.90999985    2.78999996
   16.30249977  138.61099243    4.90999985    2.78999996
   16.30583191  144.31300354    4.90999985    2.76999998
   16.30888748  136.70899963    4.90999985    2.76999998
   16.31222153  139.17999268    4.90999985    2.78999996
   16.31333351  140.57499695    4.90999985    2.78999996
   16.31805611  140.57499695    4.90999985    2.78999996
   16.32222366  140.30299377    4.90999985    2.78999996
   16.32555580  130.92700195    4.90999985    2.78999996
   16.32861137  133.19700623    4.90999985    2.78999996
   16.33194542  128.85600281    4.90999985    2.78999996
   16.33527756  143.26300049    4.90999985    2.78999996
   16.33833313  138.83999634    4.90999985    2.78999996
   16.34166718  145.47900391    4.90999985    2.78999996
   16.34500122  138.03500366    4.90999985    2.78999996
   16.34666824  131.21200562    4.90999985    2.78999996
   16.34833336  141.21299744    4.90999985    2.78999996
   16.35166740  146.13600159    4.90999985    2.76999998
   16.35499954  147.55599976    4.90999985    2.78999996
   16.36111069  147.55599976    4.90999985    2.78999996
   16.36499977  128.36500549    4.90999985    2.76999998
   16.36833382  132.93699646    4.90999985    2.76999998
   16.37166595  136.04899597    4.90999985    2.78999996
   16.37472153  140.87100220    4.90999985    2.78999996
   16.37805557  135.43299866    4.90999985    2.78999996
   16.38000107  135.76100159    4.90999985    2.76999998
   16.38166618  135.14199829    4.90999985    2.78999996
   16.38472176  137.54200745    4.90999985    2.78999996
   16.38805580  142.05900574    4.90999985    2.78999996
   16.39111137  135.73300171    4.90999985    2.78999996
   16.39444351  139.97399902    4.90999985    2.78999996
   16.39777756  137.01199341    4.90999985    2.78999996
   16.40388870  137.01199341    4.90999985    2.78999996
   16.40805435  137.78199768    4.90999985    2.78999996
   16.41110992  140.24499512    4.90999985    2.78999996
   16.41333389  144.61700439    4.90999985    2.78999996
   16.41499901  138.95100403    4.90999985    2.78999996
   16.41805458  143.25999451    4.90999985    2.78999996
   16.42138863  146.56700134    4.90999985    2.78999996
   16.42472076  145.41200256    4.90999985    2.78999996
   16.42777634  135.75100708    4.90999985    2.78999996
   16.43111038  133.57000732    4.90999985    2.78999996
   16.43416595  144.19900513    4.90999985    2.78999996
   16.43750000  143.86799622    4.90999985    2.78999996
   16.44083214  127.70500183    4.90999985    2.78999996
   16.44666672  127.70500183    4.90999985    2.78999996
   16.45083427  144.37399292    4.90999985    2.78999996
   16.45416832  142.69700623    4.90999985    2.78999996
   16.45722389  142.03199768    4.90999985    2.78999996
   16.46055603  148.03399658    4.90999985    2.78999996
   16.46361160  147.94200134    4.90999985    2.78999996
   16.46694565  149.66299438    4.90999985    2.78999996
   16.47027779  150.47700500    4.90999985    2.76999998
   16.47333336  141.55200195    4.90999985    2.78999996
   16.47666740  142.53199768    4.90999985    2.78999996
   16.48000145  142.15199280    4.90999985    2.78999996
   16.48166656  136.53399658    4.90999985    2.78999996
   16.48361206  145.22799683    4.90999985    2.78999996
   16.48944473  145.22799683    4.90999985    2.78999996
   16.49361229  144.65899658    4.90999985    2.78999996
   16.49694443  142.43699646    4.90999985    2.78999996
   16.50000000  128.24499512    4.90999985    2.78999996
   16.50333405  128.10899353    4.90999985    2.78999996
   16.50666618  126.62500000    4.90999985    2.78999996
   16.50972176  137.61199951    4.90999985    2.78999996
   16.51305580  129.49099731    4.90999985    2.78999996
   16.51499939  140.88600159    4.90999985    2.78999996
   16.51666641  135.30200195    4.90999985    2.80999994
   16.52000046  128.46499634    4.90999985    2.78999996
   16.52305603  133.13600159    4.90999985    2.78999996
   16.52638817  140.73199463    4.90999985    2.78999996
   16.53249931  140.73199463    4.90999985    2.80999994
   16.53638840  131.88400269    4.90999985    2.80999994
   16.53972244  140.17399597    4.90999985    2.78999996
   16.54305458  142.53500366    4.90999985    2.78999996
   16.54611015  133.86900330    4.90999985    2.80999994
   16.54861069  150.25399780    4.90999985    2.78999996
   16.54999924  148.96000671    4.90999985    2.80999994
   16.55305481  145.41799927    4.90999985    2.80999994
   16.55638885  147.22799683    4.90999985    2.78999996
   16.55972099  139.64799500    4.90999985    2.78999996
   16.56277657  136.65199280    4.90999985    2.80999994
   16.56611061  141.29699707    4.90999985    2.78999996
   16.56916809  142.94999695    4.90999985    2.78999996
   16.57527924  142.94999695    4.90999985    2.78999996
   16.57944489  140.63400269    4.90999985    2.78999996
   16.58194542  136.21000671    4.90999985    2.78999996
   16.58305550  133.18200684    4.90999985    2.78999996
   16.58611107  140.53900146    4.90999985    2.78999996
   16.58944511  139.61799622    4.90999985    2.78999996
   16.59277916  142.69500732    4.90999985    2.80999994
   16.59583473  143.55999756    4.90999985    2.80999994
   16.59916687  134.16099548    4.90999985    2.80999994
   16.60222244  135.95399475    4.90999985    2.80999994
   16.60555649  141.86399841    4.90999985    2.80999994
   16.60888863  133.99899292    4.90999985    2.80999994
   16.61194420  142.99200439    4.90999985    2.78999996
   16.61805534  142.99200439    4.90999985    2.78999996
   16.62222290  146.61099243    4.90999985    2.80999994
   16.62527847  136.05799866    4.90999985    2.78999996
   16.62861061  140.74099731    4.90999985    2.80999994
   16.63194466  139.46899414    4.90999985    2.78999996
   16.63500023  134.66900635    4.90999985    2.78999996
   16.63833237  150.09599304    4.90999985    2.78999996
   16.64166641  129.25100708    4.90999985    2.78999996
   16.64472198  136.89500427    4.90999985    2.78999996
   16.64805603  142.06799316    4.90999985    2.80999994
   16.64888954  139.45799255    4.90999985    2.78999996
   16.65166664  133.17100525    4.90999985    2.78999996
   16.65472221  138.91400146    4.90999985    2.80999994
   16.66083336  138.91400146    4.90999985    2.80999994
   16.66499901  131.73899841    4.90999985    2.78999996
   16.66833305  135.86199951    4.90999985    2.80999994
   16.67138863  144.88900757    4.90999985    2.80999994
   16.67472076  143.80499268    4.90999985    2.80999994
   16.67805481  153.80299377    4.90999985    2.78999996
   16.68111038  149.75599670    4.90999985    2.80999994
   16.68222237  138.44000244    4.90999985    2.80999994
   16.68499947  155.63800049    4.90999985    2.80999994
   16.68833160  130.07800293    4.90999985    2.80999994
   16.69138718  136.50000000    4.90999985    2.80999994
   16.69472122  145.28399658    4.90999985    2.78999996
   16.69777679  141.21600342    4.90999985    2.82999992
   16.70388985  141.21600342    4.90999985    2.80999994
   16.70777893  143.53399658    4.90999985    2.80999994
   16.71111107  139.29299927    4.90999985    2.80999994
   16.71444511  150.55499268    4.90999985    2.78999996
   16.71583366  136.08999634    4.90999985    2.80999994
   16.71805573  137.44999695    4.90999985    2.78999996
   16.72111130  140.64300537    4.90999985    2.78999996
   16.72444534  116.36599731    4.90999985    2.78999996
   16.72750092  131.58000183    4.90999985    2.80999994
   16.73083305  127.18900299    4.90999985    2.80999994
   16.73416710  134.85299683    4.90999985    2.78999996
   16.73722267  141.88099670    4.90999985    2.78999996
   16.74055672  145.45700073    4.90999985    2.80999994
   16.74666786  145.45700073    4.90999985    2.80999994
   16.76499939  157.26400757    4.90999985    2.80999994
   16.76833344  133.11500549    4.90999985    2.80999994
   16.77138901  145.88699341    4.90999985    2.78999996
   16.77472115  144.81199646    4.90999985    2.80999994
   16.77777672  145.27200317    4.90999985    2.80999994
   16.78111076  143.17399597    4.90999985    2.80999994
   16.78444481  143.54299927    4.90999985    2.80999994
   16.78972244  143.54299927    4.90999985    2.80999994
   16.79388809  145.75100708    4.90999985    2.80999994
   16.79694366  144.04299927    4.90999985    2.80999994
   16.79805565  132.92900085    4.90999985    2.80999994
   16.80083275  138.36000061    4.90999985    2.80999994
   16.80388832  146.16600037    4.90999985    2.78999996
   16.80722237  145.08900452    4.90999985    2.80999994
   16.81027794  139.51800537    4.90999985    2.80999994
   16.81361008  137.66700745    4.90999985    2.80999994
   16.81694603  149.42399597    4.90999985    2.80999994
   16.82000160  142.33000183    4.90999985    2.80999994
   16.82333374  140.68400574    4.90999985    2.80999994
   16.82666779  151.88699341    4.90999985    2.80999994
   16.83250046  151.88699341    4.90999985    2.80999994
   16.83666801  148.08500671    4.90999985    2.80999994
   16.84000015  143.73699951    4.90999985    2.80999994
   16.84305573  143.05999756    4.90999985    2.78999996
   16.84638977  136.36599731    4.90999985    2.80999994
   16.84944534  131.20500183    4.90999985    2.78999996
   16.85277748  146.38800049    4.90999985    2.80999994
   16.85611153  132.19000244    4.90999985    2.80999994
   16.85916710  142.40299988    4.90999985    2.80999994
   16.86250114  151.26100159    4.90999985    2.78999996
   16.86472321  135.44200134    4.90999985    2.82999992
   16.86611176  163.60299683    4.90999985    2.78999996
   16.86916733  150.19000244    4.90999985    2.78999996
   16.87527847  150.19000244    4.90999985    2.80999994
   16.87944412  138.97300720    4.90999985    2.80999994
   16.88277817  145.75900269    4.90999985    2.80999994
   16.88583374  143.76400757    4.90999985    2.78999996
   16.88916588  138.94200134    4.90999985    2.80999994
   16.89249992  143.70500183    4.90999985    2.78999996
   16.89555550  148.57200623    4.90999985    2.78999996
   16.89805603  147.13800049    4.90999985    2.78999996
   16.89944458  144.70500183    4.90999985    2.78999996
   16.90250015  147.36399841    4.90999985    2.78999996
   16.90583229  151.52900696    4.90999985    2.80999994
   16.90888786  149.14300537    4.90999985    2.80999994
   16.91222191  152.40100098    4.90999985    2.78999996
   16.91833305  152.40100098    4.90999985    2.80999994
   16.92249870  142.24200439    4.90999985    2.80999994
   16.92555428  142.21200562    4.90999985    2.80999994
   16.92888832  140.86500549    4.90999985    2.80999994
   16.93138885  145.30999756    4.90999985    2.80999994
   16.93249893  141.37199402    4.90999985    2.78999996
   16.93555450  134.59300232    4.90999985    2.78999996
   16.93888855  143.86500549    4.90999985    2.80999994
   16.94222069  141.84899902    4.90999985    2.80999994
   16.94527626  130.40499878    4.90999985    2.80999994
   16.94861031  125.55899811    4.90999985    2.82999992
   16.95166779  137.73300171    4.90999985    2.80999994
   16.95499992  128.39500427    4.90999985    2.80999994
   16.96111107  128.39500427    4.90999985    2.80999994
   16.96527863  143.86599731    4.90999985    2.78999996
   16.96833420  139.83700562    4.90999985    2.80999994
   16.97166634  147.30200195    4.90999985    2.80999994
   16.97500038  145.96099854    4.90999985    2.82999992
   16.97805595  132.30999756    4.90999985    2.80999994
   16.98139000  148.72999573    4.90999985    2.78999996
   16.98444557  140.85200500    4.90999985    2.78999996
   16.98777771  157.38099670    4.90999985    2.78999996
   16.99111176  144.30299377    4.90999985    2.80999994
   16.99416733  155.48199463    4.90999985    2.82999992
   16.99749947  129.41000366    4.90999985    2.78999996
   16.99805641  138.09899902    4.90999985    2.78999996
   17.00388908  138.09899902    4.90999985    2.80999994
   17.00805473  137.69500732    4.90999985    2.80999994
   17.01138878  137.70199585    4.90999985    2.80999994
   17.01444435  141.86300659    4.90999985    2.78999996
   17.01777840  131.75799561    4.90999985    2.78999996
   17.02111053  143.80599976    4.90999985    2.78999996
   17.02416611  139.89900208    4.90999985    2.78999996
   17.02750015  136.30099487    4.90999985    2.80999994
   17.03083229  141.88299561    4.90999985    2.78999996
   17.03138924  140.11300659    4.90999985    2.78999996
   17.03444481  129.35000610    4.90999985    2.80999994
   17.03750038  141.06500244    4.90999985    2.80999994
   17.04083252  144.10499573    4.90999985    2.80999994
   17.04666710  144.10499573    4.90999985    2.80999994
   17.05083275  146.50700378    4.90999985    2.78999996
   17.05416679  142.47500610    4.90999985    2.80999994
   17.05722237  138.64599609    4.90999985    2.80999994
   17.06055450  146.13800049    4.90999985    2.80999994
   17.06388855  139.07699585    4.90999985    2.80999994
   17.06472206  146.93699646    4.90999985    2.78999996
   17.06750107  140.67300415    4.90999985    2.80999994
   17.07055664  124.25000000    4.90999985    2.80999994
   17.07389069  150.94799805    4.90999985    2.80999994
   17.07722282  141.38099670    4.90999985    2.82999992
   17.08027840  142.95199585    4.90999985    2.80999994
   17.08361244  151.51100159    4.90999985    2.80999994
   17.08972359  151.51100159    4.90999985    2.80999994
   17.09361267  137.58799744    4.90999985    2.80999994
   17.09694481  136.71600342    4.90999985    2.80999994
   17.09805679  132.00300598    4.90999985    2.80999994
   17.10055542  137.51699829    4.90999985    2.80999994
   17.10361099  145.92599487    4.90999985    2.80999994
   17.10694504  146.23500061    4.90999985    2.78999996
   17.11027908  129.19900513    4.90999985    2.78999996
   17.11333466  134.40499878    4.90999985    2.80999994
   17.11666679  141.96600342    4.90999985    2.80999994
   17.11972237  139.48699951    4.90999985    2.78999996
   17.12305641  150.62199402    4.90999985    2.80999994
   17.12638855  143.39700317    4.90999985    2.80999994
   17.13249969  143.39700317    4.90999985    2.80999994
   17.13666725  146.43099976    4.90999985    2.78999996
   17.13972282  135.00000000    4.90999985    2.80999994
   17.14305496  148.29200745    4.90999985    2.80999994
   17.14638901  145.65199280    4.90999985    2.78999996
   17.14944458  140.26699829    4.90999985    2.80999994
   17.15277672  136.49299622    4.90999985    2.80999994
   17.15583229  144.64399719    4.90999985    2.80999994
   17.15916634  130.30599976    4.90999985    2.80999994
   17.16250038  123.50499725    4.90999985    2.78999996
   17.16472244  123.20400238    4.90999985    2.80999994
   17.16611099  129.09800720    4.90999985    2.78999996
   17.16916656  129.82400513    4.90999985    2.80999994
   17.17527771  129.82400513    4.90999985    2.80999994
   17.17944336  138.53399658    4.90999985    2.78999996
   17.18277740  134.93800354    4.90999985    2.78999996
   17.18583298  133.79400635    4.90999985    2.78999996
   17.18916512  128.63699341    4.90999985    2.80999994
   17.19249916  130.78199768    4.90999985    2.82999992
   17.19555473  133.48599243    4.90999985    2.78999996
   17.19805527  132.78700256    4.90999985    2.82999992
   17.19944382  128.35600281    4.90999985    2.80999994
   17.20250130  129.84300232    4.90999985    2.80999994
   17.20583344  134.50199890    4.90999985    2.80999994
   17.20916748  136.17100525    4.90999985    2.80999994
   17.21222305  119.12400055    4.90999985    2.78999996
   17.21805573  119.12400055    4.90999985    2.80999994
   17.22222328  131.79299927    4.90999985    2.80999994
   17.22555542  149.60600281    4.90999985    2.80999994
   17.22861099  131.29800415    4.90999985    2.82999992
   17.23139000  138.26100159    4.90999985    2.80999994
   17.23250008  144.99699402    4.90999985    2.80999994
   17.23555565  138.78999329    4.90999985    2.80999994
   17.23888969  143.65600586    4.90999985    2.80999994
   17.24222183  147.77999878    4.90999985    2.80999994
   17.24527740  137.52099609    4.90999985    2.80999994
   17.24861145  135.52900696    4.90999985    2.80999994
   17.25166702  139.15100098    4.90999985    2.80999994
   17.25499916  140.25199890    4.90999985    2.80999994
   17.26111031  140.25199890    4.90999985    2.80999994
   17.26499939  139.88800049    4.90999985    2.80999994
   17.26833344  144.50100708    4.90999985    2.80999994
   17.27166557  141.12500000    4.90999985    2.80999994
   17.27472115  138.32600403    4.90999985    2.80999994
   17.27805519  150.27400208    4.90999985    2.80999994
   17.28138924  142.38200378    4.90999985    2.80999994
   17.28444481  146.87699890    4.90999985    2.80999994
   17.28777695  148.38999939    4.90999985    2.80999994
   17.29111099  144.71400452    4.90999985    2.80999994
   17.29416656  145.55799866    4.90999985    2.82999992
   17.29749870  152.36799622    4.90999985    2.80999994
   17.29805565  146.52900696    4.90999985    2.82999992
   17.30388832  146.52900696    4.90999985    2.80999994
   17.30805397  137.12899780    4.90999985    2.80999994
   17.31110954  144.77299500    4.90999985    2.80999994
   17.31444359  151.39799500    4.90999985    2.80999994
   17.31777954  132.44099426    4.90999985    2.80999994
   17.32083511  136.77499390    4.90999985    2.80999994
   17.32416725  139.64399719    4.90999985    2.80999994
   17.32722282  137.22099304    4.90999985    2.80999994
   17.33055687  136.97000122    4.90999985    2.78999996
   17.33139038  140.88999939    4.90999985    2.78999996
   17.33416748  154.45100403    4.90999985    2.78999996
   17.33722305  148.93400574    4.90999985    2.80999994
   17.34055710  136.72399902    4.90999985    2.80999994
   17.34666824  136.72399902    4.90999985    2.78999996
   17.35083389  129.03599548    4.90999985    2.80999994
   17.35416794  146.43099976    4.90999985    2.80999994
   17.35722351  130.12600708    4.90999985    2.80999994
   17.36055565  134.88999939    4.90999985    2.82999992
   17.36361122  141.71499634    4.90999985    2.82999992
   17.36472321  143.98100281    4.90999985    2.80999994
   17.36750031  141.29200745    4.90999985    2.82999992
   17.37055588  147.31700134    4.90999985    2.80999994
   17.37388992  152.33599854    4.90999985    2.80999994
   17.37722206  150.66099548    4.90999985    2.80999994
   17.38027763  150.08999634    4.90999985    2.80999994
   17.38361168  141.00900269    4.90999985    2.80999994
   17.38944435  141.00900269    4.90999985    2.80999994
   17.39361191  137.13499451    4.90999985    2.80999994
   17.39694405  136.85600281    4.90999985    2.80999994
   17.39805603  154.58900452    4.90999985    2.82999992
   17.40055466  138.60299683    4.90999985    2.82999992
   17.40361023  129.12300110    4.90999985    2.80999994
   17.40694427  141.53500366    4.90999985    2.80999994
   17.41027832  143.98899841    4.90999985    2.80999994
   17.41333389  138.03599548    4.90999985    2.82999992
   17.41666603  135.08900452    4.90999985    2.80999994
   17.42000008  129.20399475    4.90999985    2.80999994
   17.42305565  139.23699951    4.90999985    2.80999994
   17.42638779  129.85400391    4.90999985    2.80999994
   17.43249893  129.85400391    4.90999985    2.80999994
   17.43638802  140.83999634    4.90999985    2.80999994
   17.43972206  137.86000061    4.90999985    2.80999994
   17.44305420  144.22300720    4.90999985    2.80999994
   17.44610977  136.38000488    4.90999985    2.80999994
   17.44944382  141.50599670    4.90999985    2.80999994
   17.45277786  147.58099365    4.90999985    2.80999994
   17.45583344  144.25900269    4.90999985    2.80999994
   17.45916748  138.16700745    4.90999985    2.80999994
   17.46222305  147.01400757    4.90999985    2.78999996
   17.46472359  151.70399475    4.90999985    2.78999996
   17.46611214  146.47799683    4.90999985    2.78999996
   17.46916771  138.31100464    4.90999985    2.80999994
   17.47527885  138.31100464    4.90999985    2.80999994
   17.47944450  136.60400391    4.90999985    2.80999994
   17.48250008  141.20799255    4.90999985    2.80999994
   17.48583412  132.91400146    4.90999985    2.80999994
   17.48916626  142.06900024    4.90999985    2.80999994
   17.49222183  139.10899353    4.90999985    2.80999994
   17.49555588  143.04400635    4.90999985    2.80999994
   17.49805641  133.52999878    4.90999985    2.80999994
   17.49916649  141.77699280    4.90999985    2.82999992
   17.50250053  144.52799988    4.90999985    2.80999994
   17.50555611  141.49099731    4.90999985    2.80999994
   17.50888824  145.11999512    4.90999985    2.80999994
   17.51194382  143.98500061    4.90999985    2.80999994
   17.51805496  143.98500061    4.90999985    2.80999994
   17.52222252  139.54800415    4.90999985    2.80999994
   17.52555466  135.85099792    4.90999985    2.80999994
   17.52861023  139.58700562    4.90999985    2.80999994
   17.53138924  146.69900513    4.90999985    2.80999994
   17.53222275  144.70100403    4.90999985    2.80999994
   17.53555489  138.55299377    4.90999985    2.80999994
   17.53861046  130.27900696    4.90999985    2.80999994
   17.54194450  131.54400635    4.90999985    2.80999994
   17.54500008  136.42500305    4.90999985    2.80999994
   17.54833221  133.30200195    4.90999985    2.78999996
   17.55166626  127.63400269    4.90999985    2.80999994
   17.55472183  129.81300354    4.90999985    2.80999994
   17.56083298  129.81300354    4.90999985    2.80999994
   17.56499863  125.46299744    4.90999985    2.80999994
   17.56833458  127.06600189    4.90999985    2.80999994
   17.57139015  134.97399902    4.90999985    2.80999994
   17.57472229  129.02900696    4.90999985    2.80999994
   17.57805634  135.31599426    4.90999985    2.78999996
   17.58111191  139.09300232    4.90999985    2.80999994
   17.58444595  123.16200256    4.90999985    2.80999994
   17.58777809  132.44200134    4.90999985    2.78999996
   17.59083366  127.10800171    4.90999985    2.78999996
   17.59416771  130.42399597    4.90999985    2.80999994
   17.59722328  137.07899475    4.90999985    2.78999996
   17.59805679  130.56300354    4.90999985    2.80999994
   17.60388947  130.56300354    4.90999985    2.80999994
   17.60777855  136.63400269    4.90999985    2.80999994
   17.61111069  120.74700165    4.90999985    2.78999996
   17.61444473  129.67599487    4.90999985    2.80999994
   17.61750031  128.20799255    4.90999985    2.80999994
   17.62083435  138.04899597    4.90999985    2.78999996
   17.62416649  135.06799316    4.90999985    2.80999994
   17.62722206  127.43099976    4.90999985    2.80999994
   17.63055611  131.61199951    4.90999985    2.78999996
   17.63138962  130.28199768    4.90999985    2.78999996
   17.63416672  138.49000549    4.90999985    2.80999994
   17.63750076  128.32800293    4.90999985    2.80999994
   17.64055634  128.80599976    4.90999985    2.80999994
   17.64666748  128.80599976    4.90999985    2.78999996
   17.65083313  132.22399902    4.90999985    2.80999994
   17.65388870  134.20599365    4.90999985    2.78999996
   17.65722275  132.42799377    4.90999985    2.80999994
   17.66055489  130.16299438    4.90999985    2.78999996
   17.66361046  140.35099792    4.90999985    2.80999994
   17.66472244  130.92700195    4.90999985    2.78999996
   17.66722107  122.41000366    4.90999985    2.80999994
   17.67055511  133.56900024    4.90999985    2.78999996
   17.67361069  125.35700226    4.90999985    2.78999996
   17.67694473  133.53900146    4.90999985    2.82999992
   17.68000031  134.36399841    4.90999985    2.78999996
   17.68333244  137.99200439    4.90999985    2.78999996
   17.68944359  137.99200439    4.90999985    2.78999996
   17.69361115  127.34200287    4.90999985    2.78999996
   17.69694328  140.90800476    4.90999985    2.78999996
   17.69805527  133.91099548    4.90999985    2.78999996
   17.70055580  136.08399963    4.90999985    2.80999994
   17.70388985  136.80499268    4.90999985    2.78999996
   17.70694542  132.04200745    4.90999985    2.80999994
   17.71027946  132.55400085    4.90999985    2.80999994
   17.71333504  127.69499969    4.90999985    2.78999996
   17.71666718  135.22700500    4.90999985    2.78999996
   17.72000122  126.90899658    4.90999985    2.80999994
   17.72305679  125.92500305    4.90999985    2.80999994
   17.72638893  127.88500214    4.90999985    2.80999994
   17.73222351  127.88500214    4.90999985    2.78999996
   17.73638916  131.44099426    4.90999985    2.80999994
   17.73972321  127.39499664    4.90999985    2.78999996
   17.74277878  130.52299500    4.90999985    2.78999996
   17.74611092  127.26899719    4.90999985    2.80999994
   17.74944496  127.18199921    4.90999985    2.78999996
   17.75250053  128.15899658    4.90999985    2.78999996
   17.75583267  128.62699890    4.90999985    2.78999996
   17.75916672  141.71699524    4.90999985    2.78999996
   17.76222229  136.72399902    4.90999985    2.78999996
   17.76472282  133.59899902    4.90999985    2.78999996
   17.78555489  133.59899902    4.90999985    2.78999996
   17.78972244  135.63699341    4.90999985    2.78999996
   17.79277802  147.40600586    4.90999985    2.78999996
   17.79611015  145.46499634    4.90999985    2.78999996
   17.79805565  143.89999390    4.90999985    2.78999996
   17.79972076  137.56599426    4.90999985    2.78999996
   17.80305481  142.41999817    4.90999985    2.78999996
   17.80638885  149.71499634    4.90999985    2.78999996
   17.80944443  144.10099792    4.90999985    2.80999994
   17.81277657  148.49200439    4.90999985    2.78999996
   17.81583214  140.44900513    4.90999985    2.78999996
   17.81916809  147.38499451    4.90999985    2.78999996
   17.82250023  145.89900208    4.90999985    2.78999996
   17.82833481  145.89900208    4.90999985    2.78999996
   17.83222389  148.23300171    4.90999985    2.78999996
   17.83555603  139.99899292    4.90999985    2.78999996
   17.83889008  147.44500732    4.90999985    2.78999996
   17.84194565  150.35099792    4.90999985    2.78999996
   17.84527779  146.62899780    4.90999985    2.78999996
   17.84861183  147.38099670    4.90999985    2.80999994
   17.85166740  148.34899902    4.90999985    2.80999994
   17.85499954  146.28100586    4.90999985    2.78999996
   17.85805511  156.36000061    4.90999985    2.78999996
   17.86138916  152.80099487    4.90999985    2.78999996
   17.86472321  148.75799561    4.90999985    2.78999996
   17.86527824  145.40400696    4.90999985    2.78999996
   17.87111092  145.40400696    4.90999985    2.78999996
   17.87527847  149.00199890    4.90999985    2.78999996
   17.87833405  146.11399841    4.90999985    2.80999994
   17.88166618  144.90800476    4.90999985    2.76999998
   17.88500023  144.01899719    4.90999985    2.78999996
   17.88805580  144.22200012    4.90999985    2.78999996
   17.89138794  145.51899719    4.90999985    2.78999996
   17.89444351  142.33700562    4.90999985    2.78999996
   17.89777756  142.25199890    4.90999985    2.78999996
   17.89861107  142.18400574    4.90999985    2.78999996
   17.90138817  149.53599548    4.90999985    2.78999996
   17.90472221  144.76600647    4.90999985    2.78999996
   17.90805435  141.55400085    4.90999985    2.78999996
   17.91388893  141.55400085    4.90999985    2.78999996
   17.91805458  141.89599609    4.90999985    2.78999996
   17.92138863  146.90299988    4.90999985    2.78999996
   17.92444420  142.84599304    4.90999985    2.78999996
   17.92777634  143.66600037    4.90999985    2.78999996
   17.93083191  145.15699768    4.90999985    2.78999996
   17.93194389  143.72099304    4.90999985    2.80999994
   17.93444443  153.12500000    4.90999985    2.78999996
   17.93777657  144.58299255    4.90999985    2.78999996
   17.94111061  140.03700256    4.90999985    2.80999994
   17.94416618  140.98699951    4.90999985    2.78999996
   17.94749832  138.61399841    4.90999985    2.80999994
   17.95055580  140.74800110    4.90999985    2.80999994
   17.95666695  140.74800110    4.90999985    2.78999996
   17.96083450  138.29800415    4.90999985    2.78999996
   17.96416664  136.11199951    4.90999985    2.78999996
   17.96527863  131.72099304    4.90999985    2.78999996
   17.96777916  137.33200073    4.90999985    2.78999996
   17.97111130  139.67300415    4.90999985    2.78999996
   17.97444534  148.21299744    4.90999985    2.78999996
   17.97750092  140.36399841    4.90999985    2.78999996
   17.98083305  146.04200745    4.90999985    2.78999996
   17.98388863  147.05599976    4.90999985    2.78999996
   17.98722267  145.80499268    4.90999985    2.78999996
   17.99055672  145.48300171    4.90999985    2.78999996
   17.99361229  139.48699951    4.90999985    2.78999996
   17.99972153  139.48699951    4.90999985    2.78999996
   18.00361061  148.68899536    4.90999985    2.78999996
   18.00694466  135.41799927    4.90999985    2.78999996
   18.01027870  140.36000061    4.90999985    2.78999996
   18.01333427  135.74699402    4.90999985    2.78999996
   18.01666641  140.19000244    4.90999985    2.78999996
   18.02000046  137.04699707    4.90999985    2.78999996
   18.02305603  140.53300476    4.90999985    2.78999996
   18.02638817  133.52000427    4.90999985    2.78999996
   18.02944374  129.14799500    4.90999985    2.78999996
   18.03194427  127.50800323    4.90999985    2.78999996
   18.03305435  140.01600647    4.90999985    2.78999996
   18.03638840  134.58799744    4.90999985    2.78999996
   18.04249954  134.58799744    4.90999985    2.78999996
   18.04666710  145.41600037    4.90999985    2.78999996
   18.04972076  141.49499512    4.90999985    2.78999996
   18.05305481  139.18099976    4.90999985    2.78999996
   18.05638885  142.55400085    4.90999985    2.78999996
   18.05944443  140.85600281    4.90999985    2.78999996
   18.06277657  140.25599670    4.90999985    2.78999996
   18.06527710  143.66400146    4.90999985    2.78999996
   18.06638718  145.43099976    4.90999985    2.78999996
   18.06972313  149.37300110    4.90999985    2.78999996
   18.07305717  138.32699585    4.90999985    2.78999996
   18.07611275  139.41999817    4.90999985    2.78999996
   18.07944489  142.61999512    4.90999985    2.78999996
   18.08527756  142.61999512    4.90999985    2.78999996
   18.08944511  145.89399719    4.90999985    2.78999996
   18.09277916  145.79600525    4.90999985    2.78999996
   18.09583473  139.02900696    4.90999985    2.78999996
   18.09861183  148.11700439    4.90999985    2.78999996
   18.09944534  143.52200317    4.90999985    2.78999996
   18.10277748  135.25599670    4.90999985    2.78999996
   18.10611153  145.45500183    4.90999985    2.78999996
   18.10916710  154.25399780    4.90999985    2.78999996
   18.11250114  133.55400085    4.90999985    2.78999996
   18.11555672  134.62800598    4.90999985    2.78999996
   18.11888885  136.90899658    4.90999985    2.78999996
   18.12222290  138.21200562    4.90999985    2.78999996
   18.12805557  138.21200562    4.90999985    2.78999996
   18.13222313  139.37399292    4.90999985    2.78999996
   18.13555527  135.54299927    4.90999985    2.78999996
   18.13861084  129.05099487    4.90999985    2.78999996
   18.14194489  134.27600098    4.90999985    2.78999996
   18.14527702  135.89900208    4.90999985    2.78999996
   18.14833260  136.21000671    4.90999985    2.78999996
   18.15166664  127.95899963    4.90999985    2.78999996
   18.15499878  141.31399536    4.90999985    2.76999998
   18.15805435  141.93400574    4.90999985    2.78999996
   18.16138840  132.47900391    4.90999985    2.78999996
   18.16444397  137.27099609    4.90999985    2.78999996
   18.16527748  140.88299561    4.90999985    2.78999996
   18.17111015  140.88299561    4.90999985    2.78999996
   18.17499924  143.69500732    4.90999985    2.78999996
   18.17833328  140.99899292    4.90999985    2.76999998
   18.18166542  145.60299683    4.90999985    2.78999996
   18.18472099  147.69299316    4.90999985    2.76999998
   18.18805504  159.08999634    4.90999985    2.78999996
   18.19111061  145.46699524    4.90999985    2.78999996
   18.19444275  145.60200500    4.90999985    2.78999996
   18.19777679  147.24200439    4.90999985    2.78999996
   18.19861031  140.25199890    4.90999985    2.78999996
   18.20111275  132.16999817    4.90999985    2.78999996
   18.20444489  144.81300354    4.90999985    2.78999996
   18.20777893  141.45700073    4.90999985    2.78999996
   18.21389008  141.45700073    4.90999985    2.78999996
   18.21805573  138.90899658    4.90999985    2.76999998
   18.22111130  127.91899872    4.90999985    2.76999998
   18.22444534  143.19400024    4.90999985    2.78999996
   18.22777748  138.78900146    4.90999985    2.76999998
   18.23083305  144.81700134    4.90999985    2.76999998
   18.23194504  138.37500000    4.90999985    2.76999998
   18.23444557  143.67199707    4.90999985    2.76999998
   18.23777771  138.18400574    4.90999985    2.78999996
   18.24111176  148.12600708    4.90999985    2.78999996
   18.24416733  145.48500061    4.90999985    2.78999996
   18.24749947  139.98800659    4.90999985    2.76999998
   18.25083351  139.35899353    4.90999985    2.76999998
   18.25666618  139.35899353    4.90999985    2.76999998
   18.26083374  138.54899597    4.90999985    2.76999998
   18.26388931  144.12300110    4.90999985    2.76999998
   18.26527786  140.67199707    4.90999985    2.76999998
   18.26749992  149.41799927    4.90999985    2.76999998
   18.27083397  145.18800354    4.90999985    2.76999998
   18.27416611  146.16000366    4.90999985    2.76999998
   18.27722168  142.12800598    4.90999985    2.76999998
   18.28055573  145.26499939    4.90999985    2.78999996
   18.28388786  131.96899414    4.90999985    2.75000000
   18.28694344  138.63600159    4.90999985    2.76999998
   18.29027748  135.22700500    4.90999985    2.76999998
   18.29333305  141.88299561    4.90999985    2.76999998
   18.29944420  141.88299561    4.90999985    2.76999998
   18.30360985  133.38900757    4.90999985    2.76999998
   18.30694389  136.63499451    4.90999985    2.78999996
   18.30999947  132.67399597    4.90999985    2.78999996
   18.31333351  135.22300720    4.90999985    2.78999996
   18.31666756  135.67999268    4.90999985    2.76999998
   18.31972313  141.77400208    4.90999985    2.76999998
   18.32305717  139.50900269    4.90999985    2.76999998
   18.32611275  125.44400024    4.90999985    2.78999996
   18.32944489  135.59599304    4.90999985    2.76999998
   18.33194542  131.42799377    4.90999985    2.76999998
   18.33305550  125.88300323    4.90999985    2.76999998
   18.33638954  128.62699890    4.90999985    2.78999996
   18.34222221  128.62699890    4.90999985    2.78999996
   18.34638977  136.34899902    4.90999985    2.78999996
   18.34972191  135.75999451    4.90999985    2.78999996
   18.35305595  141.63200378    4.90999985    2.78999996
   18.35611153  138.80299377    4.90999985    2.76999998
   18.35944557  135.27799988    4.90999985    2.76999998
   18.36250114  131.41600037    4.90999985    2.76999998
   18.36527824  134.32299805    4.90999985    2.76999998
   18.36638832  139.44999695    4.90999985    2.78999996
   18.36944389  134.81399536    4.90999985    2.78999996
   18.37277794  142.88400269    4.90999985    2.78999996
   18.37583351  145.50799561    4.90999985    2.78999996
   18.37916756  144.50199890    4.90999985    2.78999996
   18.38527679  144.50199890    4.90999985    2.76999998
   18.38944435  126.14900208    4.90999985    2.76999998
   18.39249992  129.66700745    4.90999985    2.78999996
   18.39583397  127.94599915    4.90999985    2.78999996
   18.39861107  135.42700195    4.90999985    2.76999998
   18.39916611  124.15100098    4.90999985    2.76999998
   18.40250015  126.05100250    4.90999985    2.76999998
   18.40583229  133.48599243    4.90999985    2.76999998
   18.40916634  136.21600342    4.90999985    2.76999998
   18.41222191  138.79200745    4.90999985    2.78999996
   18.41555595  142.07499695    4.90999985    2.78999996
   18.41860962  142.43400574    4.90999985    2.78999996
   18.42194366  136.40800476    4.90999985    2.78999996
   18.42805481  136.40800476    4.90999985    2.76999998
   18.43222237  145.32499695    4.90999985    2.76999998
   18.43527603  142.16700745    4.90999985    2.76999998
   18.43861008  140.66900635    4.90999985    2.76999998
   18.44194412  135.17100525    4.90999985    2.76999998
   18.44499969  134.67399597    4.90999985    2.76999998
   18.44833183  139.49899292    4.90999985    2.76999998
   18.45166779  137.30799866    4.90999985    2.78999996
   18.45472336  143.88600159    4.90999985    2.76999998
   18.45805550  139.91200256    4.90999985    2.76999998
   18.46111107  144.34899902    4.90999985    2.76999998
   18.46444511  132.97599792    4.90999985    2.76999998
   18.46527863  141.19700623    4.90999985    2.76999998
   18.47083473  141.19700623    4.90999985    2.76999998
   18.47500038  136.96299744    4.90999985    2.76999998
   18.47833443  153.91200256    4.90999985    2.76999998
   18.48139000  139.16400146    4.90999985    2.76999998
   18.48472214  141.25000000    4.90999985    2.76999998
   18.48805618  133.36799622    4.90999985    2.75000000
   18.49111176  132.57899475    4.90999985    2.76999998
   18.49444389  136.53900146    4.90999985    2.76999998
   18.49777794  140.06100464    4.90999985    2.76999998
   18.49861145  154.68099976    4.90999985    2.76999998
   18.50138855  145.79299927    4.90999985    2.76999998
   18.50444412  145.94900513    4.90999985    2.76999998
   18.50777817  137.82099915    4.90999985    2.75000000
   18.51361084  137.82099915    4.90999985    2.75000000
   18.51777840  141.75999451    4.90999985    2.76999998
   18.52111053  139.05400085    4.90999985    2.76999998
   18.52444458  140.64999390    4.90999985    2.75000000
   18.52750015  150.66600037    4.90999985    2.76999998
   18.53083229  145.24200439    4.90999985    2.75000000
   18.53194427  147.88699341    4.90999985    2.76999998
   18.53444481  146.12600708    4.90999985    2.75000000
   18.53750038  145.54100037    4.90999985    2.76999998
   18.54083252  146.28399658    4.90999985    2.76999998
   18.54388809  138.28100586    4.90999985    2.75000000
   18.54722214  141.21000671    4.90999985    2.75000000
   18.55055428  138.95199585    4.90999985    2.76999998
   18.55666542  138.95199585    4.90999985    2.76999998
   18.56083298  140.52499390    4.90999985    2.76999998
   18.56388855  140.83500671    4.90999985    2.76999998
   18.56527710  140.81300354    4.90999985    2.76999998
   18.56777954  144.00300598    4.90999985    2.75000000
   18.57083511  153.72900391    4.90999985    2.76999998
   18.57416725  148.83299255    4.90999985    2.76999998
   18.57722282  145.29800415    4.90999985    2.76999998
   18.58055687  138.88999939    4.90999985    2.76999998
   18.58388901  147.70599365    4.90999985    2.76999998
   18.58694458  151.99899292    4.90999985    2.76999998
   18.59027863  146.72200012    4.90999985    2.75000000
   18.59361267  143.42999268    4.90999985    2.76999998
   18.59944534  143.42999268    4.90999985    2.76999998
   18.60361099  144.51800537    4.90999985    2.75000000
   18.60666656  153.78100586    4.90999985    2.75000000
   18.61000061  146.20300293    4.90999985    2.76999998
   18.61333466  140.64599609    4.90999985    2.75000000
   18.61638832  148.44900513    4.90999985    2.75000000
   18.61972237  149.69599915    4.90999985    2.75000000
   18.62305641  137.06100464    4.90999985    2.76999998
   18.62611198  133.32499695    4.90999985    2.75000000
   18.62944412  142.01800537    4.90999985    2.75000000
   18.63194466  136.46899414    4.90999985    2.76999998
   18.63305473  149.07099915    4.90999985    2.75000000
   18.63611031  141.22000122    4.90999985    2.76999998
   18.64222145  141.22000122    4.90999985    2.75000000
   18.64638901  145.01100159    4.90999985    2.75000000
   18.64972115  147.71299744    4.90999985    2.75000000
   18.65277672  146.17399597    4.90999985    2.75000000
   18.65611076  139.70300293    4.90999985    2.75000000
   18.65944481  150.57899475    4.90999985    2.75000000
   18.66250038  147.99000549    4.90999985    2.75000000
   18.66527748  144.73500061    4.90999985    2.76999998
   18.66638756  142.50700378    4.90999985    2.75000000
   18.66944313  138.28599548    4.90999985    2.75000000
   18.67277718  147.63900757    4.90999985    2.78999996
   18.67611122  147.31900024    0.09000000    0.52999997
   18.67916679  148.19200134    0.05000000    0.30000001
   18.68499947  148.19200134    0.05000000    0.07000000
   18.68916512  144.36799622    0.05000000    0.07000000
   18.69249916  139.46899414    0.05000000    0.07000000
   18.69583321  146.00599670    0.05000000    0.07000000
   18.69861031  146.47200012    0.05000000    0.07000000
   18.69944382  148.35899353    0.05000000    0.07000000
   18.70250130  140.22000122    0.05000000    0.07000000
   18.70583344  144.95899963    0.05000000    0.07000000
   18.70916748  138.91000366    0.05000000    0.07000000
   18.71222305  146.83799744    0.05000000    0.07000000
   18.71555710  147.89199829    0.05000000    0.07000000
   18.71861076  142.31599426    0.05000000    0.07000000
   18.72194481  145.97599792    0.05000000    0.07000000
   18.72805595  145.97599792    0.05000000    0.07000000
   18.73222351  145.38499451    0.05000000    0.07000000
   18.73527718  153.58000183    0.05000000    0.07000000
   18.73861122  145.72599792    0.05000000    0.07000000
   18.74166679  150.84599304    0.05000000    0.07000000
   18.74500084  136.27200317    0.05000000    0.07000000
   18.74833298  138.51600647    0.05000000    0.07000000
   18.75138855  151.11599731    0.05000000    0.07000000
   18.75472260  144.35400391    0.05000000    0.07000000
   18.75805473  157.17100525    0.05000000    0.07000000
   18.76111031  144.26899719    0.05000000    0.07000000
   18.76444435  138.39900208    0.05000000    0.07000000
   18.76527786  146.25999451    0.05000000    0.07000000
   18.77083397  146.25999451    0.05000000    0.07000000
   18.77499962  147.17999268    0.05000000    0.07000000
   18.77805519  143.89999390    0.05000000    0.07000000
   18.78138924  147.94400024    0.05000000    0.07000000
   18.79888916  136.69700623    0.05000000    0.07000000
   18.80138779  150.65100098    0.05000000    0.07000000
   18.80444336  142.87100220    0.05000000    0.07000000
   18.80777740  157.76499939    0.05000000    0.07000000
   18.81388855  157.76499939    0.05000000    0.07000000
   18.81805611  144.56700134    0.05000000    0.07000000
   18.82111168  144.17399597    0.05000000    0.07000000
   18.82444572  142.30700684    0.05000000    0.07000000
   18.82777786  144.17700195    0.05000000    0.07000000
   18.83083344  151.45899963    0.05000000    0.07000000
   18.83222389  138.35699463    0.05000000    0.07000000
   18.83472252  145.72200012    0.05000000    0.07000000
   18.83777809  143.87100220    0.05000000    0.07000000
   18.84111214  157.48500061    0.05000000    0.07000000
   18.84444427  138.15199280    0.05000000    0.07000000
   18.84749985  139.63999939    0.05000000    0.07000000
   18.85083389  143.23199463    0.05000000    0.07000000
   18.85666656  143.23199463    0.05000000    0.07000000
   18.86083412  142.53399658    0.05000000    0.07000000
   18.86416626  146.61500549    0.05000000    0.07000000
   18.86555672  139.23100281    0.05000000    0.07000000
   18.86777878  141.50399780    0.05000000    0.07000000
   18.87083435  139.54899597    0.05000000    0.07000000
   18.87416649  146.67100525    0.05000000    0.07000000
   18.87722206  142.37600708    0.05000000    0.07000000
   18.88055611  134.67399597    0.05000000    0.07000000
   18.88388824  140.48100281    0.05000000    0.07000000
   18.88694382  136.64700317    0.05000000    0.07000000
   18.89027786  140.40499878    0.05000000    0.07000000
   18.89361191  131.83099365    0.05000000    0.07000000
   18.89944458  131.83099365    0.05000000    0.07000000
   18.90361023  136.08299255    0.05000000    0.07000000
   18.90694427  140.87600708    0.05000000    0.07000000
   18.91027832  137.75999451    0.05000000    0.07000000
   18.91333389  148.31399536    0.05000000    0.07000000
   18.91666603  135.85000610    0.05000000    0.07000000
   18.92000008  136.47399902    0.05000000    0.07000000
   18.92305565  151.79699707    0.05000000    0.07000000
   18.92638779  137.35000610    0.05000000    0.07000000
   18.92972183  140.26899719    0.05000000    0.07000000
   18.93222237  144.10099792    0.05000000    0.07000000
   18.93333244  142.97799683    0.05000000    0.07000000
   18.93638802  148.37699890    0.05000000    0.07000000
   18.94249916  148.37699890    0.05000000    0.07000000
   18.95166779  136.34100342    0.05000000    0.07000000
   18.95472336  145.63900757    0.05000000    0.07000000
   18.95805550  142.05200195    0.05000000    0.07000000
   18.96138954  142.50500488    0.05000000    0.07000000
   18.96444511  142.85400391    0.05000000    0.07000000
   18.96888924  142.85400391    0.05000000    0.07000000
   18.97305679  142.12199402    0.05000000    0.07000000
   18.97611237  137.84100342    0.05000000    0.07000000
   18.97944450  135.81700134    0.05000000    0.07000000
   18.98277855  144.05299377    0.05000000    0.07000000
   18.98583412  143.62100220    0.05000000    0.07000000
   18.98916626  135.64500427    0.05000000    0.07000000
   18.99250031  139.81300354    0.05000000    0.07000000
   18.99555588  143.25300598    0.05000000    0.07000000
   18.99888992  141.98399353    0.05000000    0.07000000
   18.99972153  136.21600342    0.05000000    0.07000000
   19.00250053  139.74000549    0.05000000    0.07000000
   19.00555611  138.20700073    0.05000000    0.07000000
   19.01166725  138.20700073    0.05000000    0.07000000
   19.01583290  132.74299622    0.05000000    0.07000000
   19.01916695  132.67999268    0.05000000    0.07000000
   19.02222252  147.48699951    0.05000000    0.07000000
