    HOUR (UT)   FLARE FACTOR    SKY TESTER    SUN TESTER
   11.63749981   -1.00000000   -1.00000000   -1.00000000
   11.66444397  306.24798584    0.00000000    0.00000000
   11.66750050  332.91198730    0.00000000    0.00000000
   11.67083359  294.10699463    0.00000000    0.00000000
   11.67416668  330.11199951    0.00000000    0.00000000
   11.67722225  257.45098877    0.00000000    0.00000000
   11.68055630  281.26300049    0.00000000    0.00000000
   11.68472195  281.26300049    0.00000000    0.00000000
   11.68888855  286.43301392    0.00000000    0.00000000
   11.69194412  345.54299927    0.00000000    0.00000000
   11.69527817  275.84698486    0.00000000    0.00000000
   11.69777775  280.44799805    0.00000000    0.00000000
   11.69888878  344.91900635    0.00000000    0.00000000
   11.70222187  318.48498535    0.00000000    0.00000000
   11.70527744  280.39999390    0.00000000    0.00000000
   11.70861053  336.66900635    0.00000000    0.00000000
   11.71222210  275.98498535    0.00000000    0.00000000
   11.71555519  277.56500244    0.00000000    0.00000000
   11.71861076  280.56698608    0.00000000    0.00000000
   11.72194386  290.82000732    0.00000000    0.00000000
   11.72749996  290.82000732    0.00000000    0.00000000
   11.73166656  252.79100037    0.00000000    0.00000000
   11.73500061  255.84300232    0.00000000    0.00000000
   11.73805618  288.69799805    0.00000000    0.00000000
   11.74138927  240.98899841    0.00000000    0.00000000
   11.74472237  292.01599121    0.00000000    0.00000000
   11.74777794  253.10899353    0.00000000    0.00000000
   11.75111103  257.74398804    0.00000000    0.00000000
   11.75444412  271.12298584    0.00000000    0.00000000
   11.75749969  231.12500000    0.00000000    0.00000000
   11.76083374  230.33599854    0.00000000    0.00000000
   11.76416683  257.39801025    0.00000000    0.00000000
   11.76444435  243.94500732    0.00000000    0.00000000
   11.77027798  243.94500732    0.00000000    0.00000000
   11.77444458  235.57800293    0.00000000    0.00000000
   11.77777767  227.32800293    0.00000000    0.00000000
   11.78083324  249.59300232    0.00000000    0.00000000
   11.78416729  245.49400330    0.00000000    0.00000000
   11.78750038  257.50000000    0.00000000    0.00000000
   11.79055595  264.62100220    0.00000000    0.00000000
   11.79388905  252.70700073    0.00000000    0.00000000
   11.79694462  245.15499878    0.00000000    0.00000000
   11.79777813  233.43800354    0.00000000    0.00000000
   11.80055618  222.30200195    0.00000000    0.00000000
   11.80388927  276.04901123    0.00000000    0.00000000
   11.80694485  239.55099487    0.00000000    0.00000000
   11.81333351  239.55099487    0.00000000    0.00000000
   11.81722260  274.13198853    0.00000000    0.00000000
   11.82055569  219.58399963    0.00000000    0.00000000
   11.82388878  247.91099548    0.00000000    0.00000000
   11.82694435  258.65701294    0.00000000    0.00000000
   11.83027744  206.51800537    0.00000000    0.00000000
   11.83111095  208.97099304    0.00000000    0.00000000
   11.83388901  227.49600220    0.00000000    0.00000000
   11.83722210  211.24600220    0.00000000    0.00000000
   11.84027767  213.90499878    0.00000000    0.00000000
   11.84361076  221.71699524    0.00000000    0.00000000
   11.84694386  218.44099426    0.00000000    0.00000000
   11.85000038  214.07699585    0.00000000    0.00000000
   11.85611153  214.07699585    0.00000000    0.00000000
   11.86027813  232.83099365    0.00000000    0.00000000
   11.86333370  220.40100098    0.00000000    0.00000000
   11.86444473  196.38400269    0.00000000    0.00000000
   11.86694431  208.04200745    0.00000000    0.00000000
   11.87027836  234.48500061    0.00000000    0.00000000
   11.87333393  222.23300171    0.00000000    0.00000000
   11.87666702  229.36399841    0.00000000    0.00000000
   11.88000011  222.65499878    0.00000000    0.00000000
   11.88305569  222.83599854    0.00000000    0.00000000
   11.88638878  212.78500366    0.00000000    0.00000000
   11.88944435  192.89199829    0.00000000    0.00000000
   11.89277744  206.44700623    0.00000000    0.00000000
   11.89888859  206.44700623    0.00000000    0.00000000
   11.90305519  209.27400208    0.00000000    0.00000000
   11.90638828  207.10299683    0.00000000    0.00000000
   11.90944386  221.80200195    0.00000000    0.00000000
   11.91277695  228.77099609    0.00000000    0.00000000
   11.91611099  211.48399353    0.00000000    0.00000000
   11.91916656  201.71699524    0.00000000    0.00000000
   11.92250061  216.70700073    0.00000000    0.00000000
   11.92555618  210.88699341    0.00000000    0.00000000
   11.92888927  204.22599792    0.00000000    0.00000000
   11.93111134  194.64100647    0.00000000    0.00000000
   11.93249989  208.16099548    0.00000000    0.00000000
   11.93583298  219.44400024    0.00000000    0.00000000
   11.94166660  219.44400024    0.00000000    0.00000000
   11.94583321  231.98599243    0.00000000    0.00000000
   11.94916630  221.58500671    0.00000000    0.00000000
   11.95222187  213.65899658    0.00000000    0.00000000
   11.95555496  205.71800232    0.00000000    0.00000000
   11.95888901  196.70599365    0.00000000    0.00000000
   11.96194458  213.76600647    0.00000000    0.00000000
   11.96444416  220.39799500    0.00000000    0.00000000
   11.96555519  211.43600464    0.00000000    0.00000000
   11.96888828  219.65199280    0.00000000    0.00000000
   11.97194386  228.99200439    0.00000000    0.00000000
   11.97527695  217.16099548    0.00000000    0.00000000
   11.97861099  195.28799438    0.00000000    0.00000000
   11.98472214  195.28799438    0.00000000    0.00000000
   11.98861122  192.47200012    0.00000000    0.00000000
   11.99194431  220.91299438    0.00000000    0.00000000
   11.99527836  196.41600037    0.00000000    0.00000000
   11.99805546  197.25500488    0.00000000    0.00000000
   11.99888897  211.73100281    0.00000000    0.00000000
   12.00222206  204.88499451    0.00000000    0.00000000
   12.00527763  205.57400513    0.00000000    0.00000000
   12.00861073  225.51300049    0.00000000    0.00000000
   12.01194477  193.24899292    0.00000000    0.00000000
   12.01500034  232.50900269    0.00000000    0.00000000
   12.01833344  222.07400513    0.00000000    0.00000000
   12.02138901  206.48800659    0.00000000    0.00000000
   12.02750015  206.48800659    0.00000000    0.00000000
   12.03166676  199.49699402    0.00000000    0.00000000
   12.03472233  196.00300598    0.00000000    0.00000000
   12.03805637  204.83299255    0.00000000    0.00000000
   12.04111195  222.87500000    0.00000000    0.00000000
   12.04444504  216.90499878    0.00000000    0.00000000
   12.04777813  198.50900269    0.00000000    0.00000000
   12.05083370  205.24000549    0.00000000    0.00000000
   12.05416679  197.15800476    0.00000000    0.00000000
   12.05749989  200.81599426    0.00000000    0.00000000
   12.06055546  196.64999390    0.00000000    0.00000000
   12.06388950  193.13099670    0.00000000    0.00000000
   12.06472206  189.26199341    0.00000000    0.00000000
   12.07027817  189.26199341    0.00000000    0.00000000
   12.07444477  180.23699951    0.00000000    0.00000000
   12.07750034  198.11199951    0.00000000    0.00000000
   12.08111095  186.15600586    0.00000000    0.00000000
   12.08416653  187.38200378    0.00000000    0.00000000
   12.08749962  190.82099915    0.00000000    0.00000000
   12.09055519  179.34199524    0.00000000    0.00000000
   12.09388828  183.87399292    0.00000000    0.00000000
   12.09722233  184.48300171    0.00000000    0.00000000
   12.09805489  188.71699524    0.00000000    0.00000000
   12.10083389  188.59899902    0.00000000    0.00000000
   12.10416698  186.97399902    0.00000000    0.00000000
   12.10722256  178.19999695    4.90999985    2.39000010
   12.11305618  178.19999695    4.90999985    2.39000010
   12.11722279  177.63000488    4.90999985    2.39000010
   12.12055588  189.08799744    4.90999985    2.39000010
   12.12361145  198.20500183    4.90999985    2.39000010
   12.12694454  186.35600281    4.90999985    2.39000010
   12.13027763  174.75199890    4.90999985    2.39000010
   12.13138866  186.95300293    4.90999985    2.39000010
   12.13361073  192.58700562    4.90999985    2.39000010
   12.13694477  175.46099854    4.90999985    2.39000010
   12.14000034  183.52400208    4.90999985    2.39000010
   12.14333344  182.58599854    4.90999985    2.39000010
   12.14666653  188.98199463    4.90999985    2.39000010
   12.14972210  194.35200500    4.90999985    2.39000010
   12.15611076  194.35200500    4.90999985    2.39000010
   12.15999985  173.23300171    4.90999985    2.39000010
   12.16333294  188.60699463    4.90999985    2.39000010
   12.16472149  176.90800476    4.90999985    2.39000010
   12.16694450  179.46699524    4.90999985    2.39000010
   12.17027855  175.28500366    4.90999985    2.39000010
   12.17333412  188.64199829    4.90999985    2.39000010
   12.17666721  173.74800110    4.90999985    2.39000010
   12.18000031  185.42100525    4.90999985    2.39000010
   12.18305588  179.86399841    4.90999985    2.39000010
   12.18638897  173.02000427    4.90999985    2.39000010
   12.18972206  191.48100281    4.90999985    2.39000010
   12.19277763  182.97200012    4.90999985    2.39000010
   12.19888878  182.97200012    4.90999985    2.39000010
   12.20305538  195.89399719    4.90999985    2.39000010
   12.20611095  181.20399475    4.90999985    2.39000010
   12.20944405  152.80599976    4.90999985    2.39000010
   12.21277714  174.07200623    4.90999985    2.39000010
   12.21583271  170.19099426    4.90999985    2.39000010
   12.21916580  177.23199463    4.90999985    2.39000010
   12.22222137  172.39300537    4.90999985    2.39000010
   12.22555542  179.66200256    4.90999985    2.39000010
   12.22888851  169.27000427    4.90999985    2.39000010
   12.23138809  169.95599365    4.90999985    2.39000010
   12.23222160  185.57099915    4.90999985    2.39000010
   12.23555565  169.99600220    4.90999985    2.39000010
   12.24166679  169.99600220    4.90999985    2.39000010
   12.24583340  176.16600037    4.90999985    2.39000010
   12.24916649  176.37699890    4.90999985    2.39000010
   12.25222206  179.59399414    4.90999985    2.39000010
   12.25555515  177.91000366    4.90999985    2.39000010
   12.25888920  181.69500732    4.90999985    2.39000010
   12.26194477  167.85899353    4.90999985    2.39000010
   12.26472187  182.73599243    4.90999985    2.39000010
   12.26555538  185.93200684    4.90999985    2.39000010
   12.26888847  178.10600281    4.90999985    2.39000010
   12.27194405  182.29200745    4.90999985    2.39000010
   12.27527714  173.16299438    4.90999985    2.39000010
   12.27861118  174.58599854    4.90999985    2.39000010
   12.28444481  174.58599854    4.90999985    2.39000010
   12.28861141  187.24499512    4.90999985    2.39000010
   12.29194450  181.52900696    4.90999985    2.39000010
   12.29500008  171.82299805    4.90999985    2.39000010
   12.29805565  175.84899902    4.90999985    2.39000010
   12.29861164  179.68899536    4.90999985    2.39000010
   12.30194473  195.82699585    4.90999985    2.39000010
   12.30500031  208.99699402    4.90999985    2.39000010
   12.30833340  180.27699280    4.90999985    2.39000010
   12.31166649  192.86599731    4.90999985    2.39000010
   12.31472206  195.64900208    4.90999985    2.39000010
   12.31805515  203.20100403    4.90999985    2.39000010
   12.32138920  218.55200195    4.90999985    2.39000010
   12.32750034  218.55200195    4.90999985    2.39000010
   12.33138847  190.66600037    4.90999985    2.39000010
   12.33472157  183.46899414    4.90999985    2.39000010
   12.33805561  179.81700134    4.90999985    2.39000010
   12.34111118  180.54100037    4.90999985    2.39000010
   12.34444427  180.94799805    4.90999985    2.39000010
   12.34777737  173.33999634    4.90999985    2.39000010
   12.35083389  167.87600708    4.90999985    2.39000010
   12.35416698  178.77200317    4.90999985    2.39000010
   12.35750008  167.90899658    4.90999985    2.39000010
   12.36055565  182.38400269    4.90999985    2.39000010
   12.36388969  175.16099548    4.90999985    2.39000010
   12.36472225  173.19299316    4.90999985    2.39000010
   12.37027836  173.19299316    4.90999985    2.39000010
   12.37444496  166.55000305    4.90999985    2.39000010
   12.37750053  173.58299255    4.90999985    2.39000010
   12.38083363  175.22500610    4.90999985    2.39000010
   12.38388920  173.14300537    4.90999985    2.39000010
   12.38722229  167.88900757    4.90999985    2.39000010
   12.39055538  162.69999695    4.90999985    2.39000010
   12.39361095  157.81199646    4.90999985    2.39000010
   12.39694405  166.58900452    4.90999985    2.39000010
   12.39805508  159.23500061    4.90999985    2.39000010
   12.40055561  156.72200012    4.90999985    2.39000010
   12.40388870  166.25100708    4.90999985    2.39000010
   12.40722179  161.99800110    4.90999985    2.39000010
   12.41305542  161.99800110    4.90999985    2.39000010
   12.41722298  167.10000610    4.90999985    2.39000010
   12.42027855  178.11599731    4.90999985    2.39000010
   12.42361164  181.69099426    4.90999985    2.39000010
   12.42694473  174.71499634    4.90999985    2.39000010
   12.43027782  170.28599548    4.90999985    2.39000010
   12.43138885  164.14999390    4.90999985    2.39000010
   12.43388939  166.71299744    4.90999985    2.39000010
   12.43722248  154.60699463    4.90999985    2.39000010
   12.44055557  161.79299927    4.90999985    2.39000010
   12.44361115  163.66999817    4.90999985    2.39000010
   12.44694424  164.51100159    4.90999985    2.39000010
   12.45027733  167.45799255    4.90999985    2.39000010
   12.45583344  167.45799255    4.90999985    2.39000010
   12.46000004  167.45700073    4.90999985    2.39000010
   12.46333313  168.38400269    4.90999985    2.39000010
   12.46472168  159.70399475    4.90999985    2.39000010
   12.46666622  170.86799622    4.90999985    2.39000010
   12.46999931  167.75500488    4.90999985    2.39000010
   12.47333336  160.98300171    4.90999985    2.39000010
   12.47638798  169.54699707    4.90999985    2.39000010
   12.47972202  162.74099731    4.90999985    2.39000010
   12.48305511  171.88000488    4.90999985    2.39000010
   12.48611164  161.26800537    4.90999985    2.39000010
   12.48944473  182.02099609    4.90999985    2.39000010
   12.49277782  171.22300720    4.90999985    2.39000010
   12.49888897  171.22300720    4.90999985    2.39000010
   12.50277805  158.17999268    4.90999985    2.39000010
   12.50611115  169.02200317    4.90999985    2.39000010
   12.50944424  166.34500122    4.90999985    2.39000010
   12.51249981  169.74400330    4.90999985    2.39000010
   12.51583290  168.63200378    4.90999985    2.39000010
   12.51888847  171.08200073    4.90999985    2.39000010
   12.52222157  164.46000671    4.90999985    2.39000010
   12.52555561  159.37699890    4.90999985    2.39000010
   12.52861118  164.89700317    4.90999985    2.39000010
   12.53138828  157.14799500    4.90999985    2.39000010
   12.53222179  170.17300415    4.90999985    2.39000010
   12.53555584  172.91000366    4.90999985    2.39000010
   12.54166698  172.91000366    4.90999985    2.39000010
   12.54583359  171.26800537    4.90999985    2.39000010
   12.54888916  167.08200073    4.90999985    2.39000010
   12.55222225  159.38000488    4.90999985    2.39000010
   12.55527782  159.13999939    4.90999985    2.39000010
   12.55861092  169.92799377    4.90999985    2.39000010
   12.56194496  168.68400574    4.90999985    2.39000010
   12.56472206  165.57200623    4.90999985    2.39000010
   12.56527805  173.17300415    4.90999985    2.39000010
   12.56861115  164.10099792    4.90999985    2.39000010
   12.57194424  179.37500000    4.90999985    2.39000010
   12.57499981  175.58799744    4.90999985    2.39000010
   12.57833290  170.92999268    4.90999985    2.39000010
   12.58444405  170.92999268    4.90999985    2.39000010
   12.58861065  175.03100586    4.90999985    2.39000010
   12.59194374  174.95300293    4.90999985    2.39000010
   12.59499931  185.49800110    4.90999985    2.39000010
   12.59805489  218.87600708    4.90999985    2.39000010
   12.59861088  180.42700195    4.90999985    2.39000010
   12.60194492  189.02699280    4.90999985    2.39000010
   12.60527802  195.91200256    4.90999985    2.39000010
   12.60833359  178.14300537    4.90999985    2.39000010
   12.61166668  185.08999634    4.90999985    2.39000010
   12.61472225  195.22000122    4.90999985    2.39000010
   12.61805534  197.11199951    4.90999985    2.39000010
   12.62138939  197.86199951    4.90999985    2.39000010
   12.62722206  197.86199951    4.90999985    2.39000010
   12.63138866  189.66000366    4.90999985    2.39000010
   12.63472176  180.46099854    4.90999985    2.39000010
   12.63777733  178.78700256    4.90999985    2.39000010
   12.64111137  155.66999817    4.90999985    2.39000010
   12.64444447  169.09599304    4.90999985    2.39000010
   12.64750004  183.53700256    4.90999985    2.39000010
   12.65083313  176.08000183    4.90999985    2.39000010
   12.65416622  161.08500671    4.90999985    2.39000010
   12.65722179  169.50300598    4.90999985    2.39000010
   12.66055489  198.17900085    4.90999985    2.39000010
   12.66361046  182.52400208    4.90999985    2.39000010
   12.66472149  183.47399902    4.90999985    2.39000010
   12.68527794  183.47399902    4.90999985    2.39000010
   12.68944454  164.85099792    4.90999985    2.39000010
   12.69277763  152.09599304    4.90999985    2.39000010
   12.69583321  159.59100342    4.90999985    2.39000010
   12.69805527  163.99899292    4.90999985    2.39000010
   12.69944477  150.30099487    4.90999985    2.39000010
   12.70277786  152.23699951    4.90999985    2.39000010
   12.70611095  153.34100342    4.90999985    2.39000010
   12.70916653  160.38900757    4.90999985    2.39000010
   12.71249962  158.84800720    4.90999985    2.39000010
   12.71583271  159.44200134    4.90999985    2.39000010
   12.71888828  155.38600159    4.90999985    2.39000010
   12.72222137  169.20399475    4.90999985    2.39000010
   12.72805500  169.20399475    4.90999985    2.39000010
   12.73222160  178.41600037    4.90999985    2.39000010
   12.73555565  145.62199402    4.90999985    2.39000010
   12.73861122  178.25599670    4.90999985    2.39000010
   12.74194431  161.00000000    4.90999985    2.39000010
   12.74527836  165.18200684    4.90999985    2.39000010
   12.74833393  205.10299683    4.90999985    2.39000010
   12.75166702  182.61599731    4.90999985    2.39000010
   12.75472260  178.41700745    4.90999985    2.39000010
   12.75805569  165.94299316    4.90999985    2.39000010
   12.76138878  166.05799866    4.90999985    2.39000010
   12.76444435  169.69299316    4.90999985    2.39000010
   12.76500034  183.35800171    4.90999985    2.39000010
   12.77111053  183.35800171    4.90999985    2.39000010
   12.77499962  170.79100037    4.90999985    2.39000010
   12.77833271  195.91999817    4.90999985    2.39000010
   12.78166676  165.27600098    4.90999985    2.39000010
   12.78472233  187.11000061    4.90999985    2.39000010
   12.78805637  173.65699768    4.90999985    2.39000010
   12.79111195  178.09500122    4.90999985    2.39000010
   12.79444504  205.05400085    4.90999985    2.39000010
   12.79777813  176.27499390    4.90999985    2.39000010
   12.79833412  189.09700012    4.90999985    2.39000010
   12.80138874  178.42300415    4.90999985    2.39000010
   12.80472279  185.66600037    4.90999985    2.39000010
   12.80777836  182.27099609    4.90999985    2.39000010
   12.81388950  182.27099609    4.90999985    2.39000010
   12.81805515  166.14300537    4.90999985    2.39000010
   12.82111073  167.62500000    4.90999985    2.39000010
   12.82444477  168.15499878    4.90999985    2.39000010
   12.82750034  177.72399902    4.90999985    2.39000010
   12.83083344  173.55099487    4.90999985    2.39000010
   12.83166695  172.98399353    4.90999985    2.39000010
   12.83444405  169.16000366    4.90999985    2.39000010
   12.83777714  179.10200500    4.90999985    2.39000010
   12.84083271  165.89100647    4.90999985    2.39000010
   12.84416676  173.79800415    4.90999985    2.39000010
   12.84722233  175.81399536    4.90999985    2.39000010
   12.85055637  183.45799255    4.90999985    2.39000010
   12.85666752  183.45799255    4.90999985    2.39000010
   12.86083412  177.39100647    4.90999985    2.39000010
   12.86416721  181.99400330    4.90999985    2.39000010
   12.86500072  175.63099670    4.90999985    2.39000010
   12.86777782  183.11799622    4.90999985    2.39000010
   12.87111092  184.54600525    4.90999985    2.39000010
   12.87416649  166.25900269    4.90999985    2.39000010
   12.87750053  161.83399963    4.90999985    2.39000010
   12.88083363  185.21400452    4.90999985    2.39000010
   12.88388920  167.96200562    4.90999985    2.39000010
   12.88722229  172.52499390    4.90999985    2.39000010
   12.89027786  176.55900574    4.90999985    2.39000010
   12.89361095  185.57600403    4.90999985    2.39000010
   12.89944458  185.57600403    4.90999985    2.39000010
   12.90361118  172.54400635    4.90999985    2.39000010
   12.90694427  178.71400452    4.90999985    2.39000010
   12.90999985  179.69500732    4.90999985    2.39000010
   12.91333294  191.68200684    4.90999985    2.39000010
   12.91666698  176.09500122    4.90999985    2.39000010
   12.91972256  178.04200745    4.90999985    2.39000010
   12.92305565  168.10800171    4.90999985    2.39000010
   12.92638874  141.01300049    4.90999985    2.39000010
   12.92944431  164.17199707    4.90999985    2.39000010
   12.93166733  160.40400696    4.90999985    2.39000010
   12.93305588  158.35200500    4.90999985    2.39000010
   12.93638897  178.99400330    4.90999985    2.39000010
   12.94222260  178.99400330    4.90999985    2.39000010
   12.94638920  204.77200317    4.90999985    2.39000010
   12.94972229  182.31500244    4.90999985    2.39000010
   12.95305538  195.67199707    4.90999985    2.39000010
   12.95611095  202.84899902    4.90999985    2.39000010
   12.95944405  189.49899292    4.90999985    2.39000010
   12.96249962  173.10299683    4.90999985    2.39000010
   12.96500015  171.46299744    4.90999985    2.39000010
   12.96638870  148.57699585    4.90999985    2.39000010
   12.96972179  166.13400269    4.90999985    2.39000010
   12.97277737  168.88900757    4.90999985    2.39000010
   12.97611046  176.76100159    4.90999985    2.39000010
   12.97916603  181.00599670    4.90999985    2.39000010
   12.98527813  181.00599670    4.90999985    2.39000010
   12.98944473  169.75900269    4.90999985    2.39000010
   12.99250031  171.97799683    4.90999985    2.39000010
   12.99583340  159.51199341    4.90999985    2.39000010
   12.99833393  172.52999878    4.90999985    2.39000010
   12.99944496  170.63999939    4.90999985    2.39000010
   13.00277805  165.90899658    4.90999985    2.39000010
   13.00583363  161.23199463    4.90999985    2.39000010
   13.00916672  158.48300171    4.90999985    2.39000010
   13.01222229  153.62199402    4.90999985    2.39000010
   13.01555538  156.82099915    4.90999985    2.39000010
   13.01888847  193.75500488    4.90999985    2.39000010
   13.02222157  167.05200195    4.90999985    2.39000010
   13.02805519  167.05200195    4.90999985    2.39000010
   13.03222179  178.89700317    4.90999985    2.39000010
   13.03527832  167.15699768    4.90999985    2.39000010
   13.03861141  157.93499756    4.90999985    2.39000010
   13.04194450  157.98300171    4.90999985    2.39000010
   13.04500008  149.12699890    4.90999985    2.39000010
   13.04833412  171.02200317    4.90999985    2.39000010
   13.05166721  160.99000549    4.90999985    2.39000010
   13.05472279  162.71099854    4.90999985    2.39000010
   13.05805588  164.43299866    4.90999985    2.39000010
   13.06111145  169.27099609    4.90999985    2.39000010
   13.06444454  159.22300720    4.90999985    2.39000010
   13.06500053  151.02799988    4.90999985    2.39000010
   13.07083321  151.02799988    4.90999985    2.39000010
   13.07499981  176.03599548    4.90999985    2.39000010
   13.07833290  159.18400574    4.90999985    2.39000010
   13.08138847  155.32800293    4.90999985    2.39000010
   13.08472157  158.13299561    4.90999985    2.39000010
   13.08805561  167.49000549    4.90999985    2.39000010
   13.09111118  172.12800598    4.90999985    2.39000010
   13.09444427  158.18800354    4.90999985    2.39000010
   13.09749985  158.28599548    4.90999985    2.39000010
   13.09833336  159.82299805    4.90999985    2.39000010
   13.10111141  154.94000244    4.90999985    2.39000010
   13.10444450  157.82600403    4.90999985    2.39000010
   13.10750008  151.32200623    4.90999985    2.39000010
   13.11361122  151.32200623    4.90999985    2.39000010
   13.11777782  157.52000427    4.90999985    2.39000010
   13.12111092  159.88699341    4.90999985    2.39000010
   13.12444496  155.95799255    4.90999985    2.39000010
   13.12750053  156.66200256    4.90999985    2.39000010
   13.13083363  160.82800293    4.90999985    2.39000010
   13.13166714  169.45700073    4.90999985    2.39000010
   13.13444424  173.31599426    4.90999985    2.39000010
   13.13777733  157.04600525    4.90999985    2.39000010
   13.14083290  159.71600342    4.90999985    2.39000010
   13.14416695  166.14399719    4.90999985    2.39000010
   13.14750004  167.16999817    4.90999985    2.39000010
   13.15055561  168.90100098    4.90999985    2.39000010
   13.15666676  168.90100098    4.90999985    2.39000010
   13.16083336  162.93899536    4.90999985    2.39000010
   13.16388893  162.62600708    4.90999985    2.39000010
   13.16499996  168.71299744    4.90999985    2.39000010
   13.16750050  162.64700317    4.90999985    2.39000010
   13.17083359  158.63299561    4.90999985    2.39000010
   13.17388916  168.40100098    4.90999985    2.39000010
   13.17722225  151.86099243    4.90999985    2.39000010
   13.18055630  163.39700317    4.90999985    2.39000010
   13.18361092  169.52600098    4.90999985    2.39000010
   13.18694496  166.25199890    4.90999985    2.39000010
   13.19027805  161.21499634    4.90999985    2.39000010
   13.19333363  176.83200073    4.90999985    2.39000010
   13.19944477  176.83200073    4.90999985    2.39000010
   13.20361137  162.60099792    4.90999985    2.39000010
   13.20666695  162.91700745    4.90999985    2.39000010
   13.21000004  159.46400452    4.90999985    2.39000010
   13.21333313  166.50000000    4.90999985    2.39000010
   13.21638870  170.50000000    4.90999985    2.39000010
   13.21972179  163.68200684    4.90999985    2.39000010
   13.22305489  170.91299438    4.90999985    2.39000010
   13.22611046  165.74299622    4.90999985    2.39000010
   13.22944355  161.69200134    4.90999985    2.39000010
   13.23166656  167.69299316    4.90999985    2.39000010
   13.23305511  158.05000305    4.90999985    2.39000010
   13.23638916  161.14500427    4.90999985    2.39000010
   13.24222279  161.14500427    4.90999985    2.39000010
   13.24638939  158.02000427    4.90999985    2.39000010
   13.24972248  162.13999939    4.90999985    2.39000010
   13.25277805  161.35499573    4.90999985    2.39000010
   13.25611115  154.72300720    4.90999985    2.39000010
   13.25944424  165.94700623    4.90999985    2.39000010
   13.26249981  158.22500610    4.90999985    2.39000010
   13.26500034  160.56500244    4.90999985    2.39000010
   13.26611137  156.75999451    4.90999985    2.39000010
   13.26944447  160.18899536    4.90999985    2.39000010
   13.27250004  155.96499634    4.90999985    2.39000010
   13.27583313  153.96400452    4.90999985    2.39000010
   13.27916622  151.08399963    4.90999985    2.39000010
   13.28500080  151.08399963    4.90999985    2.39000010
   13.28916740  154.83799744    4.90999985    2.39000010
   13.29250050  148.88099670    4.90999985    2.39000010
   13.29583359  148.01499939    4.90999985    2.39000010
   13.29833412  145.14700317    4.90999985    2.39000010
   13.29944515  158.67599487    4.90999985    2.39000010
   13.30277824  147.11999512    4.90999985    2.39000010
   13.30583382  151.08700562    4.90999985    2.39000010
   13.30916691  148.90800476    4.90999985    2.39000010
   13.31250000  150.67100525    4.90999985    2.39000010
   13.31555557  139.45300293    4.90999985    2.39000010
   13.31888866  147.48300171    4.90999985    2.39000010
   13.32222176  149.09100342    4.90999985    2.39000010
   13.32805538  149.09100342    4.90999985    2.39000010
   13.33222198  147.63000488    4.90999985    2.39000010
   13.33527756  155.93600464    4.90999985    2.39000010
   13.33861065  153.49000549    4.90999985    2.39000010
   13.34166622  148.33000183    4.90999985    2.39000010
   13.34499931  148.95100403    4.90999985    2.39000010
   13.34833336  142.34300232    4.90999985    2.39000010
   13.35138893  148.58200073    4.90999985    2.39000010
   13.35472298  147.30999756    4.90999985    2.39000010
   13.35805607  156.58299255    4.90999985    2.39000010
   13.36111164  153.48899841    4.90999985    2.39000010
   13.36444473  152.18299866    4.90999985    2.39000010
   13.36527824  139.64300537    4.90999985    2.39000010
   13.37083340  139.64300537    4.90999985    2.39000010
   13.37500000  155.56599426    4.90999985    2.39000010
   13.37805557  170.13099670    4.90999985    2.39000010
   13.38138866  170.91000366    4.90999985    2.39000010
   13.38472176  164.94000244    4.90999985    2.39000010
   13.38777733  167.98500061    4.90999985    2.39000010
   13.39111137  165.36300659    4.90999985    2.39000010
   13.39416695  162.18600464    4.90999985    2.39000010
   13.39750004  154.14799500    4.90999985    2.39000010
   13.39861107  150.79600525    4.90999985    2.39000010
   13.40111065  158.02499390    4.90999985    2.39000010
   13.40444374  145.23899841    4.90999985    2.39000010
   13.40749931  160.04699707    4.90999985    2.39000010
   13.41361046  160.04699707    4.90999985    2.39000010
   13.41777802  152.11799622    4.90999985    2.39000010
   13.42111111  160.36099243    4.90999985    2.39000010
   13.42416668  157.17799377    4.90999985    2.39000010
   13.42750072  152.93899536    4.90999985    2.39000010
   13.43055630  145.15800476    4.90999985    2.39000010
   13.43194485  146.37699890    4.90999985    2.39000010
   13.43416691  152.39199829    4.90999985    2.39000010
   13.43750000  157.80099487    4.90999985    2.39000010
   13.44055557  153.00300598    4.90999985    2.39000010
   13.44388866  151.81599426    4.90999985    2.39000010
   13.44722271  158.28399658    4.90999985    2.39000010
   13.45027733  154.48899841    4.90999985    2.39000010
   13.45638847  154.48899841    4.90999985    2.39000010
   13.46055508  155.30299377    4.90999985    2.39000010
   13.46388912  154.71400452    4.90999985    2.39000010
   13.46527767  170.11300659    4.90999985    2.39000010
   13.46749973  147.67900085    4.90999985    2.39000010
   13.47083282  151.30700684    4.90999985    2.39000010
   13.47388840  151.60200500    4.90999985    2.39000010
   13.47722149  149.39700317    4.90999985    2.39000010
   13.48055553  169.93200684    4.90999985    2.39000010
   13.48361111  155.94099426    4.90999985    2.39000010
   13.48694515  157.78599548    4.90999985    2.39000010
   13.49027824  163.66900635    4.90999985    2.39000010
   13.49333382  154.58500671    4.90999985    2.39000010
   13.49944496  154.58500671    4.90999985    2.39000010
   13.50333309  153.68899536    4.90999985    2.39000010
   13.50666714  157.86999512    4.90999985    2.39000010
   13.51000023  156.48399353    4.90999985    2.39000010
   13.51305580  162.36700439    4.90999985    2.39000010
   13.51638889  155.16999817    4.90999985    2.39000010
   13.51972198  168.91600037    4.90999985    2.39000010
   13.52277756  157.97799683    4.90999985    2.39000010
   13.52611065  161.70300293    4.90999985    2.39000010
   13.52944374  155.87600708    4.90999985    2.39000010
   13.53194427  155.09199524    4.90999985    2.39000010
   13.53277779  148.19700623    4.90999985    2.39000010
   13.53611183  160.23100281    4.90999985    2.39000010
   13.54222298  160.23100281    4.90999985    2.39000010
   13.54638958  159.49800110    4.90999985    2.39000010
   13.54944515  143.08000183    4.90999985    2.39000010
   13.55277824  159.99600220    4.90999985    2.39000010
   13.55611134  170.10800171    4.90999985    2.39000010
   13.55916691  188.03500366    4.90999985    2.39000010
   13.56250000  184.48199463    4.90999985    2.39000010
   13.56527805  182.76100159    4.90999985    2.39000010
   13.56611156  172.77200317    4.90999985    2.39000010
   13.56944466  195.55400085    4.90999985    2.39000010
   13.57277775  209.41000366    4.90999985    2.39000010
   13.57583332  199.06799316    4.90999985    2.39000010
   13.57916641  174.86399841    4.90999985    2.39000010
   13.58500004  174.86399841    4.90999985    2.39000010
   13.58916664  226.26199341    4.90999985    2.39000010
   13.59249973  235.74400330    4.90999985    2.39000010
   13.59555531  195.97000122    4.90999985    2.39000010
   13.59861088  199.46000671    4.90999985    2.39000010
   13.59916592  174.51600647    4.90999985    2.39000010
   13.60249996  195.79499817    4.90999985    2.39000010
   13.60583401  164.32499695    4.90999985    2.39000010
   13.60888958  171.14100647    4.90999985    2.39000010
   13.61222267  164.73699951    4.90999985    2.39000010
   13.61555576  173.30099487    4.90999985    2.39000010
   13.61861134  180.64399719    4.90999985    2.39000010
   13.62194443  161.31300354    4.90999985    2.39000010
   13.62777805  161.31300354    4.90999985    2.39000010
   13.63194466  165.58900452    4.90999985    2.39000010
   13.63527775  167.45700073    4.90999985    2.39000010
   13.63833332  172.15400696    4.90999985    2.39000010
   13.64166641  166.51699829    4.90999985    2.39000010
   13.64499950  159.51899719    4.90999985    2.39000010
   13.64805508  157.53599548    4.90999985    2.39000010
   13.65138817  173.62500000    4.90999985    2.39000010
   13.65472221  177.29499817    4.90999985    2.39000010
   13.65777779  162.71800232    4.90999985    2.39000010
   13.66111088  173.71899414    4.90999985    2.39000010
   13.66444397  167.36999512    4.90999985    2.39000010
   13.66527748  171.92399597    4.90999985    2.39000010
   13.67083359  171.92399597    4.90999985    2.39000010
   13.67472267  177.99000549    4.90999985    2.39000010
   13.67805576  171.59700012    4.90999985    2.39000010
   13.68138885  162.46400452    4.90999985    2.39000010
   13.69888878  157.26400757    4.90999985    2.39000010
   13.70138836  161.68400574    4.90999985    2.39000010
   13.70444393  170.38699341    4.90999985    2.39000010
   13.70777798  160.80700684    4.90999985    2.39000010
   13.71388912  160.80700684    4.90999985    2.39000010
   13.71777725  162.41499329    4.90999985    2.39000010
   13.72111034  159.39100647    4.90999985    2.39000010
   13.72444439  162.77900696    4.90999985    2.39000010
   13.72749996  158.44500732    4.90999985    2.39000010
   13.73083305  150.39199829    4.90999985    2.39000010
   13.73222160  159.80200195    4.90999985    2.39000010
   13.73444462  153.43800354    4.90999985    2.39000010
   13.73777771  144.61799622    4.90999985    2.39000010
   13.74111176  151.53300476    4.90999985    2.39000010
   13.74416733  141.46699524    4.90999985    2.39000010
   13.74750042  143.81100464    4.90999985    2.39000010
   13.75083351  152.01499939    4.90999985    2.39000010
   13.75666714  152.01499939    4.90999985    2.39000010
   13.76083374  153.25399780    4.90999985    2.39000010
   13.76388931  156.30200195    4.90999985    2.39000010
   13.76555538  154.98800659    4.90999985    2.39000010
   13.76749992  140.73599243    4.90999985    2.39000010
   13.77083302  151.22599792    4.90999985    2.39000010
   13.77416611  159.06700134    4.90999985    2.39000010
   13.77722168  154.28100586    4.90999985    2.39000010
   13.78055573  155.98800659    4.90999985    2.39000010
   13.78388977  154.36599731    4.90999985    2.39000010
   13.78694534  158.28999329    4.90999985    2.39000010
   13.79027843  164.89399719    4.90999985    2.39000010
   13.79361153  158.80099487    4.90999985    2.39000010
   13.79944515  158.80099487    4.90999985    2.39000010
   13.80361176  164.64900208    4.90999985    2.39000010
   13.80666733  143.12600708    4.90999985    2.39000010
   13.81000042  160.18400574    4.90999985    2.39000010
   13.81333351  157.15899658    4.90999985    2.39000010
   13.81638908  164.41299438    4.90999985    2.39000010
   13.81972218  174.36900330    4.90999985    2.39000010
   13.82305527  162.88400269    4.90999985    2.39000010
   13.82611084  167.35800171    4.90999985    2.39000010
   13.82944393  162.17199707    4.90999985    2.39000010
   13.83222198  163.22300720    4.90999985    2.39000010
   13.83277798  159.84800720    4.90999985    2.39000010
   13.83611107  153.39999390    4.90999985    2.39000010
   13.84222221  153.39999390    4.90999985    2.39000010
   13.84638882  154.20700073    4.90999985    2.39000010
   13.84972191  155.11700439    4.90999985    2.39000010
   13.85277843  155.32000732    4.90999985    2.39000010
   13.85611153  153.73599243    4.90999985    2.39000010
   13.85944462  147.88400269    4.90999985    2.39000010
   13.86250019  147.34199524    4.90999985    2.39000010
   13.86555576  146.72900391    4.90999985    2.39000010
   13.86611176  150.87399292    4.90999985    2.39000010
   13.86944485  150.10899353    4.90999985    2.39000010
   13.87277794  157.42700195    4.90999985    2.39000010
   13.87583351  156.94900513    4.90999985    2.39000010
   13.87916660  156.44200134    4.90999985    2.39000010
   13.88500023  156.44200134    4.90999985    2.39000010
   13.88916683  154.26899719    4.90999985    2.39000010
   13.89249992  156.72500610    4.90999985    2.39000010
   13.89583302  156.04299927    4.90999985    2.39000010
   13.89888859  166.52699280    4.90999985    2.39000010
   13.89916611  162.83299255    4.90999985    2.39000010
   13.90249920  165.36099243    4.90999985    2.39000010
   13.90583324  164.69200134    4.90999985    2.39000010
   13.90888882  162.54299927    4.90999985    2.39000010
   13.91222191  165.26400757    4.90999985    2.39000010
   13.91555500  170.47099304    4.90999985    2.39000010
   13.91861153  171.49099731    4.90999985    2.39000010
   13.92194462  160.10400391    4.90999985    2.39000010
   13.92805576  160.10400391    4.90999985    2.39000010
   13.93222237  163.34399414    4.90999985    2.39000010
   13.93277836  168.16099548    4.90999985    2.39000010
   13.93583298  170.78599548    4.90999985    2.39000010
   13.93916702  170.66099548    4.90999985    2.39000010
   13.94222260  166.75399780    4.90999985    2.39000010
   13.94555569  159.33200073    4.90999985    2.39000010
   13.94888878  150.67399597    4.90999985    2.39000010
   13.95194435  164.25999451    4.90999985    2.39000010
   13.95527744  155.18800354    4.90999985    2.39000010
   13.95861053  153.28100586    4.90999985    2.39000010
   13.96166611  149.87600708    4.90999985    2.39000010
   13.96500015  146.28500366    4.90999985    2.39000010
   13.96555519  155.08000183    4.90999985    2.39000010
   13.97083282  155.08000183    4.90999985    2.39000010
   13.97499943  148.39999390    4.90999985    2.39000010
   13.97805500  145.07299805    4.90999985    2.39000010
   13.98138809  150.47099304    4.90999985    2.39000010
   13.98472214  160.83500671    4.90999985    2.39000010
   13.98777771  153.45599365    4.90999985    2.39000010
   13.99111176  159.61999512    4.90999985    2.39000010
   13.99444485  167.52099609    4.90999985    2.39000010
   13.99750042  160.13200378    4.90999985    2.39000010
   13.99888897  160.50500488    4.90999985    2.39000010
   14.00138855  166.81900024    4.90999985    2.39000010
   14.00444412  162.72900391    4.90999985    2.39000010
   14.00777817  160.57899475    4.90999985    2.39000010
   14.01361084  160.57899475    4.90999985    2.39000010
   14.01777744  169.47799683    4.90999985    2.39000010
   14.02111053  170.71800232    4.90999985    2.39000010
   14.02416611  179.29499817    4.90999985    2.39000010
   14.02750015  171.53399658    4.90999985    2.39000010
   14.03083324  169.27900696    4.90999985    2.39000010
   14.03222179  169.26199341    4.90999985    2.39000010
   14.03444481  171.43400574    4.90999985    2.39000010
   14.03750038  176.09300232    4.90999985    2.39000010
   14.04083347  164.78799438    4.90999985    2.39000010
   14.04416752  168.39500427    4.90999985    2.39000010
   14.04722309  169.91099548    4.90999985    2.39000010
   14.05055618  169.82600403    4.90999985    2.39000010
   14.05666733  169.82600403    4.90999985    2.39000010
   14.06055546  169.04299927    4.90999985    2.39000010
   14.06388950  169.91099548    4.90999985    2.39000010
   14.06555557  164.17500305    4.90999985    2.39000010
   14.06777763  166.47000122    4.90999985    2.39000010
   14.07083321  155.92399597    4.90999985    2.39000010
   14.07416630  148.95599365    4.90999985    2.39000010
   14.07722187  161.80900574    4.90999985    2.39000010
   14.08055592  155.18099976    4.90999985    2.39000010
   14.08388901  166.42399597    4.90999985    2.39000010
   14.08694458  153.54400635    4.90999985    2.39000010
   14.09027767  161.36199951    4.90999985    2.39000010
   14.09361076  163.21899414    4.90999985    2.39000010
   14.09944439  163.21899414    4.90999985    2.39000010
   14.10361195  156.44799805    4.90999985    2.39000010
   14.10666752  163.82299805    4.90999985    2.39000010
   14.11000061  162.09899902    4.90999985    2.39000010
   14.11305618  166.72999573    4.90999985    2.39000010
   14.11638927  181.30499268    4.90999985    2.39000010
   14.11972237  160.45700073    4.90999985    2.39000010
   14.12277794  160.42900085    4.90999985    2.39000010
   14.12611103  170.15800476    4.90999985    2.39000010
   14.12944412  176.50700378    4.90999985    2.39000010
   14.13222218  184.91700745    4.90999985    2.39000010
   14.13305569  170.91799927    4.90999985    2.39000010
   14.13611126  176.47200012    4.90999985    2.39000010
   14.14222240  176.47200012    4.90999985    2.39000010
   14.14638901  170.20199585    4.90999985    2.39000010
   14.14944458  186.40199280    4.90999985    2.39000010
   14.15277767  174.47000122    4.90999985    2.39000010
   14.15611076  173.58700562    4.90999985    2.39000010
   14.15916634  170.22599792    4.90999985    2.39000010
   14.16249943  168.99699402    4.90999985    2.39000010
   14.16555500  161.68800354    4.90999985    2.39000010
   14.16611099  170.98300171    4.90999985    2.39000010
   14.16916656  165.10200500    4.90999985    2.39000010
   14.17250061  147.14999390    4.90999985    2.39000010
   14.17555618  149.35000610    4.90999985    2.39000010
   14.17888927  148.07299805    4.90999985    2.39000010
   14.18500042  148.07299805    4.90999985    2.39000010
   14.18916702  163.76100159    4.90999985    2.39000010
   14.19250011  159.59100342    4.90999985    2.39000010
   14.19555569  161.61500549    4.90999985    2.39000010
   14.19888878  147.27099609    4.90999985    2.39000010
   14.19944477  143.47700500    4.90999985    2.39000010
   14.20249939  151.60699463    4.90999985    2.39000010
   14.20583344  167.51699829    4.90999985    2.39000010
   14.20888901  160.51499939    4.90999985    2.39000010
   14.21222210  176.62399292    4.90999985    2.39000010
   14.21555519  158.42300415    4.90999985    2.39000010
   14.21861076  162.90199280    4.90999985    2.39000010
   14.22194386  165.78399658    4.90999985    2.39000010
   14.22777748  165.78399658    4.90999985    2.39000010
   14.23194408  157.74899292    4.90999985    2.39000010
   14.23249912  166.47700500    4.90999985    2.39000010
   14.23583317  169.49200439    4.90999985    2.39000010
   14.23916721  165.40299988    4.90999985    2.39000010
   14.24222279  157.33599854    4.90999985    2.39000010
   14.24555588  170.12800598    4.90999985    2.39000010
   14.24888897  153.91799927    4.90999985    2.39000010
   14.25194454  156.91900635    4.90999985    2.39000010
   14.25527763  156.62100220    4.90999985    2.39000010
   14.25833321  154.07600403    4.90999985    2.39000010
   14.26166630  168.51600647    4.90999985    2.39000010
   14.26500034  161.95700073    4.90999985    2.39000010
   14.26583290  160.36799622    4.90999985    2.39000010
   14.27083302  160.36799622    4.90999985    2.39000010
   14.27499962  167.24299622    4.90999985    2.39000010
   14.27805519  181.67500305    4.90999985    2.39000010
   14.28138828  169.15299988    4.90999985    2.39000010
   14.28444481  156.93899536    4.90999985    2.39000010
   14.28777790  150.02200317    4.90999985    2.39000010
   14.29111195  179.92799377    4.90999985    2.39000010
   14.29444504  161.11000061    4.90999985    2.39000010
   14.29750061  174.04899597    4.90999985    2.39000010
   14.29916668  175.78799438    4.90999985    2.39000010
   14.30111122  167.46400452    4.90999985    2.39000010
   14.30444431  176.92700195    4.90999985    2.39000010
   14.30749989  186.59599304    4.90999985    2.39000010
   14.31361103  186.59599304    4.90999985    2.39000010
   14.31777763  170.44799805    4.90999985    2.39000010
   14.32083321  169.99000549    4.90999985    2.39000010
   14.32416630  171.77999878    4.90999985    2.39000010
   14.32750034  163.25199890    4.90999985    2.39000010
   14.33055592  168.87100220    4.90999985    2.39000010
   14.33249950  161.47999573    4.90999985    2.39000010
   14.33416653  169.47999573    4.90999985    2.39000010
   14.33749962  192.41499329    4.90999985    2.39000010
   14.34055519  170.71400452    4.90999985    2.39000010
   14.34388828  159.27900696    4.90999985    2.39000010
   14.34694386  162.45300293    4.90999985    2.39000010
   14.35027790  162.56199646    4.90999985    2.39000010
   14.35666752  162.56199646    4.90999985    2.39000010
   14.36083412  203.95100403    4.90999985    2.39000010
   14.36388969  209.25300598    4.90999985    2.39000010
   14.36583328  200.21499634    4.90999985    2.39000010
   14.36750031  180.99200439    4.90999985    2.39000010
   14.37083340  193.82499695    4.90999985    2.39000010
   14.37388897  164.04800415    4.90999985    2.39000010
   14.37722206  189.33200073    4.90999985    2.39000010
   14.38055611  209.69999695    4.90999985    2.39000010
   14.38361073  175.40899658    4.90999985    2.39000010
   14.38694477  177.65199280    4.90999985    2.39000010
   14.39000034  191.57400513    4.90999985    2.39000010
   14.39333344  182.83299255    4.90999985    2.39000010
   14.39916611  182.83299255    4.90999985    2.39000010
   14.40333271  194.94200134    4.90999985    2.39000010
   14.40666676  193.98100281    4.90999985    2.39000010
   14.40999985  209.97200012    4.90999985    2.39000010
   14.41333294  196.96299744    4.90999985    2.39000010
   14.41666698  185.58000183    4.90999985    2.39000010
   14.41972256  170.41000366    4.90999985    2.39000010
   14.42305565  191.75900269    4.90999985    2.39000010
   14.42611122  165.38400269    4.90999985    2.39000010
   14.42944431  200.75000000    4.90999985    2.39000010
   14.43277836  176.74200439    4.90999985    2.39000010
   14.43444443  202.78199768    4.90999985    2.39000010
   14.43611145  194.96499634    4.90999985    2.39000010
   14.44222260  194.96499634    4.90999985    2.39000010
   14.44638920  185.91000366    4.90999985    2.39000010
   14.44944477  176.16299438    4.90999985    2.39000010
   14.45277786  182.17500305    4.90999985    2.39000010
   14.45583344  187.74299622    4.90999985    2.39000010
   14.45916653  170.97700500    4.90999985    2.39000010
   14.46249962  185.99400330    4.90999985    2.39000010
   14.46555519  191.69799805    4.90999985    2.39000010
   14.46777725  181.99499512    4.90999985    2.39000010
   14.46916580  197.19099426    4.90999985    2.39000010
   14.47249985  185.06799316    4.90999985    2.39000010
   14.47583294  186.53999329    4.90999985    2.39000010
   14.47888851  176.56199646    4.90999985    2.39000010
   14.48500061  176.56199646    4.90999985    2.39000010
   14.48916721  185.14199829    4.90999985    2.39000010
   14.49222279  191.24000549    4.90999985    2.39000010
   14.49555588  187.58099365    4.90999985    2.39000010
   14.49888897  170.68099976    4.90999985    2.39000010
   14.50111103  183.14599609    4.90999985    2.39000010
   14.50249958  192.19000244    4.90999985    2.39000010
   14.50583363  205.62699890    4.90999985    2.39000010
   14.50916672  204.91900635    4.90999985    2.39000010
   14.51222229  206.47599792    4.90999985    2.39000010
   14.51555538  183.29499817    4.90999985    2.39000010
   14.51861095  195.09500122    4.90999985    2.39000010
   14.52194405  194.34899902    4.90999985    2.39000010
   14.52777767  194.34899902    4.90999985    2.39000010
   14.53194427  197.17100525    4.90999985    2.39000010
   14.53444481  204.94900513    4.90999985    2.39000010
   14.53555584  189.33900452    4.90999985    2.39000010
   14.53888893  188.09599304    4.90999985    2.39000010
   14.54194450  188.60899353    4.90999985    2.39000010
   14.54527855  210.15899658    4.90999985    2.39000010
   14.54861164  202.01400757    4.90999985    2.39000010
   14.55166721  180.24000549    4.90999985    2.39000010
   14.55500031  199.20500183    4.90999985    2.39000010
   14.55805588  206.17199707    4.90999985    2.39000010
   14.56138897  186.05999756    4.90999985    2.39000010
   14.56472206  183.60499573    4.90999985    2.39000010
   14.57055569  183.60499573    4.90999985    2.39000010
   14.57472229  172.32000732    4.90999985    2.39000010
   14.57805538  183.53799438    4.90999985    2.39000010
   14.58138847  176.48699951    4.90999985    2.39000010
   14.58444405  179.34199524    4.90999985    2.39000010
   14.58777714  171.34700012    4.90999985    2.39000010
   14.59111118  161.81900024    4.90999985    2.39000010
   14.59416676  164.32699585    4.90999985    2.39000010
   14.59749985  168.40199280    4.90999985    2.39000010
   14.60055637  159.28700256    4.90999985    2.39000010
   14.60166740  169.16600037    4.90999985    2.39000010
   14.60416698  159.93699646    4.90999985    2.39000010
   14.60750008  168.19999695    4.90999985    2.39000010
   14.61361122  168.19999695    4.90999985    2.39000010
   14.61777782  157.66900635    4.90999985    2.39000010
   14.62083340  162.49299622    4.90999985    2.39000010
   14.62416649  167.45399475    4.90999985    2.39000010
   14.62750053  145.37800598    4.90999985    2.39000010
   14.63055611  157.37399292    4.90999985    2.39000010
   14.63388920  154.28500366    4.90999985    2.39000010
   14.63500023  168.45399475    4.90999985    2.39000010
   14.63749981  156.97999573    4.90999985    2.39000010
   14.64083290  170.50000000    4.90999985    2.39000010
   14.74166679   -1.00000000   -1.00000000   -1.00000000
   14.84833336   -1.00000000   -1.00000000   -1.00000000
   14.95222187   -1.00000000   -1.00000000   -1.00000000
   15.08833313   -1.00000000   -1.00000000   -1.00000000
   15.09916592  180.90100098    4.90999985    2.39000010
   15.10277843  149.65899658    4.90999985    2.39000010
   15.10583401  199.20300293    4.90999985    2.39000010
   15.10916710  165.42999268    4.90999985    2.39000010
   15.11250019  182.36999512    4.90999985    2.39000010
   15.11916637  182.36999512    4.90999985    2.39000010
   15.12333393  152.78799438    4.90999985    2.39000010
   15.12666702  148.51400757    4.90999985    2.39000010
   15.12972260  151.72999573    4.90999985    2.39000010
   15.13222218  152.57200623    4.90999985    2.39000010
   15.13361073  156.16999817    4.90999985    2.39000010
   15.13694477  155.55299377    4.90999985    2.39000010
   15.14000034  161.06300354    4.90999985    2.39000010
   15.14333344  149.91000366    4.90999985    2.39000010
   15.14666653  147.21000671    4.90999985    2.39000010
   15.14972210  158.57699585    4.90999985    2.39000010
   15.15305519  144.24800110    4.90999985    2.39000010
   15.15611076  147.50199890    4.90999985    2.39000010
   15.16222191  147.50199890    4.90999985    2.39000010
   15.16611099  156.43099976    4.90999985    2.39000010
   15.16944504  152.83000183    4.90999985    2.39000010
   15.17277813  161.37800598    4.90999985    2.39000010
   15.17583370  152.28199768    4.90999985    2.39000010
   15.17916679  158.91099548    4.90999985    2.39000010
   15.18249989  147.39999390    4.90999985    2.39000010
   15.18555546  152.64900208    4.90999985    2.39000010
   15.18888855  152.90899658    4.90999985    2.39000010
   15.19194412  149.73500061    4.90999985    2.39000010
   15.19527817  146.08299255    4.90999985    2.39000010
   15.19861126  159.45599365    4.90999985    2.39000010
   15.19916630  156.55200195    4.90999985    2.39000010
   15.20499992  156.55200195    4.90999985    2.39000010
   15.20916653  157.80599976    4.90999985    2.39000010
   15.21222210  146.15400696    4.90999985    2.39000010
   15.21555519  147.98100281    4.90999985    2.39000010
   15.21888828  152.01100159    4.90999985    2.39000010
   15.22194386  153.18600464    4.90999985    2.39000010
   15.22527695  150.00500488    4.90999985    2.39000010
   15.22861099  150.47200012    4.90999985    2.39000010
   15.23166656  151.78300476    4.90999985    2.39000010
   15.23249912  136.96899414    4.90999985    2.39000010
   15.23527813  160.41900635    4.90999985    2.39000010
   15.23861122  140.97300720    4.90999985    2.39000010
   15.24194431  147.23800659    4.90999985    2.39000010
   15.24777794  147.23800659    4.90999985    2.39000010
   15.25194454  156.19500732    4.90999985    2.39000010
   15.25527763  146.86099243    4.90999985    2.39000010
   15.25833321  152.61999512    4.90999985    2.39000010
   15.26166630  152.58200073    4.90999985    2.39000010
   15.26500034  159.45700073    4.90999985    2.39000010
   15.26583290  155.41799927    4.90999985    2.39000010
   15.26861095  157.28900146    4.90999985    2.39000010
   15.27194405  154.25500488    4.90999985    2.39000010
   15.27527714  154.30000305    4.90999985    2.39000010
   15.27833271  141.94700623    4.90999985    2.39000010
   15.28166676  148.67199707    4.90999985    2.39000010
   15.28500080  147.46099854    4.90999985    2.39000010
   15.29055595  147.46099854    4.90999985    2.39000010
   15.29472256  157.32099915    4.90999985    2.39000010
   15.29805565  164.42799377    4.90999985    2.39000010
   15.29916668  148.47999573    4.90999985    2.39000010
   15.30166721  148.85299683    4.90999985    2.39000010
   15.30500031  155.54699707    4.90999985    2.39000010
   15.30833340  148.30900574    4.90999985    2.39000010
   15.31138897  155.96000671    4.90999985    2.39000010
   15.31472206  140.09800720    4.90999985    2.39000010
   15.31777763  157.82000732    4.90999985    2.39000010
   15.32111073  147.40899658    4.90999985    2.39000010
   15.32444477  162.38800049    4.90999985    2.39000010
   15.32750034  164.95199585    4.90999985    2.39000010
   15.33361053  164.95199585    4.90999985    2.39000010
   15.33749962  142.56500244    4.90999985    2.39000010
   15.34083271  146.65299988    4.90999985    2.39000010
   15.34416676  151.26400757    4.90999985    2.39000010
   15.34722233  155.06399536    4.90999985    2.39000010
   15.35055637  136.97000122    4.90999985    2.39000010
   15.35388947  137.65400696    4.90999985    2.39000010
   15.35694504  150.61500549    4.90999985    2.39000010
   15.36027813  146.80900574    4.90999985    2.39000010
   15.36333370  138.18200684    4.90999985    2.39000010
   15.36583328  148.31300354    4.90999985    2.39000010
   15.36694431  147.68299866    4.90999985    2.39000010
   15.37027836  145.75900269    4.90999985    2.39000010
   15.37638855  145.75900269    4.90999985    2.39000010
   15.38055611  139.96899414    4.90999985    2.39000010
   15.38361073  147.48300171    4.90999985    2.39000010
   15.38694477  143.71299744    4.90999985    2.39000010
   15.39027786  139.09500122    4.90999985    2.39000010
   15.39333344  142.68099976    4.90999985    2.39000010
   15.39666653  143.32600403    4.90999985    2.39000010
   15.39916611  147.27400208    4.90999985    2.39000010
   15.40027714  140.66400146    4.90999985    2.39000010
   15.40361118  144.73199463    4.90999985    2.39000010
   15.40694427  144.86900330    4.90999985    2.39000010
   15.40999985  146.13999939    4.90999985    2.39000010
   15.41333294  142.60800171    4.90999985    2.39000010
   15.41916656  142.60800171    4.90999985    2.39000010
   15.42333412  143.53399658    4.90999985    2.39000010
   15.42666721  146.77099609    4.90999985    2.39000010
   15.42972279  145.84899902    4.90999985    2.39000010
   15.43249989  140.07699585    4.90999985    2.39000010
   15.43333340  153.84800720    4.90999985    2.39000010
   15.43666649  144.92500305    4.90999985    2.39000010
   15.44000053  148.97300720    4.90999985    2.39000010
   15.44305515  147.97700500    4.90999985    2.39000010
   15.44638920  147.87399292    4.90999985    2.39000010
   15.44944477  148.03700256    4.90999985    2.39000010
   15.45277786  147.95799255    4.90999985    2.39000010
   15.45611095  145.55099487    4.90999985    2.39000010
   15.46194458  145.55099487    4.90999985    2.39000010
   15.46611118  150.50700378    4.90999985    2.39000010
   15.46944427  148.50399780    4.90999985    2.39000010
   15.47249985  150.71400452    4.90999985    2.39000010
   15.47583294  149.62500000    4.90999985    2.39000010
   15.47916603  150.72399902    4.90999985    2.39000010
   15.48222160  152.22500610    4.90999985    2.39000010
   15.48555565  147.93200684    4.90999985    2.39000010
   15.48888874  150.61199951    4.90999985    2.39000010
   15.49194431  149.05599976    4.90999985    2.39000010
   15.49527836  150.98399353    4.90999985    2.39000010
   15.49833393  151.12399292    4.90999985    2.39000010
   15.49916649  144.69799805    4.90999985    2.39000010
   15.50472260  144.69799805    4.90999985    2.39000010
   15.50888920  148.51699829    4.90999985    2.39000010
   15.51222229  149.70799255    4.90999985    2.39000010
   15.51555538  152.00300598    4.90999985    2.39000010
   15.51861095  137.01499939    4.90999985    2.39000010
   15.52194405  146.22399902    4.90999985    2.39000010
   15.52527714  149.81599426    4.90999985    2.39000010
   15.52861118  146.94200134    4.90999985    2.39000010
   15.53166676  147.78300476    4.90999985    2.39000010
   15.53249931  151.03700256    4.90999985    2.39000010
   15.53527832  160.00399780    4.90999985    2.39000010
   15.53861141  157.35299683    4.90999985    2.39000010
   15.54194450  160.52999878    4.90999985    2.39000010
   15.54777813  160.52999878    4.90999985    2.39000010
   15.55194473  151.99099731    4.90999985    2.39000010
   15.55500031  149.99499512    4.90999985    2.39000010
   15.55833340  149.00599670    4.90999985    2.39000010
   15.56166649  154.86900330    4.90999985    2.39000010
   15.56472206  154.32600403    4.90999985    2.39000010
   15.56583309  154.72399902    4.90999985    2.39000010
   15.56833363  151.42900085    4.90999985    2.39000010
   15.57166672  156.04299927    4.90999985    2.39000010
   15.57499981  156.16400146    4.90999985    2.39000010
   15.57805538  153.14500427    4.90999985    2.39000010
   15.58138847  153.53100586    4.90999985    2.39000010
   15.58472157  145.34599304    4.90999985    2.39000010
   15.59055519  145.34599304    4.90999985    2.39000010
   15.59472179  154.86500549    4.90999985    2.39000010
   15.59805489  156.60000610    4.90999985    2.39000010
   15.59916592  140.97599792    4.90999985    2.39000010
   15.60138893  153.43200684    4.90999985    2.39000010
   15.60472298  153.69299316    4.90999985    2.39000010
   15.60805607  155.61199951    4.90999985    2.39000010
   15.61111164  152.92399597    4.90999985    2.39000010
   15.61444473  148.14599609    4.90999985    2.39000010
   15.61777782  154.65100098    4.90999985    2.39000010
   15.62083340  152.72500610    4.90999985    2.39000010
   15.62416649  152.79800415    4.90999985    2.39000010
   15.62750053  148.59500122    4.90999985    2.39000010
   15.63333321  148.59500122    4.90999985    2.39000010
   15.63749981  147.53500366    4.90999985    2.39000010
   15.64083290  150.99600220    4.90999985    2.39000010
   15.64388847  153.10099792    4.90999985    2.39000010
   15.64722252  146.73599243    4.90999985    2.39000010
   15.65055561  147.98199463    4.90999985    2.39000010
   15.65361118  141.61599731    4.90999985    2.39000010
   15.65694427  140.81700134    4.90999985    2.39000010
   15.65999985  149.75000000    4.90999985    2.39000010
   15.66333294  147.38499451    4.90999985    2.39000010
   15.66583252  146.56799316    4.90999985    2.39000010
   15.66694450  138.51499939    4.90999985    2.39000010
   15.67027855  148.45599365    4.90999985    2.39000010
   15.67611122  148.45599365    4.90999985    2.39000010
   15.68027782  140.45199585    4.90999985    2.39000010
   15.68361092  153.55000305    4.90999985    2.39000010
   15.68694496  149.22599792    4.90999985    2.39000010
   15.69000053  151.35000610    4.90999985    2.39000010
   15.69333363  153.56300354    4.90999985    2.39000010
   15.69638920  154.19900513    4.90999985    2.39000010
   15.69916630  157.63499451    4.90999985    2.39000010
   15.69999981  152.90299988    4.90999985    2.39000010
   15.70333290  158.23599243    4.90999985    2.39000010
   15.70666695  144.01499939    4.90999985    2.39000010
   15.70972157  151.20399475    4.90999985    2.39000010
   15.71305561  144.08200073    4.90999985    2.39000010
   15.71916580  144.08200073    4.90999985    2.39000010
   15.72333336  150.91400146    4.90999985    2.39000010
   15.72638798  147.18800354    4.90999985    2.39000010
   15.72972202  144.63600159    4.90999985    2.39000010
   15.73249912  147.36700439    4.90999985    2.39000010
   15.73305511  149.81700134    4.90999985    2.39000010
   15.73638916  149.61799622    4.90999985    2.39000010
   15.73972225  157.12800598    4.90999985    2.39000010
   15.74277782  149.19200134    4.90999985    2.39000010
   15.74611092  160.05000305    4.90999985    2.39000010
   15.74944496  144.72799683    4.90999985    2.39000010
   15.75249958  153.17100525    4.90999985    2.39000010
   15.75583363  146.72700500    4.90999985    2.39000010
   15.76194477  146.72700500    4.90999985    2.39000010
   15.76611137  144.08399963    4.90999985    2.39000010
   15.76944447  152.25500488    4.90999985    2.39000010
   15.77250004  150.63499451    4.90999985    2.39000010
   15.77583313  164.78300476    4.90999985    2.39000010
   15.77888870  157.53700256    4.90999985    2.39000010
   15.78222179  151.68499756    4.90999985    2.39000010
   15.78555584  150.16700745    4.90999985    2.39000010
   15.78861141  145.30700684    4.90999985    2.39000010
   15.79194450  139.61399841    4.90999985    2.39000010
   15.79527855  156.68200684    4.90999985    2.39000010
   15.79833412  148.75700378    4.90999985    2.39000010
   15.79916668  140.98399353    4.90999985    2.39000010
   15.80472279  140.98399353    4.90999985    2.39000010
   15.80888939  153.61399841    4.90999985    2.39000010
   15.81222248  136.48199463    4.90999985    2.39000010
   15.81527805  146.63999939    4.90999985    2.39000010
   15.81861115  153.05599976    4.90999985    2.39000010
   15.82194424  134.91400146    4.90999985    2.39000010
   15.82499981  141.15699768    4.90999985    2.39000010
   15.82833290  141.95300293    4.90999985    2.39000010
   15.83166695  138.30400085    4.90999985    2.39000010
   15.83249950  143.53199768    4.90999985    2.39000010
   15.83527756  148.13699341    4.90999985    2.39000010
   15.83833313  142.76899719    4.90999985    2.39000010
   15.84166622  147.23199463    4.90999985    2.39000010
   15.84749985  147.23199463    4.90999985    2.39000010
   15.85166740  149.45300293    4.90999985    2.39000010
   15.85500050  145.97799683    4.90999985    2.39000010
   15.85833359  157.75199890    4.90999985    2.39000010
   15.86138916  150.54100037    4.90999985    2.39000010
   15.86472225  153.11599731    4.90999985    2.39000010
   15.86583328  156.86599731    4.90999985    2.39000010
   15.86833382  159.21299744    4.90999985    2.39000010
   15.87138939  160.84399414    4.90999985    2.39000010
   15.87472248  155.28700256    4.90999985    2.39000010
   15.87777805  156.69299316    4.90999985    2.39000010
   15.88111115  161.73399353    4.90999985    2.39000010
   15.88444424  150.74200439    4.90999985    2.39000010
   15.89055538  150.74200439    4.90999985    2.39000010
   15.89472198  166.06300354    4.90999985    2.39000010
   15.89777756  166.69900513    4.90999985    2.39000010
   15.89916611  158.00999451    4.90999985    2.39000010
   15.90138817  168.10000610    4.90999985    2.39000010
   15.90472221  163.63600159    4.90999985    2.39000010
   15.90805531  162.41799927    4.90999985    2.39000010
   15.91111088  173.73699951    4.90999985    2.39000010
   15.91444397  187.16600037    4.90999985    2.39000010
   15.91777802  304.34698486    4.90999985    2.39000010
   15.92083359  224.14100647    4.90999985    2.39000010
   15.92416668  163.04899597    4.90999985    2.39000010
   15.92750072  163.29899597    4.90999985    2.39000010
   15.93333340  163.29899597    4.90999985    2.39000010
   15.93750000  159.84800720    4.90999985    2.39000010
   15.94083309  164.29299927    4.90999985    2.39000010
   15.94388866  170.96400452    4.90999985    2.39000010
   15.94722271  179.11999512    4.90999985    2.39000010
   15.95055580  163.71400452    4.90999985    2.39000010
   15.95361137  147.63200378    4.90999985    2.39000010
   15.95694447  161.51199341    4.90999985    2.39000010
   15.96027756  146.78300476    4.90999985    2.39000010
   15.96333313  171.11700439    4.90999985    2.39000010
   15.96583271  154.83299255    4.90999985    2.39000010
   15.96722221  168.39199829    4.90999985    2.39000010
   15.97027779  152.58900452    4.90999985    2.39000010
   15.97611046  152.58900452    4.90999985    2.39000010
   15.98027706  150.30799866    4.90999985    2.39000010
   15.98361111  161.33799744    4.90999985    2.39000010
   15.98666668  151.50799561    4.90999985    2.39000010
   15.99000072  163.37399292    4.90999985    2.39000010
   15.99333382  161.67300415    4.90999985    2.39000010
   15.99638939  179.23100281    4.90999985    2.39000010
   15.99916649  171.51699829    4.90999985    2.39000010
   16.00027847  181.66099548    4.90999985    2.39000010
   16.00333405  177.00500488    4.90999985    2.39000010
   16.00666618  170.96600342    4.90999985    2.39000010
   16.01000023  175.86099243    4.90999985    2.39000010
   16.01305580  175.55700684    4.90999985    2.39000010
   16.01888847  175.55700684    4.90999985    2.39000010
   16.02305603  183.93600464    4.90999985    2.39000010
   16.02638817  179.54299927    4.90999985    2.39000010
   16.02944374  176.32299805    4.90999985    2.39000010
   16.03249931  165.43499756    4.90999985    2.39000010
   16.03333282  172.44799805    4.90999985    2.39000010
   16.03638840  161.57299805    4.90999985    2.39000010
   16.03972244  164.69000244    4.90999985    2.39000010
   16.04305458  151.99099731    4.90999985    2.39000010
   16.04611015  155.74600220    4.90999985    2.39000010
   16.04944420  151.73599243    4.90999985    2.39000010
   16.05277634  156.16000366    4.90999985    2.39000010
   16.05583191  147.60400391    4.90999985    2.39000010
   16.06194305  147.60400391    4.90999985    2.39000010
   16.06611061  148.07099915    4.90999985    2.39000010
   16.06916809  145.88900757    4.90999985    2.39000010
   16.07250023  153.81799316    4.90999985    2.39000010
   16.07555580  183.77000427    4.90999985    2.39000010
   16.07888985  346.55200195    4.90999985    2.39000010
   16.08222389   56.14070129    4.90999985    2.39000010
   16.08527756   -1.00000000    4.90999985    2.39000010
   16.08861160   -1.00000000    4.90999985    2.39000010
   16.09166718   -1.00000000    4.90999985    2.39000010
   16.09500122   -1.00000000    4.90999985    2.39000010
   16.09833336   -1.00000000    4.90999985    2.39000010
   16.11972237   -1.00000000    4.90999985    2.39000010
   16.12388992  333.48300171    4.90999985    2.39000010
   16.12722206  157.85000610    4.90999985    2.39000010
   16.13027763  149.17900085    4.90999985    2.39000010
   16.13249969  153.04600525    4.90999985    2.39000010
   16.13416672  147.86999512    4.90999985    2.39000010
   16.13750076  169.84599304    4.90999985    2.39000010
   16.14055634  151.09300232    4.90999985    2.39000010
   16.14388847  162.38400269    4.90999985    2.39000010
   16.14694405  161.44700623    4.90999985    2.39000010
   16.15027809  152.88400269    4.90999985    2.39000010
   16.15361023  140.60699463    4.90999985    2.39000010
   16.15666580  147.19400024    4.90999985    2.39000010
   16.16250038  147.19400024    4.90999985    2.39000010
   16.16666603  149.14799500    4.90999985    2.39000010
   16.17000008  365.94000244    4.90999985    2.39000010
   16.17194366   92.83920288    4.90999985    2.39000010
   16.17194366  169.84599304    4.90999985    2.39000010
   16.17222214  151.09300232    4.90999985    2.39000010
   16.17222214  162.38400269    4.90999985    2.39000010
   16.17222214  161.44700623    4.90999985    2.39000010
   16.17249870  152.88400269    4.90999985    2.39000010
   16.17249870  140.60699463    4.90999985    2.39000010
   16.17249870  147.19400024    4.90999985    2.39000010
   16.17277718  149.14799500    4.90999985    2.39000010
   16.17277718  365.94000244    4.90999985    2.39000010
   16.17472076   -1.00000000    4.90999985    2.39000010
   16.17805481   -1.00000000    4.90999985    2.39000010
   16.18111038   -1.00000000    4.90999985    2.39000010
   16.18444443   -1.00000000    4.90999985    2.39000010
   16.18750000  222.37399292    4.90999985    2.39000010
   16.19666672   -1.00000000    4.90999985    2.39000010
   16.20000076   -1.00000000    4.90999985    2.39000010
   16.20333481  240.25599670    4.90999985    2.39000010
   16.20583344  165.74600220    4.90999985    2.39000010
   16.20666695  172.46899414    4.90999985    2.39000010
   16.21000099  166.16400146    4.90999985    2.39000010
   16.21333504  143.80999756    4.90999985    2.39000010
   16.21638870  181.60600281    4.90999985    2.39000010
   16.21972275  175.00300598    4.90999985    2.39000010
   16.22277832  187.87600708    4.90999985    2.39000010
   16.22611237  146.52999878    4.90999985    2.39000010
   16.22944450  181.20500183    4.90999985    2.39000010
   16.23555565  181.20500183    4.90999985    2.39000010
   16.23972321  169.17700195    4.90999985    2.39000010
   16.24277878  153.48699951    4.90999985    2.39000010
   16.24611092  186.95799255    4.90999985    2.39000010
   16.24944496  161.88600159    4.90999985    2.39000010
   16.25277710  189.31199646    4.90999985    2.39000010
   16.25583267  153.31300354    4.90999985    2.39000010
   16.25916672  199.00399780    4.90999985    2.39000010
   16.26222229  210.49400330    4.90999985    2.39000010
   16.26555634  140.85400391    4.90999985    2.39000010
   16.26888847  202.02400208    4.90999985    2.39000010
   16.27194405  177.31700134    4.90999985    2.39000010
   16.27249908  171.79100037    4.90999985    2.39000010
   16.27833366  171.79100037    4.90999985    2.39000010
   16.28249931  156.91600037    4.90999985    2.39000010
   16.28583336  184.17700195    4.90999985    2.39000010
   16.28888893  151.22599792    4.90999985    2.39000010
   16.29222107  161.16000366    4.90999985    2.39000010
   16.29555511  161.52900696    4.90999985    2.39000010
   16.29861069  174.30999756    4.90999985    2.39000010
   16.30194283  183.11199951    4.90999985    2.39000010
   16.30527687  171.46699524    4.90999985    2.39000010
   16.30583191  151.46600342    4.90999985    2.39000010
   16.30888748  179.61300659    4.90999985    2.39000010
   16.31222153  219.59300232    4.90999985    2.39000010
   16.31527710  159.29600525    4.90999985    2.39000010
   16.32139015  159.29600525    4.90999985    2.39000010
   16.32527924  195.31900024    4.90999985    2.39000010
   16.32861137  180.90400696    4.90999985    2.39000010
   16.33194542  176.59300232    4.90999985    2.39000010
   16.33500099  174.85699463    4.90999985    2.39000010
   16.33833313  162.15299988    4.90999985    2.39000010
   16.33916664  169.90199280    4.90999985    2.39000010
   16.34194565  178.35000610    4.90999985    2.39000010
   16.34527779  188.28399658    4.90999985    2.39000010
   16.34833336  167.87699890    4.90999985    2.39000010
   16.35166740  172.71400452    4.90999985    2.39000010
   16.35499954  171.84800720    4.90999985    2.39000010
   16.35805511  188.97799683    4.90999985    2.39000010
   16.36416626  188.97799683    4.90999985    2.39000010
   16.36833382  185.47099304    4.90999985    2.39000010
   16.37138939  177.24000549    4.90999985    2.39000010
   16.37249947  169.02499390    4.90999985    2.39000010
   16.37500000  172.09199524    4.90999985    2.39000010
   16.37833405  174.53599548    4.90999985    2.39000010
   16.38138962  179.67199707    4.90999985    2.39000010
   16.38472176  178.30599976    4.90999985    2.39000010
   16.38805580  190.57699585    4.90999985    2.39000010
   16.39111137  176.99499512    4.90999985    2.39000010
   16.39444351  181.86900330    4.90999985    2.39000010
   16.39749908  160.33399963    4.90999985    2.39000010
   16.40083313  182.65600586    4.90999985    2.39000010
   16.40694427  182.65600586    4.90999985    2.39000010
   16.41110992  158.27699280    4.90999985    2.39000010
   16.41416550  167.06599426    4.90999985    2.39000010
   16.41749954  179.00100708    4.90999985    2.39000010
   16.42083359  145.82600403    4.90999985    2.39000010
   16.42388916  146.91700745    4.90999985    2.39000010
   16.42722130  167.46099854    4.90999985    2.39000010
   16.43055534  171.93699646    4.90999985    2.39000010
   16.43361092  152.36599731    4.90999985    2.39000010
   16.43694305  162.27600098    4.90999985    2.39000010
   16.43916512  163.66499329    4.90999985    2.39000010
   16.44055557  165.53900146    4.90999985    2.39000010
   16.44388771  164.96899414    4.90999985    2.39000010
   16.44972038  164.96899414    4.90999985    2.39000010
   16.45388985  186.66999817    4.90999985    2.39000010
   16.45722389  191.65699768    4.90999985    2.39000010
   16.46027946  195.20300293    4.90999985    2.39000010
   16.46361160  206.99600220    4.90999985    2.39000010
   16.46694565  178.96899414    4.90999985    2.39000010
   16.47000122  164.08799744    4.90999985    2.39000010
   16.47249985  164.26800537    4.90999985    2.39000010
   16.47361183  167.25599670    4.90999985    2.39000010
   16.47694588  148.07000732    4.90999985    2.39000010
   16.48000145  150.32699585    4.90999985    2.39000010
   16.48333359  140.63099670    4.90999985    2.39000010
   16.48638916  144.99400330    4.90999985    2.39000010
   16.49250031  144.99400330    4.90999985    2.39000010
   16.49666786  141.77999878    4.90999985    2.39000010
   16.50000000  138.62800598    4.90999985    2.39000010
   16.50333405  138.00900269    4.90999985    2.39000010
   16.50583267  135.78399658    4.90999985    2.39000010
   16.50694466  140.66799927    4.90999985    2.39000010
   16.51027870  131.04800415    4.90999985    2.39000010
   16.51333427  132.51300049    4.90999985    2.39000010
   16.51666641  145.24000549    4.90999985    2.39000010
   16.52000046  137.12899780    4.90999985    2.39000010
   16.52305603  143.32499695    4.90999985    2.39000010
   16.52638817  138.34800720    4.90999985    2.39000010
   16.52944374  139.73199463    4.90999985    2.39000010
   16.53555489  139.73199463    4.90999985    2.39000010
   16.53972244  143.23500061    4.90999985    2.39000010
   16.54277802  136.50799561    4.90999985    2.39000010
   16.54611015  136.04100037    4.90999985    2.39000010
   16.54916573  137.75399780    4.90999985    2.39000010
   16.55249977  129.08799744    4.90999985    2.39000010
   16.55583191  144.35899353    4.90999985    2.39000010
   16.55888748  142.09300232    4.90999985    2.39000010
   16.56222153  138.40400696    4.90999985    2.39000010
   16.56555557  151.75399780    4.90999985    2.39000010
   16.56861115  147.46499634    4.90999985    2.39000010
   16.57194519  143.75999451    4.90999985    2.39000010
   16.57250023  140.77799988    4.90999985    2.39000010
   16.57833481  140.77799988    4.90999985    2.39000010
   16.58250046  152.94700623    4.90999985    2.39000010
   16.58583450  152.96400452    4.90999985    2.39000010
   16.58889008  150.74800110    4.90999985    2.39000010
   16.59222221  140.36199951    4.90999985    2.39000010
   16.59527779  142.19999695    4.90999985    2.39000010
   16.59861183  141.13499451    4.90999985    2.39000010
   16.60194397  140.64799500    4.90999985    2.39000010
   16.60499954  144.16999817    4.90999985    2.39000010
   16.60583305  132.06700134    4.90999985    2.39000010
   16.60861206  150.86799622    4.90999985    2.39000010
   16.61194420  143.87199402    4.90999985    2.39000010
   16.61499977  148.39300537    4.90999985    2.39000010
   16.62111092  148.39300537    4.90999985    2.39000010
   16.62527847  139.80599976    4.90999985    2.39000010
   16.62861061  147.56100464    4.90999985    2.39000010
   16.63166618  138.24000549    4.90999985    2.39000010
   16.63500023  141.89500427    4.90999985    2.39000010
   16.63833237  139.74400330    4.90999985    2.39000010
   16.63916588  143.01199341    4.90999985    2.39000010
   16.64194489  135.96400452    4.90999985    2.39000010
   16.64527702  143.92900085    4.90999985    2.39000010
   16.64833260  134.96299744    4.90999985    2.39000010
   16.65166664  136.46800232    4.90999985    2.39000010
   16.65499878  132.88099670    4.90999985    2.39000010
   16.65805435  138.33500671    4.90999985    2.39000010
   16.66388893  138.33500671    4.90999985    2.39000010
   16.66805458  226.75900269    4.90999985    2.39000010
   16.67138863  336.41900635    4.90999985    2.39000010
   16.67249870  253.82400513    4.90999985    2.39000010
   16.67499924  270.47601318    4.90999985    2.39000010
   16.67833328  299.22100830    4.90999985    2.39000010
   16.68138885  128.91099548    4.90999985    2.39000010
   16.68472099  140.54899597    4.90999985    2.39000010
   16.68805504  135.33000183    4.90999985    2.39000010
   16.69111061  132.03999329    4.90999985    2.39000010
   16.69444275  127.50299835    4.90999985    2.39000010
   16.69749832  135.37600708    4.90999985    2.39000010
   16.70083427  130.69700623    4.90999985    2.39000010
   16.70694542  130.69700623    4.90999985    2.39000010
   16.71111107  136.92300415    4.90999985    2.39000010
   16.71416664  137.09800720    4.90999985    2.39000010
   16.71750069  130.05999756    4.90999985    2.39000010
   16.72055626  117.73799896    4.90999985    2.39000010
   16.72389030  140.45100403    4.90999985    2.39000010
   16.72722244  130.31500244    4.90999985    2.39000010
   16.73027802  131.67900085    4.90999985    2.39000010
   16.73361206  137.12500000    4.90999985    2.39000010
   16.73694420  143.70700073    4.90999985    2.39000010
   16.73916626  142.59399414    4.90999985    2.39000010
   16.74055672  132.98399353    4.90999985    2.39000010
   16.74388885  145.99400330    4.90999985    2.39000010
   16.74972153  145.99400330    4.90999985    2.39000010
   16.75388908  137.83999634    4.90999985    2.39000010
   16.75694466  139.76800537    4.90999985    2.39000010
   16.76027870  145.52999878    4.90999985    2.39000010
   16.76361084  143.05200195    4.90999985    2.39000010
   16.76666641  146.74899292    4.90999985    2.39000010
   16.77000046  142.95500183    4.90999985    2.39000010
   16.77277756  140.90899658    4.90999985    2.39000010
   16.77361107  145.75199890    4.90999985    2.39000010
   16.77694511  144.88699341    4.90999985    2.39000010
   16.78000069  137.92599487    4.90999985    2.39000010
   16.78333282  133.88999939    4.90999985    2.39000010
   16.78666687  137.85400391    4.90999985    2.39000010
   16.79277802  137.85400391    4.90999985    2.39000010
   16.79694366  140.06700134    4.90999985    2.39000010
   16.79999924  136.22000122    4.90999985    2.39000010
   16.80333328  149.19400024    4.90999985    2.39000010
   16.80611038  141.24699402    4.90999985    2.39000010
   16.80694389  135.78900146    4.90999985    2.39000010
   16.81027794  139.78300476    4.90999985    2.39000010
   16.81333351  136.87500000    4.90999985    2.39000010
   16.81666756  134.93600464    4.90999985    2.39000010
   16.82000160  138.26400757    4.90999985    2.39000010
   16.82305717  140.21099854    4.90999985    2.39000010
   16.82638931  139.19000244    4.90999985    2.39000010
   16.82944489  139.55900574    4.90999985    2.39000010
   16.83527756  139.55900574    4.90999985    2.39000010
   16.83944511  137.75399780    4.90999985    2.39000010
   16.84277916  138.76400757    4.90999985    2.39000010
   16.84611130  139.63699341    4.90999985    2.39000010
   16.84916687  139.70799255    4.90999985    2.39000010
   16.85250092  141.00500488    4.90999985    2.39000010
   16.85583305  136.48800659    4.90999985    2.39000010
   16.85888863  144.75900269    4.90999985    2.39000010
   16.86222267  135.82800293    4.90999985    2.39000010
   16.86527824  140.81599426    4.90999985    2.39000010
   16.86861038  150.08599854    4.90999985    2.39000010
   16.87194443  139.74800110    4.90999985    2.39000010
   16.87277794  143.40899658    4.90999985    2.39000010
   16.87833405  143.40899658    4.90999985    2.39000010
   16.88222313  133.55900574    4.90999985    2.39000010
   16.88555527  139.23800659    4.90999985    2.39000010
   16.88888931  144.29800415    4.90999985    2.39000010
   16.89194489  142.76499939    4.90999985    2.39000010
   16.89527702  143.80599976    4.90999985    2.39000010
   16.89861107  135.63999939    4.90999985    2.39000010
   16.90166664  135.04499817    4.90999985    2.39000010
   16.90499878  141.51800537    4.90999985    2.39000010
   16.90611076  149.06700134    4.90999985    2.39000010
   16.90861130  159.75799561    4.90999985    2.39000010
   16.91194344  139.40800476    4.90999985    2.39000010
   16.91499901  142.72099304    4.90999985    2.39000010
   16.92111015  142.72099304    4.90999985    2.39000010
   16.92527771  142.83099365    4.90999985    2.39000010
   16.92833328  175.43299866    4.90999985    2.39000010
   16.93166542  145.25799561    4.90999985    2.39000010
   16.93499947  135.34700012    4.90999985    2.39000010
   16.93805504  141.19900513    4.90999985    2.39000010
   16.93944359  146.70599365    4.90999985    2.39000010
   16.94166565  143.09300232    4.90999985    2.39000010
   16.94499969  137.61399841    4.90999985    2.39000010
   16.94805527  150.70599365    4.90999985    2.39000010
   16.95138931  145.04100037    4.90999985    2.39000010
   16.95472336  135.19000244    4.90999985    2.39000010
   16.95777893  151.15499878    4.90999985    2.39000010
   16.96389008  151.15499878    4.90999985    2.39000010
   16.96805573  142.05999756    4.90999985    2.39000010
   16.97138977  140.38299561    4.90999985    2.39000010
   16.97277832  136.08000183    4.90999985    2.39000010
   16.97472191  135.09300232    4.90999985    2.39000010
   16.97805595  129.50100708    4.90999985    2.39000010
   16.98111153  137.16000366    4.90999985    2.39000010
   16.98444557  129.00900269    4.90999985    2.39000010
   16.98777771  137.52900696    4.90999985    2.39000010
   16.99083328  136.99200439    4.90999985    2.39000010
   16.99416733  136.77499390    4.90999985    2.39000010
   16.99749947  134.38099670    4.90999985    2.39000010
   17.00055504  137.72999573    4.90999985    2.39000010
   17.00666618  137.72999573    4.90999985    2.39000010
   17.01083374  136.00900269    4.90999985    2.39000010
   17.01416588  145.45899963    4.90999985    2.39000010
   17.01722145  140.15800476    4.90999985    2.39000010
   17.02055550  143.61999512    4.90999985    2.39000010
   17.02388954  143.67599487    4.90999985    2.39000010
   17.02722168  144.36799622    4.90999985    2.39000010
   17.03027725  147.76300049    4.90999985    2.39000010
   17.03361130  159.20899963    4.90999985    2.39000010
   17.03666687  146.75000000    4.90999985    2.39000010
   17.03944397  139.07899475    4.90999985    2.39000010
   17.04027748  148.27499390    4.90999985    2.39000010
   17.04361153  149.80499268    4.90999985    2.39000010
   17.04972076  149.80499268    4.90999985    2.39000010
   17.05360985  145.25000000    4.90999985    2.39000010
   17.05694389  174.90800476    4.90999985    2.39000010
   17.06027794  160.69500732    4.90999985    2.39000010
   17.06333351  141.79699707    4.90999985    2.39000010
   17.06666756  143.33599854    4.90999985    2.39000010
   17.07000160  141.06700134    4.90999985    2.39000010
   17.07277870  145.18299866    4.90999985    2.39000010
   17.07361221  139.47900391    4.90999985    2.39000010
   17.07694626  140.88600159    4.90999985    2.39000010
   17.08027840  139.16499329    4.90999985    2.39000010
   17.08333397  138.23500061    4.90999985    2.39000010
   17.08666801  143.63800049    4.90999985    2.39000010
   17.09250069  143.63800049    4.90999985    2.39000010
   17.09666824  141.35200500    4.90999985    2.39000010
   17.09972191  136.15800476    4.90999985    2.39000010
   17.10305595  137.26899719    4.90999985    2.39000010
   17.10611153  136.67900085    4.90999985    2.39000010
   17.10666656  144.43299866    4.90999985    2.39000010
   17.11000061  143.10099792    4.90999985    2.39000010
   17.11305618  134.61199951    4.90999985    2.39000010
   17.11638832  143.44700623    4.90999985    2.39000010
   17.13694382  143.44700623    4.90999985    2.39000010
   17.14111137  135.98100281    4.90999985    2.39000010
   17.14444351  135.89599609    4.90999985    2.39000010
   17.14749908  139.46400452    4.90999985    2.39000010
   17.15083313  139.37399292    4.90999985    2.39000010
   17.15416718  152.47799683    4.90999985    2.39000010
   17.15722275  134.69299316    4.90999985    2.39000010
   17.16055489  144.09300232    4.90999985    2.39000010
   17.16388893  141.84700012    4.90999985    2.39000010
   17.16694450  143.08799744    4.90999985    2.39000010
   17.17027664  139.71000671    4.90999985    2.39000010
   17.17277718  140.58900452    4.90999985    2.39000010
   17.17388916  133.18600464    4.90999985    2.39000010
   17.17972183  133.18600464    4.90999985    2.39000010
   17.18388748   -1.00000000    4.90999985    2.39000010
   17.18722153  323.39099121    4.90999985    2.39000010
   17.19027710   -1.00000000    4.90999985    2.39000010
   17.19361115   -1.00000000    4.90999985    2.39000010
   17.19694328   -1.00000000    4.90999985    2.39000010
   17.20000076   -1.00000000    4.90999985    2.39000010
   17.20333481   -1.00000000    4.90999985    2.39000010
   17.20666695   -1.00000000    4.90999985    2.39000010
   17.21000099   -1.00000000    4.90999985    2.39000010
   17.21333504   -1.00000000    4.90999985    2.39000010
   17.21638870   -1.00000000    4.90999985    2.39000010
   17.22666740   -1.00000000    4.90999985    2.39000010
   17.23000145   -1.00000000    4.90999985    2.39000010
   17.23305511   -1.00000000    4.90999985    2.39000010
   17.23638916   -1.00000000    4.90999985    2.39000010
   17.23972321   -1.00000000    4.90999985    2.39000010
   17.24305534   -1.00000000    4.90999985    2.39000010
   17.24638939  181.46200562    4.90999985    2.39000010
   17.24944496  163.77499390    4.90999985    2.39000010
   17.25277710  141.16799927    4.90999985    2.39000010
   17.25583267  136.56700134    4.90999985    2.39000010
   17.25916672  134.50900269    4.90999985    2.39000010
   17.26555634  134.50900269    4.90999985    2.39000010
   17.26972198  146.12899780    4.90999985    2.39000010
   17.27277756  148.74400330    4.90999985    2.39000010
   17.27333260  153.75100708    4.90999985    2.39000010
   17.27638817  147.62800598    4.90999985    2.39000010
   17.27972221  146.30299377    4.90999985    2.39000010
   17.28305435  146.73599243    4.90999985    2.39000010
   17.28610992  147.11599731    4.90999985    2.39000010
   17.28944397  157.30900574    4.90999985    2.39000010
   17.29249954  145.77900696    4.90999985    2.39000010
   17.29583359  148.82200623    4.90999985    2.39000010
   17.29916573  141.63499451    4.90999985    2.39000010
   17.30222130  147.50399780    4.90999985    2.39000010
   17.30833244  147.50399780    4.90999985    2.39000010
   17.31250000  151.07200623    4.90999985    2.39000010
   17.31555557  151.24099731    4.90999985    2.39000010
   17.31888962  149.67599487    4.90999985    2.39000010
   17.32222366  141.67199707    4.90999985    2.39000010
   17.32527924  142.19000244    4.90999985    2.39000010
   17.32861137  144.35000610    4.90999985    2.39000010
   17.33194542  145.81900024    4.90999985    2.39000010
   17.33500099  145.75500488    4.90999985    2.39000010
   17.33833313  141.49299622    4.90999985    2.39000010
   17.33944511  139.88800049    4.90999985    2.39000010
   17.34194565  139.86999512    4.90999985    2.39000010
   17.34500122  141.81500244    4.90999985    2.39000010
   17.35111237  141.81500244    4.90999985    2.39000010
   17.35527802  142.82200623    4.90999985    2.39000010
   17.35861206  146.81799316    4.90999985    2.39000010
   17.36166763  151.91400146    4.90999985    2.39000010
   17.36499977  147.25999451    4.90999985    2.39000010
   17.36833382  152.03700256    4.90999985    2.39000010
   17.37138939  143.47999573    4.90999985    2.39000010
   17.37277794  149.31799316    4.90999985    2.39000010
   17.37527847  144.02400208    4.90999985    2.39000010
   17.37833405  147.18499756    4.90999985    2.39000010
   17.38166618  146.54699707    4.90999985    2.39000010
   17.38500023  142.49200439    4.90999985    2.39000010
   17.38805580  153.97000122    4.90999985    2.39000010
   17.39388847  153.97000122    4.90999985    2.39000010
   17.39805603  143.48199463    4.90999985    2.39000010
   17.40138817  139.47099304    4.90999985    2.39000010
   17.40472221  137.30499268    4.90999985    2.39000010
   17.40611076  139.74400330    4.90999985    2.39000010
   17.40833282  142.58200073    4.90999985    2.39000010
   17.41166687  138.13999939    4.90999985    2.39000010
   17.41472244  136.01100159    4.90999985    2.39000010
   17.41805458  135.50799561    4.90999985    2.39000010
   17.42111015  147.16700745    4.90999985    2.39000010
   17.42444420  144.44200134    4.90999985    2.39000010
   17.42777634  147.81900024    4.90999985    2.39000010
   17.43083191  143.97599792    4.90999985    2.39000010
   17.43694305  143.97599792    4.90999985    2.39000010
   17.44111061  143.01300049    4.90999985    2.39000010
   17.44416618  158.06599426    4.90999985    2.39000010
   17.44749832  146.00300598    4.90999985    2.39000010
   17.45055580  151.21099854    4.90999985    2.39000010
   17.45388985  153.94799805    4.90999985    2.39000010
   17.45722389  140.96299744    4.90999985    2.39000010
   17.46027946  157.39399719    4.90999985    2.39000010
   17.46361160  155.99299622    4.90999985    2.39000010
   17.46694565  150.44799805    4.90999985    2.39000010
   17.47000122  161.47999573    4.90999985    2.39000010
   17.47277832  155.43699646    4.90999985    2.39000010
   17.47361183  159.50100708    4.90999985    2.39000010
   17.47972298  159.50100708    4.90999985    2.39000010
   17.48388863  143.54200745    4.90999985    2.39000010
   17.48694420  149.43600464    4.90999985    2.39000010
   17.49027824  138.58200073    4.90999985    2.39000010
   17.49361229  149.25999451    4.90999985    2.39000010
   17.49666786  141.30700684    4.90999985    2.39000010
   17.50000000  145.21200562    4.90999985    2.39000010
   17.50333405  147.98599243    4.90999985    2.39000010
   17.50611115  145.57600403    4.90999985    2.39000010
   17.50694466  151.90199280    4.90999985    2.39000010
   17.51000023  151.07800293    4.90999985    2.39000010
   17.51333427  144.54899597    4.90999985    2.39000010
   17.51666641  135.54800415    4.90999985    2.39000010
   17.52249908  135.54800415    4.90999985    2.39000010
   17.52666664  147.05000305    4.90999985    2.39000010
   17.53000069  148.22200012    4.90999985    2.39000010
   17.53305435  142.68200684    4.90999985    2.39000010
   17.53638840  144.49800110    4.90999985    2.39000010
   17.53944397  139.71600342    4.90999985    2.39000010
   17.53999901  140.61300659    4.90999985    2.39000010
   17.54333305  133.20100403    4.90999985    2.39000010
   17.54638863  144.92100525    4.90999985    2.39000010
   17.54972076  137.96899414    4.90999985    2.39000010
   17.55277634  137.82899475    4.90999985    2.39000010
   17.55611038  144.74699402    4.90999985    2.39000010
   17.55944443  145.99200439    4.90999985    2.39000010
   17.56527710  145.99200439    4.90999985    2.39000010
   17.56944466  144.49800110    4.90999985    2.39000010
   17.57277870  137.75300598    4.90999985    2.39000010
   17.57333374  147.91999817    4.90999985    2.39000010
   17.57666779  138.58999634    4.90999985    2.39000010
   17.57972336  139.08799744    4.90999985    2.39000010
   17.58305550  147.14799500    4.90999985    2.39000010
   17.58611107  136.31100464    4.90999985    2.39000010
   17.58944511  130.67500305    4.90999985    2.39000010
   17.59277916  138.68800354    4.90999985    2.39000010
   17.59583473  140.47500610    4.90999985    2.39000010
   17.59916687  139.10299683    4.90999985    2.39000010
   17.60250092  142.71699524    4.90999985    2.39000010
   17.60833359  142.71699524    4.90999985    2.39000010
   17.61250114  140.44400024    4.90999985    2.39000010
   17.61555672  132.97300720    4.90999985    2.39000010
   17.61888885  142.96099854    4.90999985    2.39000010
   17.62194443  135.78500366    4.90999985    2.39000010
   17.62527847  135.02900696    4.90999985    2.39000010
   17.62861061  137.25500488    4.90999985    2.39000010
   17.63166618  131.78799438    4.90999985    2.39000010
   17.63500023  139.28300476    4.90999985    2.39000010
   17.63833237  140.32200623    4.90999985    2.39000010
   17.63944435  140.27099609    4.90999985    2.39000010
   17.64194489  133.01499939    4.90999985    2.39000010
   17.64527702  138.02200317    4.90999985    2.39000010
   17.65111160  138.02200317    4.90999985    2.39000010
   17.65527725  138.52000427    4.90999985    2.39000010
   17.65833282  144.08399963    4.90999985    2.39000010
   17.66166687  140.13000488    4.90999985    2.39000010
   17.66499901  137.91299438    4.90999985    2.39000010
   17.66805458  137.44299316    4.90999985    2.39000010
   17.67138863  130.67599487    4.90999985    2.39000010
   17.67277718  137.08700562    4.90999985    2.39000010
   17.67499924  135.57899475    4.90999985    2.39000010
   17.67833328  140.55299377    4.90999985    2.39000010
   17.68138885  132.36500549    4.90999985    2.39000010
   17.68472099  141.72500610    4.90999985    2.39000010
   17.68777657  138.17100525    4.90999985    2.39000010
   17.69388771  138.17100525    4.90999985    2.39000010
   17.69805527  134.09700012    4.90999985    2.39000010
   17.70138931  138.43899536    4.90999985    2.39000010
   17.70444489  134.44200134    4.90999985    2.39000010
   17.70639038  145.06300354    4.90999985    2.39000010
   17.70805550  141.49099731    4.90999985    2.39000010
   17.71138954  139.73800659    4.90999985    2.39000010
   17.71472359  133.07899475    4.90999985    2.39000010
   17.71777916  134.45100403    4.90999985    2.39000010
   17.72111130  134.51199341    4.90999985    2.39000010
   17.72444534  133.30599976    4.90999985    2.39000010
   17.72750092  135.30400085    4.90999985    2.39000010
   17.73083305  135.14900208    4.90999985    2.39000010
   17.73666763  135.14900208    4.90999985    2.39000010
   17.74083328  137.40299988    4.90999985    2.39000010
   17.74416733  135.88000488    4.90999985    2.39000010
   17.74749947  137.71899414    4.90999985    2.39000010
   17.75055504  136.89900208    4.90999985    2.39000010
   17.75388908  129.12399292    4.90999985    2.39000010
   17.75722313  133.63900757    4.90999985    2.39000010
   17.76027870  133.87899780    4.90999985    2.39000010
   17.76361084  139.61900330    4.90999985    2.39000010
   17.76694489  140.67700195    4.90999985    2.39000010
   17.77000046  140.22999573    4.90999985    2.39000010
   17.77305603  140.12699890    4.90999985    2.39000010
   17.77361107  126.69300079    4.90999985    2.39000010
   17.77972221  126.69300079    4.90999985    2.39000010
   17.78388786  140.50300598    4.90999985    2.39000010
   17.78722191  142.05299377    4.90999985    2.39000010
   17.79027748  140.25000000    4.90999985    2.39000010
   17.79361153  139.13299561    4.90999985    2.39000010
   17.79694366  143.29100037    4.90999985    2.39000010
   17.79999924  138.23599243    4.90999985    2.39000010
   17.80333328  144.94200134    4.90999985    2.39000010
   17.80638885  141.24099731    4.90999985    2.39000010
   17.80722237  135.34300232    4.90999985    2.39000010
   17.81027794  144.31199646    4.90999985    2.39000010
   17.81361008  142.61500549    4.90999985    2.39000010
   17.81666756  144.52699280    4.90999985    2.39000010
   17.82250023  144.52699280    4.90999985    2.39000010
   17.82666779  146.67900085    4.90999985    2.39000010
   17.82972336  143.15699768    4.90999985    2.39000010
   17.83305550  142.17300415    4.90999985    2.39000010
   17.83638954  141.06900024    4.90999985    2.39000010
   17.83972359  139.72000122    4.90999985    2.39000010
   17.84027863  135.80700684    4.90999985    2.39000010
   17.84333420  137.07099915    4.90999985    2.39000010
   17.84666824  139.99000549    4.90999985    2.39000010
   17.84972191  140.35699463    4.90999985    2.39000010
   17.85305595  141.06599426    4.90999985    2.39000010
   17.85639000  139.65100098    4.90999985    2.39000010
   17.85944557  143.47599792    4.90999985    2.39000010
   17.86527824  143.47599792    4.90999985    2.39000010
   17.86944389  144.58799744    4.90999985    2.39000010
   17.87277794  133.40800476    4.90999985    2.39000010
   17.87333298  142.99000549    4.90999985    2.39000010
   17.87638855  141.96899414    4.90999985    2.39000010
   17.87972260  139.34500122    4.90999985    2.39000010
   17.88277817  144.12199402    4.90999985    2.39000010
   17.88611031  143.93800354    4.90999985    2.39000010
   17.88944435  137.54899597    4.90999985    2.39000010
   17.89249992  141.72000122    4.90999985    2.39000010
   17.89583397  133.73899841    4.90999985    2.39000010
   17.89888954  137.95199585    4.90999985    2.39000010
   17.90222168  140.20700073    4.90999985    2.39000010
   17.90805435  140.20700073    4.90999985    2.39000010
   17.91222191  139.13200378    4.90999985    2.39000010
   17.91555595  103.80400085    4.90999985    2.39000010
   17.91860962  137.67199707    4.90999985    2.39000010
   17.92194366  142.13299561    4.90999985    2.39000010
   17.92527771  139.60800171    4.90999985    2.39000010
   17.92833328  143.14999390    4.90999985    2.39000010
   17.93166542  141.18499756    4.90999985    2.39000010
   17.93499947  134.85899353    4.90999985    2.39000010
   17.93805504  142.10299683    4.90999985    2.39000010
   17.93999863  142.98699951    4.90999985    2.39000010
   17.94166565  136.76199341    4.90999985    2.39000010
   17.94499969  133.39900208    4.90999985    2.39000010
   17.95111275  133.39900208    4.90999985    2.39000010
   17.95499992  135.04400635    4.90999985    2.39000010
   17.95833397  143.19099426    4.90999985    2.39000010
   17.96166801  141.38200378    4.90999985    2.39000010
   17.96472359  140.95799255    4.90999985    2.39000010
   17.96805573  141.77600098    4.90999985    2.39000010
   17.97138977  136.01300049    4.90999985    2.39000010
   17.97361183  140.90899658    4.90999985    2.39000010
   17.97500038  137.61199951    4.90999985    2.39000010
   17.97833443  143.74400330    4.90999985    2.39000010
   17.98139000  140.72399902    4.90999985    2.39000010
   17.98472214  131.49200439    4.90999985    2.39000010
   17.98805618  137.44500732    4.90999985    2.39000010
   17.99388885  137.44500732    4.90999985    2.39000010
   17.99805641  138.10299683    4.90999985    2.39000010
   18.00111198  134.01899719    4.90999985    2.39000010
   18.00444412  136.48199463    4.90999985    2.39000010
   18.00694466  134.83200073    4.90999985    2.39000010
   18.00805473  144.62399292    4.90999985    2.39000010
   18.01138878  133.86999512    4.90999985    2.39000010
   18.01444435  140.30400085    4.90999985    2.39000010
   18.01777840  139.22599792    4.90999985    2.39000010
   18.02111053  133.80099487    4.90999985    2.39000010
   18.02416611  133.97799683    4.90999985    2.39000010
   18.02750015  135.76899719    4.90999985    2.39000010
   18.03083229  130.85499573    4.90999985    2.39000010
   18.03666687  130.85499573    4.90999985    2.39000010
   18.04083252  136.50199890    4.90999985    2.39000010
   18.04416656  137.37699890    4.90999985    2.39000010
   18.04722214  138.30700684    4.90999985    2.39000010
   18.05055428  135.18499756    4.90999985    2.39000010
   18.05360985  136.74400330    4.90999985    2.39000010
   18.05694389  146.20100403    4.90999985    2.39000010
   18.06027794  147.69200134    4.90999985    2.39000010
   18.06333351  136.89399719    4.90999985    2.39000010
   18.06666756  139.33900452    4.90999985    2.39000010
   18.07000160  142.44299316    4.90999985    2.39000010
   18.07305717  145.41200256    4.90999985    2.39000010
   18.07361221  136.96899414    4.90999985    2.39000010
   18.07944489  136.96899414    4.90999985    2.39000010
   18.08361244  146.55400085    4.90999985    2.39000010
   18.08694458  145.80900574    4.90999985    2.39000010
   18.09000015  146.48300171    4.90999985    2.39000010
   18.09333420  139.03300476    4.90999985    2.39000010
   18.09666824  141.96400452    4.90999985    2.39000010
   18.09972191  138.14799500    4.90999985    2.39000010
   18.10305595  140.13699341    4.90999985    2.39000010
   18.10639000  135.93600464    4.90999985    2.39000010
   18.10694504  140.73800659    4.90999985    2.39000010
   18.11000061  136.27099609    4.90999985    2.39000010
   18.11305618  132.04100037    4.90999985    2.39000010
   18.11638832  134.66400146    4.90999985    2.39000010
   18.12249947  134.66400146    4.90999985    2.39000010
   18.12638855  132.27000427    4.90999985    2.39000010
   18.12972260  139.63800049    4.90999985    2.39000010
   18.13305473  139.03799438    4.90999985    2.39000010
   18.15055466  137.40199280    4.90999985    2.39000010
   18.15305519  141.08900452    4.90999985    2.39000010
   18.15611076  142.75900269    4.90999985    2.39000010
   18.15944481  151.61300659    4.90999985    2.39000010
   18.16527748  151.61300659    4.90999985    2.39000010
   18.16944313  140.12300110    4.90999985    2.39000010
   18.17277718  144.32800293    4.90999985    2.39000010
   18.17611122  148.78399658    4.90999985    2.39000010
   18.17916679  140.34100342    4.90999985    2.39000010
   18.18249893  139.01899719    4.90999985    2.39000010
   18.18388748  145.91200256    4.90999985    2.39000010
   18.18610954  143.47700500    4.90999985    2.39000010
   18.18944359  142.61700439    4.90999985    2.39000010
   18.19277763  157.41700745    4.90999985    2.39000010
   18.19583321  143.19299316    4.90999985    2.39000010
   18.19916534  144.75000000    4.90999985    2.39000010
   18.20250130  150.35299683    4.90999985    2.39000010
   18.20833397  150.35299683    4.90999985    2.39000010
   18.21250153  147.44799805    4.90999985    2.39000010
   18.21555710  146.08399963    4.90999985    2.39000010
   18.21722221  157.99099731    4.90999985    2.39000010
   18.21916771  144.36599731    4.90999985    2.39000010
   18.22249985  146.83799744    4.90999985    2.39000010
   18.22555542  156.83000183    4.90999985    2.39000010
   18.22888947  143.12399292    4.90999985    2.39000010
   18.23222351  145.19900513    4.90999985    2.39000010
   18.23527718  146.26800537    4.90999985    2.39000010
   18.23861122  143.92599487    4.90999985    2.39000010
   18.24194527  144.84599304    4.90999985    2.39000010
   18.24500084  149.80999756    4.90999985    2.39000010
   18.25111198  149.80999756    4.90999985    2.39000010
   18.25527763  140.83200073    4.90999985    2.39000010
   18.25833321  141.11500549    4.90999985    2.39000010
   18.26166725  139.98199463    4.90999985    2.39000010
   18.26499939  146.45300293    4.90999985    2.39000010
   18.26805496  141.83500671    4.90999985    2.39000010
   18.27138901  148.75599670    4.90999985    2.39000010
   18.27472115  147.96099854    4.90999985    2.39000010
   18.27777672  144.64399719    4.90999985    2.39000010
   18.28111076  138.02400208    4.90999985    2.39000010
   18.28388786  143.63299561    4.90999985    2.39000010
   18.28472137  141.68600464    4.90999985    2.39000010
   18.28805542  140.96400452    4.90999985    2.39000010
   18.29388809  140.96400452    4.90999985    2.39000010
   18.29805565  142.72799683    4.90999985    2.39000010
   18.30138779  150.10000610    4.90999985    2.39000010
   18.30444336  139.58999634    4.90999985    2.39000010
   18.30777740  138.82800293    4.90999985    2.39000010
   18.31110954  142.94999695    4.90999985    2.39000010
   18.31416512  135.78599548    4.90999985    2.39000010
   18.31722260  137.77099609    4.90999985    2.39000010
   18.31777954  146.34199524    4.90999985    2.39000010
   18.32111168  144.69599915    4.90999985    2.39000010
   18.32444572  146.90699768    4.90999985    2.39000010
   18.32750130  141.68099976    4.90999985    2.39000010
   18.33083344  142.91700745    4.90999985    2.39000010
   18.33666801  142.91700745    4.90999985    2.39000010
   18.34083366  132.79499817    4.90999985    2.39000010
   18.34416771  141.01199341    4.90999985    2.39000010
   18.34749985  138.56100464    4.90999985    2.39000010
   18.35055542  134.62600708    4.90999985    2.39000010
   18.35083389  132.28100586    4.90999985    2.39000010
   18.35416794  113.42800140    4.90999985    2.39000010
   18.35750008  144.94099426    4.90999985    2.39000010
   18.36055565  139.12600708    4.90999985    2.39000010
   18.36388969  139.44700623    4.90999985    2.39000010
   18.36722183  149.75700378    4.90999985    2.39000010
   18.37027740  129.98599243    4.90999985    2.39000010
   18.37361145  143.55000305    4.90999985    2.39000010
   18.37972260  143.55000305    4.90999985    2.39000010
   18.38388824  140.97500610    4.90999985    2.39000010
   18.38416672  143.59100342    4.90999985    2.39000010
   18.38750076  142.10800171    4.90999985    2.39000010
   18.39083290  141.41000366    4.90999985    2.39000010
   18.39388847  140.81599426    4.90999985    2.39000010
   18.39722252  141.07000732    4.90999985    2.39000010
   18.40027809  142.65699768    4.90999985    2.39000010
   18.40361023  139.59700012    4.90999985    2.39000010
   18.40694427  135.44400024    4.90999985    2.39000010
   18.40999985  142.80999756    4.90999985    2.39000010
   18.41333389  139.21299744    4.90999985    2.39000010
   18.41694450  133.94299316    4.90999985    2.39000010
   18.41749954  136.63499451    4.90999985    2.39000010
   18.42249870  136.63499451    4.90999985    2.39000010
   18.42666626  145.14500427    4.90999985    2.39000010
   18.43027687  130.70500183    4.90999985    2.39000010
   18.43333244  133.94099426    4.90999985    2.39000010
   18.43666649  138.03599548    4.90999985    2.39000010
   18.43972206  143.51100159    4.90999985    2.39000010
   18.44305420  141.96299744    4.90999985    2.39000010
   18.44638824  132.45599365    4.90999985    2.39000010
   18.44944382  136.30599976    4.90999985    2.39000010
   18.45083427  138.52299500    4.90999985    2.39000010
   18.45305634  138.71400452    4.90999985    2.39000010
   18.45639038  137.68200684    4.90999985    2.39000010
   18.45972252  132.08299255    4.90999985    2.39000010
   18.46527863  132.08299255    4.90999985    2.39000010
   18.46944427  133.16000366    4.90999985    2.39000010
   18.47277832  145.30900574    4.90999985    2.39000010
   18.47583389  131.48800659    4.90999985    2.39000010
   18.47916794  135.78799438    4.90999985    2.39000010
   18.48250008  141.14900208    4.90999985    2.39000010
   18.48416710  134.90699768    4.90999985    2.39000010
   18.48583412  140.42100525    4.90999985    2.39000010
   18.48916626  139.75599670    4.90999985    2.39000010
   18.49250031  132.82800293    4.90999985    2.39000010
   18.49555588  140.99400330    4.90999985    2.39000010
   18.49888992  138.23300171    4.90999985    2.39000010
   18.50194359  142.23100281    4.90999985    2.39000010
   18.50805473  142.23100281    4.90999985    2.39000010
   18.51222229  154.62699890    4.90999985    2.39000010
   18.51555634  133.08799744    4.90999985    2.39000010
   18.51749992  137.88999939    4.90999985    2.39000010
   18.51916695  146.12399292    4.90999985    2.39000010
   18.52249908  139.83500671    4.90999985    2.39000010
   18.52583313  143.22900391    4.90999985    2.39000010
   18.52888870  138.97300720    4.90999985    2.39000010
   18.53222275  142.33200073    4.90999985    2.39000010
   18.53555489  138.77600098    4.90999985    2.39000010
   18.53861046  138.64599609    4.90999985    2.39000010
   18.54194450  138.28500366    4.90999985    2.39000010
   18.54500008  133.91499329    4.90999985    2.39000010
   18.55111122  133.91499329    4.90999985    2.39000010
   18.55527687  139.62399292    4.90999985    2.39000010
   18.55833244  141.83500671    4.90999985    2.39000010
   18.56166649  154.19500732    4.90999985    2.39000010
   18.56472206  176.65199280    4.90999985    2.39000010
   18.56805611  157.83399963    4.90999985    2.39000010
   18.57139015  179.10699463    4.90999985    2.39000010
   18.57444572  199.71099854    4.90999985    2.39000010
   18.57777786  191.56199646    4.90999985    2.39000010
   18.58111191  202.16299438    4.90999985    2.39000010
   18.58416748  210.69599915    4.90999985    2.39000010
   18.58444595  166.47200012    4.90999985    2.39000010
   18.58777809  201.80499268    4.90999985    2.39000010
   18.59388924  201.80499268    4.90999985    2.39000010
   18.59805679  179.87399292    4.90999985    2.39000010
   18.60111237  182.55900574    4.90999985    2.39000010
   18.60444450  184.79499817    4.90999985    2.39000010
   18.60777855  164.80900574    4.90999985    2.39000010
   18.61083412  184.94799805    4.90999985    2.39000010
   18.61416626  156.37199402    4.90999985    2.39000010
   18.61750031  170.46200562    4.90999985    2.39000010
   18.61777878  179.39799500    4.90999985    2.39000010
   18.62111092  185.67700195    4.90999985    2.39000010
   18.62444496  200.00000000    4.90999985    2.39000010
   18.62750053  175.31599426    4.90999985    2.39000010
   18.63083267  136.94200134    4.90999985    2.39000010
   18.63666725  136.94200134    4.90999985    2.39000010
   18.64083290  166.26300049    4.90999985    2.39000010
   18.64416695  171.70199585    4.90999985    2.39000010
   18.64722252  177.85899353    4.90999985    2.39000010
   18.65055466  175.83599854    4.90999985    2.39000010
   18.65111160  175.53799438    4.90999985    2.39000010
   18.65444374  155.08599854    4.90999985    2.39000010
   18.65749931  431.38500977    4.90999985    2.39000010
   18.65972137  175.31599426    4.90999985    2.39000010
   18.65972137  136.94200134    4.90999985    2.39000010
   18.65972137  166.26300049    4.90999985    2.39000010
   18.65999985  171.70199585    4.90999985    2.39000010
   18.65999985  177.85899353    4.90999985    2.39000010
   18.65999985  175.83599854    4.90999985    2.39000010
   18.66027832  155.08599854    4.90999985    2.39000010
   18.66027832  431.38500977    4.90999985    2.39000010
   18.66027832  200.00000000    4.90999985    2.39000010
   18.66222191  128.43899536    4.90999985    2.39000010
   18.66555595  177.94099426    4.90999985    2.39000010
   18.66888809  149.57699585    4.90999985    2.39000010
   18.67194366  138.61599731    4.90999985    2.39000010
   18.67527771  151.26199341    4.90999985    2.39000010
   18.68027687  151.26199341    4.90999985    2.39000010
   18.68444443  144.48800659    4.90999985    2.39000010
   18.68777657  142.55700684    4.90999985    2.39000010
   18.69083214  146.37600708    4.90999985    2.39000010
   18.69333267  157.72000122    4.90999985    2.39000010
   18.69472122  136.19500732    4.90999985    2.39000010
   18.69777679  144.29400635    4.90999985    2.39000010
   18.70111275  147.65499878    4.90999985    2.39000010
   18.70444489  153.61700439    4.90999985    2.39000010
   18.70750046  138.99800110    4.90999985    2.39000010
   18.71083450  142.68499756    4.90999985    2.39000010
   18.71416664  147.76300049    4.90999985    2.39000010
   18.71722221  140.81599426    4.90999985    2.39000010
   18.72305679  140.81599426    4.90999985    2.39000010
   18.72722244  146.96200562    4.90999985    2.39000010
   18.73055649  136.05000305    4.90999985    2.39000010
   18.73361206  144.30499268    4.90999985    2.39000010
   18.73694420  145.08999634    4.90999985    2.39000010
   18.74027824  142.23899841    4.90999985    2.39000010
   18.74333382  131.66200256    4.90999985    2.39000010
   18.74666786  144.12199402    4.90999985    2.39000010
   18.75000000  156.98199463    4.90999985    2.39000010
   18.75305557  144.84899902    4.90999985    2.39000010
   18.75638962  138.17999268    4.90999985    2.39000010
   18.75944519  143.23399353    4.90999985    2.39000010
   18.76000023  147.38200378    4.90999985    2.39000010
   18.76611137  147.38200378    4.90999985    2.39000010
   18.77000046  138.92700195    4.90999985    2.39000010
   18.77333260  135.12100220    4.90999985    2.39000010
   18.77666664  134.31300354    4.90999985    2.39000010
