    HOUR (UT)   FLARE FACTOR    SKY TESTER    SUN TESTER
   12.49250031   -1.00000000   -1.00000000   -1.00000000
   12.53861141  207.69400024    4.90999985    2.50000000
   12.54166698  228.36999512    4.44999981    2.46000004
   12.54500008  241.08599854    4.90999985    2.48000002
   12.54833412  208.14300537    4.90999985    2.48000002
   12.55138874  207.52200317    4.26000023    2.48000002
   12.55472279  201.89399719    4.03999996    2.50000000
   12.55888939  201.89399719    3.26999998    2.48000002
   12.56305599  195.92799377    1.58000004    2.46000004
   12.56611156  210.36799622    1.53999996    2.46000004
   12.56944466  227.41299438    2.01999998    2.44000006
   12.57194424  226.35800171    2.50000000    2.40000010
   12.57305527  219.65299988    2.71000004    2.44000006
   12.57638836  226.72500610    2.96000004    2.48000002
   12.57972240  209.74099731    3.05999994    2.46000004
   12.58277798  208.19400024    2.89000010    2.46000004
   12.58611107  221.76199341    3.11999989    2.46000004
   12.58916664  213.19299316    3.78999996    2.46000004
   12.59249973  233.61199951    4.80999994    2.46000004
   12.59583282  208.96000671    4.90999985    2.50000000
   12.60166740  208.96000671    4.90999985    2.55999994
   12.60583401  246.74400330    4.90999985    2.55999994
   12.60916710  178.61099243    4.90999985    2.53999996
   12.61222267  236.25599670    4.90999985    2.17000008
   12.61555576  373.11898804    4.90999985    1.91999996
   12.61861134   -1.00000000    4.90999985    0.92000002
   12.62194443   -1.00000000    4.90999985    1.01999998
   12.62527752   -1.00000000    4.90999985    0.36000001
   12.62833309   -1.00000000    4.90999985    0.17000000
   12.63166714   -1.00000000    4.90999985    0.09000000
   12.63500023   -1.00000000    4.90999985    0.05000000
   12.63805580   -1.00000000    4.90999985    0.03000000
   12.64861107   -1.00000000    1.80999994    0.01000000
   12.65194416   -1.00000000    1.58000004    0.01000000
   12.65499973   -1.00000000    1.33000004    0.01000000
   12.65833282   -1.00000000    1.33000004    0.01000000
   12.66138840   -1.00000000    1.19000006    0.01000000
   12.66472149   -1.00000000    1.19000006    0.01000000
   12.66805553   -1.00000000    1.16999996    0.01000000
   12.67111111   -1.00000000    1.39999998    0.01000000
   12.67472267   -1.00000000    1.98000002    0.01000000
   12.67805576   -1.00000000    3.21000004    0.03000000
   12.68138885   -1.00000000    4.90999985    0.03000000
   12.69138908   -1.00000000    4.90999985    0.07000000
   12.69472218   -1.00000000    4.90999985    0.09000000
   12.69777775   -1.00000000    4.90999985    0.13000000
   12.70111084   -1.00000000    4.90999985    0.19000000
   12.70444393   -1.00000000    4.90999985    0.28000000
   12.70777798   -1.00000000    4.90999985    0.46000001
   12.71111107   55.05950165    4.90999985    0.61000001
   12.71444416   77.14430237    4.90999985    1.09000003
   12.71749973   -1.00000000    4.90999985    1.19000006
   12.72083282  181.95599365    4.90999985    0.86000001
   12.72416592  644.59600830    4.90999985    1.89999998
   12.72611046  489.97100830    4.90999985    2.50000000
   12.72722149  493.77301025    4.90999985    2.46000004
   12.72861099  300.76400757    4.90999985    2.48000002
   12.72888851   77.14430237    4.90999985    1.09000003
   12.72888851   -1.00000000    4.90999985    1.19000006
   12.72916603  181.95599365    4.90999985    0.86000001
   12.72916603  644.59600830    4.90999985    1.89999998
   12.72916603   -1.00000000    4.90999985    0.13000000
   12.72944355   -1.00000000    4.90999985    0.19000000
   12.72944355   -1.00000000    4.90999985    0.28000000
   12.72944355   -1.00000000    4.90999985    0.46000001
   12.72972202   55.05950165    4.90999985    0.61000001
   12.73027706  673.39501953    4.90999985    2.39000010
   12.73222160  717.65399170    4.90999985    2.30999994
   12.73361111  606.04101563    4.90999985    2.26999998
   12.73500061  569.49798584    4.90999985    2.28999996
   12.73638916  516.63098145    4.90999985    2.53999996
   12.73777771  297.79098511    4.90999985    2.50000000
   12.73777771  673.39501953    4.90999985    2.39000010
   12.73833370  397.69299316    4.90999985    2.11999989
   12.74166679  505.65798950    4.90999985    1.83000004
   12.74361134  487.32101440    4.90999985    2.36999989
   12.74499989  550.89898682    4.90999985    2.51999998
   12.74638939  500.22399902    4.90999985    2.55999994
   12.74777794  488.47100830    4.90999985    2.51999998
   12.74916649  477.45498657    4.90999985    2.51999998
   12.75055599  523.57098389    4.90999985    2.51999998
   12.75194454  492.36999512    4.90999985    2.53999996
   12.75333309  504.96701050    4.90999985    2.51999998
   12.75472260  521.43701172    4.90999985    2.51999998
   12.75611115  486.47100830    4.90999985    2.51999998
   12.75749969  424.85900879    4.90999985    2.53999996
   12.75888920  468.70401001    4.90999985    2.53999996
   12.76027775  486.58200073    4.90999985    2.53999996
   12.76166630  471.11099243    4.90999985    2.53999996
   12.76305580  477.19000244    4.90999985    2.53999996
   12.76444435  474.16299438    4.90999985    2.53999996
   12.76583290  503.71600342    4.90999985    2.53999996
   12.76722240  501.82699585    4.90999985    2.55999994
   12.76861095  477.28298950    4.90999985    2.55999994
   12.76999950  461.75000000    4.90999985    2.57999992
   12.77138901  478.76199341    4.90999985    2.57999992
   12.77277756  511.15600586    4.90999985    2.59999990
   12.77416611  508.83200073    4.90999985    2.59999990
   12.77555561  493.50900269    4.90999985    2.59999990
   12.77694416  463.65100098    4.90999985    2.53999996
   12.77833271  585.23999023    4.90999985    1.96000004
   12.77972221  512.92901611    4.90999985    1.80999994
   12.78111076  194.03300476    4.90999985    1.86000001
   12.78111076  397.69299316    4.90999985    2.11999989
   12.78111076  505.65798950    4.90999985    1.83000004
   12.78194427  641.49200439    4.90999985    1.83000004
   12.78388977  169.22300720    4.90999985    1.66999996
   12.78583336  588.99102783    4.90999985    1.60000002
   12.78777790  611.73199463    4.90999985    2.21000004
   12.78916740  606.64697266    4.90999985    2.46000004
   12.79055595  513.24102783    4.90999985    2.51999998
   12.79194450  558.23101807    4.90999985    2.53999996
   12.79333401  496.77600098    4.90999985    2.53999996
   12.79472256  539.34997559    4.90999985    2.53999996
   12.79611111  533.55700684    4.90999985    2.55999994
   12.79750061  430.53298950    4.90999985    2.57999992
   12.79888916  589.18902588    4.90999985    2.57999992
   12.80027771  442.86499023    4.90999985    2.59999990
   12.80166721  586.08398438    4.90999985    2.59999990
   12.80305576  595.09698486    4.90999985    2.61999989
   12.80444431  558.32000732    4.90999985    2.55999994
   12.80583382  999.83398438    4.90999985    2.53999996
   12.80722237  230.03199768    4.90999985    2.19000006
   12.80722237  588.99102783    4.90999985    1.60000002
   12.80777836  268.54501343    4.90999985    2.19000006
   12.81111145   -1.00000000    4.90999985    1.61000001
   12.81444454   23.57019997    4.90999985    0.92000002
   12.81750011   -1.00000000    4.90999985    1.11000001
   12.82083321  684.17797852    4.90999985    0.63000000
   12.82277775  592.09698486    4.90999985    2.19000006
   12.82416630  988.83599854    4.90999985    2.55999994
   12.82555580  177.80599976    4.90999985    2.30999994
   12.82555580  268.54501343    4.90999985    2.19000006
   12.82583332   -1.00000000    4.90999985    1.61000001
   12.82583332   23.57019997    4.90999985    0.92000002
   12.82583332   -1.00000000    4.90999985    1.11000001
   12.82611084  684.17797852    4.90999985    0.63000000
   12.82666683   58.23320007    4.90999985    1.75000000
   12.82972240   94.33409882    4.90999985    1.28999996
   12.83305550   -1.00000000    4.90999985    0.86000001
   12.83638859   -1.00000000    4.90999985    0.34000000
   12.83944416   -1.00000000    4.90999985    0.19000000
   12.85027790   -1.00000000    4.90999985    0.20999999
   12.85361195   -1.00000000    4.90999985    0.17000000
   12.85694504   -1.00000000    4.90999985    0.13000000
   12.86027813   -1.00000000    4.90999985    0.13000000
   12.86361122   -1.00000000    4.90999985    0.15000001
   12.86666679   -1.00000000    4.90999985    0.28000000
   12.86999989   -1.00000000    4.90999985    0.38000000
   12.87333393   63.80559921    4.90999985    0.64999998
   12.87638855  433.96899414    4.90999985    1.53999996
   12.87861156  325.55300903    4.90999985    2.32999992
   12.87861156   -1.00000000    4.90999985    0.15000001
   12.87861156   -1.00000000    4.90999985    0.28000000
   12.87888908   -1.00000000    4.90999985    0.38000000
   12.87888908   63.80559921    4.90999985    0.64999998
   12.87888908  433.96899414    4.90999985    1.53999996
   12.87916660   -1.00000000    4.90999985    0.20999999
   12.87916660   -1.00000000    4.90999985    0.17000000
   12.87944412   -1.00000000    4.90999985    0.13000000
   12.87944412   -1.00000000    4.90999985    0.13000000
   12.88111115  390.81500244    4.90999985    2.51999998
   12.88444424  522.39001465    4.90999985    2.46000004
   12.88638878  461.85299683    4.90999985    2.11999989
   12.88777733  333.48999023    4.90999985    2.19000006
   12.88777733  390.81500244    4.90999985    2.51999998
   12.88777733  522.39001465    4.90999985    2.46000004
   12.88861084  397.96301270    4.90999985    2.23000002
   12.89194393  508.76998901    4.90999985    2.50000000
   12.89388847  341.66799927    4.90999985    2.46000004
   12.89416695  397.96301270    4.90999985    2.23000002
   12.89416695  508.76998901    4.90999985    2.50000000
   12.89583302  304.23199463    4.90999985    2.64000010
   12.89916611  101.56700134    4.90999985    1.05999994
   12.90222168  390.65701294    4.90999985    1.41999996
   12.90555477  304.82598877    4.90999985    2.07999992
   12.90888882  297.29998779    4.90999985    2.66000009
   12.91472149  297.29998779    4.90999985    2.57999992
   12.91888905  284.62200928    2.59999990    2.55999994
   12.92222214  272.34799194    3.20000005    2.53999996
   12.92555618  305.64099121    3.46000004    2.55999994
   12.92777824  279.29699707    2.78999996    2.53999996
   12.92916679  281.98400879    1.30999994    2.53999996
   12.93249989  260.47000122    0.38000000    2.53999996
   12.93555546  265.85198975    0.36000001    2.55999994
   12.93888855  233.26499939    0.36000001    2.53999996
   12.94222260  245.38600159    0.36000001    2.53999996
   12.94527817  247.92999268    0.36000001    2.53999996
   12.94861126  229.85499573    0.38000000    2.55999994
   12.95166683  206.42199707    0.38000000    2.53999996
   12.95777798  206.42199707    0.36000001    2.55999994
   12.96194458  230.99400330    0.36000001    2.53999996
   12.96500015  233.86700439    0.36000001    2.53999996
   12.96833324  223.21600342    0.40000001    2.53999996
   12.97138882  224.61199951    0.46000001    2.53999996
   12.97472191  206.26800537    0.52999997    2.53999996
   12.97805500  230.79100037    0.52999997    2.53999996
   12.98111057  213.19799805    0.75000000    2.55999994
   12.98444462  215.28399658    0.36000001    2.55999994
   12.98777771  221.97999573    0.36000001    2.55999994
   12.99083328  199.70899963    0.34000000    2.55999994
   12.99416733  226.41799927    0.34000000    2.53999996
   12.99472237  229.84199524    0.34000000    2.53999996
   13.00055599  229.84199524    0.34000000    2.55999994
   13.00472260  217.53999329    0.34000000    2.55999994
   13.00777817  210.41600037    0.34000000    2.55999994
   13.01111126  217.85000610    0.36000001    2.55999994
   13.01444435  219.57699585    0.36000001    2.55999994
   13.01749992  216.15299988    0.36000001    2.55999994
   13.02083302  200.31399536    0.36000001    2.55999994
   13.02388859  209.75999451    0.36000001    2.55999994
   13.02722168  205.71299744    0.36000001    2.55999994
   13.02805519  204.40199280    0.36000001    2.55999994
   13.03111076  192.76300049    0.36000001    2.55999994
   13.03416729  221.29400635    0.36000001    2.55999994
   13.03750038  221.64399719    0.36000001    2.55999994
   13.04333401  221.64399719    0.36000001    2.55999994
   13.04750061  220.89599609    0.38000000    2.55999994
   13.05083370  223.76300049    0.34000000    2.55999994
   13.05388927  211.63999939    0.36000001    2.57999992
   13.05722237  210.45100403    0.34000000    2.55999994
   13.06055546  219.06300354    0.34000000    2.55999994
   13.06138897  230.13000488    0.34000000    2.55999994
   13.06416702  199.32899475    0.34000000    2.55999994
   13.06722260  198.05299377    0.34000000    2.55999994
   13.07055569  186.71899414    0.34000000    2.57999992
   13.07388878  187.93699646    0.34000000    2.55999994
   13.07694435  204.76100159    0.34000000    2.55999994
   13.08027744  215.95399475    0.34000000    2.55999994
   13.08611107  215.95399475    0.34000000    2.55999994
   13.09027767  185.33500671    0.31999999    2.57999992
   13.09361076  188.69999695    0.31999999    2.57999992
   13.09472179  166.68200684    0.31999999    2.57999992
   13.09749985  188.20500183    0.31999999    2.57999992
   13.10055637  189.72099304    0.31999999    2.55999994
   13.10388947  185.61199951    0.34000000    2.55999994
   13.10694504  186.52999878    0.31999999    2.55999994
   13.11027813  175.91000366    0.31999999    2.57999992
   13.11361122  207.95199585    0.31999999    2.57999992
   13.11666679  192.46899414    0.31999999    2.57999992
   13.11999989  187.42599487    0.31999999    2.57999992
   13.12333393  187.40699768    0.31999999    2.57999992
   13.12916660  187.40699768    0.31999999    2.59999990
   13.13305569  194.48100281    0.31999999    2.57999992
   13.13638878  201.24200439    0.31999999    2.57999992
   13.13972187  206.43400574    0.34000000    2.57999992
   13.14277744  192.61399841    0.34000000    2.57999992
   13.14611053  209.31700134    0.34000000    2.57999992
   13.14944458  182.58399963    0.34000000    2.59999990
   13.15249920  189.40499878    0.34000000    2.57999992
   13.15583324  191.23300171    0.34000000    2.57999992
   13.15888882  196.05900574    0.34000000    2.57999992
   13.16138840  194.63000488    0.34000000    2.57999992
   13.16277695  194.47799683    0.34000000    2.57999992
   13.16583252  183.99499512    0.34000000    2.57999992
   13.17194462  183.99499512    0.34000000    2.59999990
   13.17611122  199.46800232    0.34000000    2.57999992
   13.17916679  215.42900085    0.36000001    2.57999992
   13.18249989  191.88400269    0.36000001    2.57999992
   13.18583298  199.34500122    0.36000001    2.57999992
   13.18888855  187.90499878    0.36000001    2.57999992
   13.19222260  208.97500610    0.34000000    2.57999992
   13.19472218  190.78999329    0.34000000    2.57999992
   13.19611073  198.74800110    0.34000000    2.57999992
   13.19916630  187.11199951    0.36000001    2.57999992
   13.20249939  213.09500122    0.36000001    2.57999992
   13.20583344  201.74499512    0.36000001    2.57999992
   13.20888901  182.27999878    0.36000001    2.57999992
   13.21472168  182.27999878    0.36000001    2.57999992
   13.21888828  198.58900452    0.44000000    2.59999990
   13.22222137  221.63800049    0.38000000    2.59999990
   13.22527695  208.41900635    0.36000001    2.57999992
   13.22805500  221.30700684    0.36000001    2.59999990
   13.22916603  193.17300415    0.36000001    2.59999990
   13.23222160  206.81900024    0.36000001    2.59999990
   13.23555565  184.79600525    0.36000001    2.59999990
   13.23888874  155.54499817    0.36000001    2.59999990
   13.24194431  177.78700256    0.36000001    2.59999990
   13.24527836  191.85499573    0.36000001    2.59999990
   13.24833393  190.57200623    0.36000001    2.59999990
   13.25166702  196.63400269    0.38000000    2.59999990
   13.25749969  196.63400269    0.38000000    2.59999990
   13.26166630  189.42799377    0.40000001    2.59999990
   13.26500034  184.00399780    0.40000001    2.59999990
   13.26805496  190.60600281    0.40000001    2.59999990
   13.27138901  180.23699951    0.38000000    2.59999990
   13.27472210  183.65299988    0.34000000    2.59999990
   13.27805519  170.53799438    0.38000000    2.59999990
   13.28111076  176.32899475    0.38000000    2.59999990
   13.28444481  194.02999878    0.38000000    2.59999990
   13.28777790  160.60299683    0.40000001    2.59999990
   13.29083347  183.15100098    0.41999999    2.59999990
   13.29416752  188.42300415    0.41999999    2.59999990
   13.29472256  186.91999817    0.41999999    2.59999990
   13.30055618  186.91999817    0.40000001    2.61999989
   13.30444431  177.80599976    0.40000001    2.61999989
   13.30777836  189.31100464    0.38000000    2.59999990
   13.31111145  190.18800354    0.38000000    2.59999990
   13.31416702  195.67100525    0.38000000    2.59999990
   13.31750011  183.57099915    0.40000001    2.59999990
   13.32083321  163.33999634    0.40000001    2.59999990
   13.32388878  165.47300720    0.36000001    2.61999989
   13.32722187  186.55000305    0.36000001    2.59999990
   13.32805538  174.25900269    0.36000001    2.59999990
   13.33083344  179.74499512    0.38000000    2.61999989
   13.33388901  186.44299316    0.38000000    2.61999989
   13.33722210  175.67700195    0.44000000    2.59999990
   13.34333324  175.67700195    0.41999999    2.59999990
   13.34749985  168.24000549    0.41999999    2.59999990
   13.35055637  188.41900635    0.38000000    2.61999989
   13.35388947  168.12699890    0.40000001    2.61999989
   13.35694504  180.11099243    0.40000001    2.61999989
   13.36027813  171.95799255    0.40000001    2.59999990
   13.36138916  173.88000488    0.40000001    2.59999990
   13.36416721  168.83500671    0.40000001    2.61999989
   13.36722279  195.19099426    0.38000000    2.64000010
   13.37055588  173.03300476    0.36000001    2.61999989
   13.37361145  185.74400330    0.36000001    2.61999989
   13.37694454  188.96800232    0.38000000    2.61999989
   13.38027763  178.59199524    0.38000000    2.61999989
   13.38611126  178.59199524    0.38000000    2.61999989
   13.39027786  176.95300293    0.34000000    2.61999989
   13.39333344  165.48899841    0.34000000    2.61999989
   13.39472198  179.53799438    0.31999999    2.64000010
   13.39722252  196.31300354    4.90999985    2.48000002
   13.40027714  218.20300293    4.90999985    2.55999994
   13.40361118  152.65400696    4.90999985    2.46000004
   13.40694427  169.32800293    4.90999985    2.64000010
   13.40999985  178.15299988    2.64000010    2.64000010
   13.41333294  165.46699524    0.38000000    2.64000010
   13.41666698  186.52999878    0.30000001    2.61999989
   13.41972256  166.57499695    0.30000001    2.61999989
   13.42305565  182.13299561    0.30000001    2.61999989
   13.42888927  182.13299561    0.31999999    2.61999989
   13.43305588  168.05700684    0.31999999    2.61999989
   13.43638897  164.56399536    0.34000000    2.61999989
   13.43944454  173.11099243    0.34000000    2.61999989
   13.44277763  178.09300232    0.34000000    2.61999989
   13.44611073  157.41799927    0.36000001    2.64000010
   13.44916630  155.55799866    0.36000001    2.64000010
   13.45249939  175.36099243    0.34000000    2.61999989
   13.45555496  148.10000610    0.34000000    2.64000010
   13.45888901  167.96600342    0.34000000    2.64000010
   13.46166611  161.97999573    0.34000000    2.61999989
   13.46277714  150.77099609    0.34000000    2.61999989
   13.46611118  163.00999451    0.34000000    2.61999989
   13.47166634  163.00999451    0.34000000    2.64000010
   13.47583294  167.55900574    0.34000000    2.64000010
   13.47916603  176.38000488    0.31999999    2.64000010
   13.48249912  161.77099609    0.31999999    2.64000010
   13.48555565  168.65100098    0.31999999    2.61999989
   13.48888874  160.14399719    0.31999999    2.61999989
   13.49194431  161.81399536    0.30000001    2.64000010
   13.49472237  159.65199280    0.30000001    2.61999989
   13.49583340  132.91000366    0.30000001    2.61999989
   13.49888897  162.44000244    0.30000001    2.61999989
   13.50222206  160.47999573    0.31999999    2.64000010
   13.50555515  160.20199585    0.30000001    2.61999989
   13.50861073  163.40199280    0.30000001    2.64000010
   13.51472187  163.40199280    0.30000001    2.64000010
   13.51888847  178.08799744    0.38000000    2.64000010
   13.52194405  146.61900330    4.90999985    2.64000010
   13.52527714  159.40600586    4.90999985    1.91999996
   13.52805519  157.85200500    4.90999985    2.69000006
   13.52888870  142.03500366    4.90999985    2.67000008
   13.53194427  150.36999512    4.90999985    2.66000009
   13.53527832  163.82299805    0.38000000    2.64000010
   13.53861141  154.89199829    0.30000001    2.64000010
   13.55916691  154.89199829    0.30000001    2.64000010
   13.56333351  177.19599915    0.31999999    2.64000010
   13.56638908  172.59800720    0.34000000    2.64000010
   13.56972218  169.38499451    0.34000000    2.64000010
   13.57305527  159.45799255    0.36000001    2.64000010
   13.57611084  172.32000732    0.38000000    2.64000010
   13.57944393  153.61900330    0.38000000    2.64000010
   13.58249950  159.35699463    0.79000002    2.64000010
   13.58583260  170.78700256    0.76999998    2.64000010
   13.58916664  150.49299622    0.81999999    2.64000010
   13.59222221  154.38900757    0.81999999    2.64000010
   13.59499931  158.24699402    0.88000000    2.64000010
   13.59583282  151.93299866    0.86000001    2.64000010
   13.60194492  151.93299866    0.81999999    2.64000010
   13.60611153  152.76199341    0.94000000    2.64000010
   13.60916710  161.28300476    1.36000001    2.64000010
   13.61250019  150.24499512    1.36000001    2.64000010
   13.61583328  157.63999939    1.50000000    2.64000010
   13.61888885  164.16999817    1.51999998    2.64000010
   13.62222195  154.05000305    1.69000006    2.61999989
   13.62555599  146.25000000    1.48000002    2.64000010
   13.62833309  148.95899963    1.48000002    2.64000010
   13.62916660  152.31700134    1.48000002    2.64000010
   13.63249969  142.69500732    1.00000000    2.64000010
   13.63555527  163.59399414    1.00000000    2.64000010
   13.63888836  163.16999817    0.98000002    2.64000010
   13.64472198  163.16999817    0.94000000    2.64000010
   13.64888859  146.14100647    0.58999997    2.66000009
   13.65194416  164.72999573    0.50000000    2.66000009
   13.65527725  135.43899536    0.50000000    2.66000009
   13.65861034  154.97300720    0.41999999    2.64000010
   13.66166592  156.54600525    0.36000001    2.66000009
   13.66222191  145.24099731    0.34000000    2.66000009
   13.66555500  166.00399780    0.34000000    2.66000009
   13.66888905  174.26499939    0.38000000    2.66000009
   13.67194462  162.27099609    0.38000000    2.66000009
   13.67527771  161.58500671    0.36000001    2.66000009
   13.67861176  149.39399719    0.36000001    2.66000009
   13.68194485  149.76699829    0.38000000    2.67000008
   13.68750000  149.76699829    0.34000000    2.66000009
   13.69166660  159.46400452    0.30000001    2.66000009
   13.69499969  142.66200256    0.30000001    2.66000009
   13.69527817  158.60200500    0.30000001    2.66000009
   13.69861126  155.91799927    0.30000001    2.66000009
   13.70194435  133.72000122    0.30000001    2.66000009
   13.70499992  150.75799561    0.30000001    2.66000009
   13.70833302  140.60499573    0.30000001    2.66000009
   13.71166611  137.50300598    0.30000001    2.66000009
   13.71472168  145.78100586    0.30000001    2.66000009
   13.71805477  140.48800659    0.30000001    2.66000009
   13.72111034  139.72300720    0.31999999    2.66000009
   13.72444439  140.00999451    0.31999999    2.66000009
   13.73055553  140.00999451    0.31999999    2.66000009
   13.73444462  134.63400269    0.50000000    2.66000009
   13.73777771  136.83799744    0.51999998    2.66000009
   13.74111176  148.14700317    0.55000001    2.66000009
   13.74416733  141.69500732    0.56999999    2.66000009
   13.74750042  147.82200623    0.61000001    2.66000009
   13.75055599  142.26100159    0.64999998    2.66000009
   13.75388908  147.43299866    0.64999998    2.66000009
   13.75722218  145.66299438    0.67000002    2.67000008
   13.76027775  155.99699402    0.69000000    2.66000009
   13.76166630  172.86300659    0.69000000    2.66000009
   13.76388931  165.44099426    0.69000000    2.64000010
   13.76611137  148.01600647    0.58999997    2.66000009
   13.77222157  148.01600647    0.55000001    2.66000009
   13.77638817  135.22700500    0.56999999    2.66000009
   13.77944374  149.34399414    0.61000001    2.66000009
   13.78277779  174.22000122    0.61000001    2.66000009
   13.78583336  162.75799561    0.61000001    2.66000009
   13.78916740  166.81100464    0.56999999    2.66000009
   13.79250050  158.84100342    0.58999997    2.66000009
   13.79388905  162.53399658    0.58999997    2.66000009
   13.79611111  192.62500000    0.58999997    2.66000009
   13.79944515  168.85499573    0.58999997    2.66000009
   13.80277824  149.92700195    0.61000001    2.66000009
   13.80583382  145.25000000    0.58999997    2.66000009
   13.80916691  173.13400269    0.52999997    2.66000009
   13.81500053  173.13400269    0.46000001    2.67000008
   13.81916618  176.54499817    0.41999999    2.66000009
   13.82250023  162.08700562    0.40000001    2.67000008
   13.82555580  164.96099854    0.38000000    2.66000009
   13.82750034  155.16499329    0.38000000    2.66000009
   13.82916641  161.11500549    0.36000001    2.67000008
   13.83249950  145.12899780    0.36000001    2.66000009
   13.83583260  170.63200378    0.38000000    2.67000008
   13.83888817  140.98199463    0.38000000    2.67000008
   13.84222221  147.56599426    0.36000001    2.67000008
   13.84527779  174.07099915    0.36000001    2.66000009
   13.84972191  154.08799744    0.31999999    2.67000008
   13.85333347  166.77900696    0.31999999    2.67000008
   13.85888958  166.77900696    0.31999999    2.67000008
   13.86305618  142.14799500    0.34000000    2.67000008
   13.86638927  174.22900391    0.36000001    2.66000009
   13.86944485  138.82499695    0.36000001    2.66000009
   13.87277794  148.99400330    0.38000000    2.67000008
   13.87611103  161.75999451    0.36000001    2.67000008
   13.87916660  128.94299316    0.36000001    2.67000008
   13.88249969  142.19700623    0.36000001    2.67000008
   13.88555527  132.76199341    0.38000000    2.67000008
   13.88888836  157.81100464    0.36000001    2.67000008
   13.89222240  159.31100464    0.31999999    2.67000008
   13.89527798  149.59700012    0.31999999    2.67000008
   13.89583302  144.58700562    0.31999999    2.67000008
   13.90166664  144.58700562    0.30000001    2.67000008
   13.90583324  127.53900146    0.30000001    2.67000008
   13.90916634  131.94900513    0.30000001    2.67000008
   13.91249943  120.12699890    0.30000001    2.67000008
   13.91555500  134.86799622    0.30000001    2.69000006
   13.91888905  117.32599640    0.30000001    2.67000008
   13.92194462  138.57099915    0.30000001    2.69000006
   13.92527771  126.00299835    0.30000001    2.69000006
   13.92861176  126.11199951    0.30000001    2.67000008
   13.92888927  139.02099609    0.30000001    2.67000008
   13.93222237  121.78500366    0.30000001    2.67000008
   13.93555546  132.32200623    0.31999999    2.67000008
   13.93861103  134.94799805    0.34000000    2.67000008
   13.94472218  134.94799805    0.31999999    2.67000008
   13.94888878  122.19699860    0.28000000    2.67000008
   13.95194435  117.42400360    0.28000000    2.67000008
   13.95527744  125.20899963    0.30000001    2.67000008
   13.95833302  115.32099915    0.30000001    2.69000006
   13.96166611  120.70700073    0.30000001    2.69000006
   13.96222210  119.72799683    0.30000001    2.69000006
   13.96555519  128.36999512    0.31999999    2.67000008
   13.96861076  117.18199921    0.31999999    2.67000008
   13.97194386  115.90299988    0.30000001    2.67000008
   13.97527695  119.90000153    0.30000001    2.69000006
   13.97833252  135.58399963    0.30000001    2.69000006
   13.98166656  121.75800323    0.31999999    2.67000008
   13.98750019  121.75800323    0.31999999    2.67000008
   13.99166679  124.37300110    0.30000001    2.69000006
   13.99499989  127.78500366    0.30000001    2.67000008
   13.99555588  119.28800201    0.30000001    2.67000008
   13.99861145  113.15399933    0.28000000    2.69000006
   14.00194454  115.22799683    0.28000000    2.67000008
   14.00500011  114.73200226    0.28000000    2.67000008
   14.00833321  116.73500061    0.28000000    2.69000006
   14.01138878  118.52899933    0.28000000    2.69000006
   14.01472187  108.40100098    0.30000001    2.69000006
   14.01805496  105.63899994    0.30000001    2.69000006
   14.02111053  114.80699921    0.30000001    2.69000006
   14.02444458  129.65800476    0.30000001    2.69000006
   14.03027725  129.65800476    0.30000001    2.69000006
   14.03444481  113.23000336    0.30000001    2.69000006
   14.03777790  118.24099731    0.30000001    2.69000006
   14.04083347  121.65299988    0.30000001    2.69000006
   14.04416752  120.00800323    0.28000000    2.69000006
   14.04750061  120.19200134    0.30000001    2.69000006
   14.05055618  114.18499756    0.28000000    2.69000006
   14.05388927  110.57299805    0.28000000    2.71000004
   14.05694485  112.92800140    0.30000001    2.69000006
   14.06027794  116.46900177    0.30000001    2.69000006
   14.06222248  107.28299713    0.30000001    2.69000006
   14.06388950  114.22100067    0.30000001    2.69000006
   14.06694412  111.60800171    0.31999999    2.69000006
   14.07305527  111.60800171    0.31999999    2.69000006
   14.07722187  108.27400208    0.31999999    2.69000006
   14.08055592  106.61100006    0.31999999    2.69000006
   14.08388901  108.62500000    0.34000000    2.69000006
   14.08694458  112.50499725    0.40000001    2.69000006
   14.09027767  110.23200226    0.40000001    2.69000006
   14.09361076  108.21499634    0.40000001    2.69000006
   14.09555531  103.94899750    0.38000000    2.69000006
   14.09722233  105.69699860    0.38000000    2.69000006
   14.10027790  102.51300049    0.38000000    2.69000006
   14.10361195  108.86599731    0.40000001    2.69000006
   14.10694504  105.05599976    0.40000001    2.69000006
   14.11000061  101.08200073    0.44000000    2.69000006
   14.11611176  101.08200073    0.52999997    2.69000006
   14.12027836   98.73690033    0.46000001    2.69000006
   14.12333393   91.27670288    0.41999999    2.69000006
   14.12666702  108.03900146    0.40000001    2.69000006
   14.12888908  115.50700378    0.40000001    2.69000006
   14.13027763  106.58699799    0.41999999    2.69000006
   14.13333321  106.64299774    0.40000001    2.69000006
   14.13666630  111.35199738    0.41999999    2.69000006
   14.14000034  109.73300171    0.40000001    2.69000006
   14.14305496  102.79900360    0.41999999    2.71000004
   14.14638901  106.33699799    0.44000000    2.69000006
   14.14972210  109.72899628    0.46000001    2.69000006
   14.15277767  111.63500214    0.47999999    2.67000008
   14.15888882  111.63500214    0.50000000    2.69000006
   14.16305542  116.76599884    0.47999999    2.69000006
   14.16611099  105.22100067    0.46000001    2.69000006
   14.16944504  107.47000122    0.41999999    2.69000006
   14.17277813  108.69599915    0.41999999    2.69000006
   14.17611122  108.10700226    0.41999999    2.69000006
   14.17916679  107.07900238    0.41999999    2.69000006
   14.18249989  102.33799744    0.40000001    2.69000006
   14.18555546  104.35600281    0.41999999    2.69000006
   14.18888855  109.71900177    0.41999999    2.69000006
   14.19222260  113.94799805    0.46000001    2.69000006
   14.19527817  103.33000183    0.40000001    2.71000004
   14.19583321  104.55000305    0.40000001    2.71000004
   14.20166683  104.55000305    0.40000001    2.69000006
   14.20583344  110.05599976    0.40000001    2.69000006
   14.20916653  109.20999908    0.30000001    2.69000006
   14.21222210  109.72399902    0.30000001    2.71000004
   14.21555519  102.12799835    0.25999999    2.71000004
   14.21861076  107.98200226    0.25999999    2.71000004
   14.22194386  112.64299774    0.25999999    2.69000006
   14.22527695  102.61499786    0.25999999    2.71000004
   14.22833252  108.08699799    0.25999999    2.71000004
   14.22916603  108.58899689    0.25999999    2.71000004
   14.23194408  106.47599792    0.25999999    2.71000004
   14.23527813  111.60299683    0.30000001    2.71000004
   14.23833370  104.00800323    0.30000001    2.69000006
   14.24444485  104.00800323    0.30000001    2.71000004
   14.24861145  104.92299652    0.30000001    2.71000004
   14.25194454  108.59700012    0.30000001    2.71000004
   14.25500011  102.40299988    0.30000001    2.69000006
   14.25833321  109.30500031    0.25999999    2.71000004
   14.26166630  109.16899872    0.25999999    2.71000004
   14.26249981  103.01100159    0.28000000    2.71000004
   14.26527786  109.19000244    0.28000000    2.71000004
   14.26861095  108.79399872    0.28000000    2.69000006
   14.27166653  102.46099854    0.30000001    2.69000006
   14.27499962   97.54920197    0.30000001    2.69000006
   14.27833271  105.10099792    0.31999999    2.71000004
   14.28138828  100.11100006    0.31999999    2.71000004
   14.28750038  100.11100006    0.34000000    2.69000006
   14.29138947  100.57399750    0.34000000    2.69000006
   14.29472256   89.61840057    0.36000001    2.71000004
   14.29583359  102.81300354    0.36000001    2.71000004
   14.29833412  103.36299896    0.36000001    2.71000004
   14.30166721   97.93869781    0.36000001    2.71000004
   14.30472279   99.76309967    0.36000001    2.71000004
   14.30805588  100.09899902    0.36000001    2.71000004
   14.31138897  105.00700378    0.34000000    2.69000006
   14.31444454   98.97470093    0.36000001    2.69000006
   14.31777763  100.20400238    0.36000001    2.69000006
   14.32083321   96.35690308    0.31999999    2.71000004
   14.32416630   99.33560181    0.31999999    2.71000004
   14.33027744   99.33560181    0.31999999    2.71000004
   14.33444405   99.52980042    0.31999999    2.71000004
   14.33749962   99.74960327    0.34000000    2.71000004
   14.34083271  102.08000183    0.31999999    2.71000004
   14.34416676   99.03929901    0.31999999    2.71000004
   14.34722233   92.03019714    0.30000001    2.71000004
   14.35055637   99.48130035    0.34000000    2.71000004
   14.35388947  100.14900208    0.34000000    2.71000004
   14.35694504   99.94689941    0.34000000    2.71000004
   14.36027813   94.22979736    0.34000000    2.71000004
   14.36250019   87.26519775    0.34000000    2.71000004
   14.36388969  101.43800354    0.36000001    2.71000004
   14.36722279   96.09750366    0.36000001    2.71000004
   14.37305546   96.09750366    0.34000000    2.73000002
   14.37722206   93.47779846    0.36000001    2.71000004
   14.38055611   93.86979675    0.34000000    2.71000004
   14.38361073   96.03880310    0.34000000    2.71000004
   14.38694477   95.32759857    0.34000000    2.71000004
   14.39027786   95.24649811    0.34000000    2.71000004
   14.39333344   94.65560150    0.36000001    2.71000004
   14.39583302  103.09799957    0.36000001    2.71000004
   14.39694405   90.52349854    0.34000000    2.71000004
   14.40027714   98.67890167    0.34000000    2.71000004
   14.40333271   87.55970001    0.34000000    2.71000004
   14.40666676   96.78040314    0.34000000    2.71000004
   14.40999985   93.92539978    0.34000000    2.71000004
   14.41583252   93.92539978    0.36000001    2.71000004
   14.42000008   97.20899963    0.38000000    2.71000004
   14.42333412  105.86100006    0.38000000    2.73000002
   14.42638874   98.69799805    0.38000000    2.73000002
   14.42944431   91.06719971    0.38000000    2.71000004
   14.43000031   92.85469818    0.38000000    2.71000004
   14.43333340   94.49140167    0.46000001    2.73000002
   14.43638897   86.11789703    0.46000001    2.73000002
   14.43972206   96.27140045    0.47999999    2.73000002
   14.44305515   91.28929901    0.47999999    2.71000004
   14.44611073   97.78070068    0.47999999    2.71000004
   14.44944477   85.51779938    0.47999999    2.73000002
   14.45277786   97.74990082    0.50000000    2.71000004
   14.45888901   97.74990082    0.50000000    2.71000004
   14.46277714   99.60420227    0.50000000    2.71000004
   14.46611118   88.95780182    0.50000000    2.71000004
   14.46944427   90.14009857    0.52999997    2.71000004
   14.47249985   91.36009979    0.50000000    2.73000002
   14.47583294   91.05740356    0.55000001    2.71000004
   14.47916603   87.73660278    0.58999997    2.71000004
   14.48222160   87.40670013    0.55000001    2.71000004
   14.48555565  101.63600159    0.55000001    2.71000004
   14.48861122   97.19529724    0.56999999    2.71000004
   14.49194431   93.38500214    0.52999997    2.71000004
   14.49527836   90.59880066    0.51999998    2.73000002
   14.49611092   86.67070007    0.51999998    2.73000002
   14.50166702   86.67070007    0.51999998    2.71000004
   14.50583363   87.40370178    0.46000001    2.73000002
   14.50888920  104.02500153    0.41999999    2.73000002
   14.51222229   93.15059662    0.44000000    2.71000004
   14.51555538   85.27590179    0.41999999    2.73000002
   14.51861095   85.44370270    0.46000001    2.71000004
   14.52194405   94.90499878    0.46000001    2.71000004
   14.52499962   91.94129944    0.40000001    2.73000002
   14.52833271  105.19599915    0.40000001    2.73000002
   14.52944374   90.98179626    0.41999999    2.71000004
   14.53194427   95.70040131    0.41999999    2.73000002
   14.53527832   91.75260162    0.41999999    2.73000002
   14.53833389   91.66940308    0.44000000    2.71000004
   14.54444504   91.66940308    0.34000000    2.71000004
   14.54861164   85.45069885    0.31999999    2.73000002
   14.55194473   81.97820282    0.31999999    2.73000002
   14.55500031   75.27809906    0.31999999    2.71000004
   14.57250023  109.06500244    0.34000000    2.73000002
   14.57499981  104.87999725    0.31999999    2.73000002
   14.57833290   91.73660278    0.34000000    2.71000004
   14.58138847  109.45600128    0.31999999    2.73000002
   14.58749962  109.45600128    0.31999999    2.73000002
   14.59166622  116.01300049    0.31999999    2.71000004
   14.59499931  117.24099731    0.34000000    2.71000004
   14.59805489  112.66500092    0.34000000    2.73000002
   14.60138893  112.88800049    0.38000000    2.71000004
   14.60444450  109.26100159    0.38000000    2.71000004
   14.60583401  116.80999756    0.40000001    2.73000002
   14.60833359  114.32599640    0.46000001    2.71000004
   14.61166668  106.19899750    0.46000001    2.75000000
   14.61472225  109.54599762    0.44000000    2.73000002
   14.61805534  106.84100342    0.41999999    2.75000000
   14.62111092  107.95400238    0.38000000    2.73000002
   14.62444496  109.56900024    0.36000001    2.73000002
   14.63027763  109.56900024    0.41999999    2.73000002
   14.63444424  110.35399628    0.41999999    2.73000002
   14.63777733  102.66899872    0.41999999    2.73000002
   14.63916683  100.52799988    0.40000001    2.73000002
   14.64138889   89.93810272    0.40000001    2.73000002
   14.64444447   97.88680267    0.41999999    2.73000002
   14.64777756  102.09300232    0.40000001    2.73000002
   14.65111065  109.22599792    0.38000000    2.73000002
   14.65416622  109.93599701    0.38000000    2.73000002
   14.65749931  110.89499664    0.40000001    2.73000002
   14.66083336  106.26699829    0.36000001    2.73000002
   14.66388893  109.49500275    0.36000001    2.73000002
   14.66722298  108.12300110    0.25999999    2.75000000
   14.67333412  108.12300110    0.31999999    2.75000000
   14.67722225  113.50000000    0.31999999    2.73000002
   14.68055630  109.46499634    0.41999999    2.71000004
   14.68388939  113.86299896    0.28000000    2.75000000
   14.68694496  110.50499725    0.30000001    2.73000002
   14.69027805  111.59700012    0.30000001    2.73000002
   14.69361115  108.02100372    0.28000000    2.73000002
   14.69694424  111.37200165    0.28000000    2.73000002
   14.69999981  105.82499695    0.34000000    2.73000002
   14.70333290  106.62000275    0.38000000    2.73000002
   14.70583344  107.71399689    0.38000000    2.73000002
   14.70694447  106.56500244    0.38000000    2.73000002
   14.71000004  110.28099823    0.34000000    2.73000002
   14.71611118  110.28099823    0.40000001    2.73000002
   14.72027779  107.75399780    0.41999999    2.75000000
   14.72333336  117.96900177    0.40000001    2.73000002
   14.72666645  116.15899658    0.31999999    2.73000002
   14.72999954  106.82199860    0.34000000    2.73000002
   14.73305511  109.20800018    0.34000000    2.73000002
   14.73638916  110.28800201    0.34000000    2.75000000
   14.73916721  117.56900024    0.36000001    2.75000000
   14.74000072  112.45800018    0.36000001    2.75000000
   14.74305534  107.16600037    0.25999999    2.75000000
   14.74638939  112.52799988    0.25999999    2.75000000
   14.74972248  115.64199829    0.28000000    2.73000002
   14.75277805  108.74600220    0.28000000    2.73000002
   14.75888920  108.74600220    0.36000001    2.73000002
   14.76305580  109.83699799    0.38000000    2.73000002
   14.76611137  115.56400299    0.40000001    2.73000002
   14.76944447  116.60600281    0.46000001    2.73000002
   14.77250004  118.19400024    0.46000001    2.73000002
   14.77305508  115.27999878    0.46000001    2.73000002
   14.77638817  115.26699829    0.44000000    2.75000000
   14.77944374  108.23500061    0.40000001    2.75000000
   14.78277779  113.32199860    0.40000001    2.75000000
   14.78583336  118.55100250    0.36000001    2.73000002
   14.78916740  125.70899963    0.50000000    2.73000002
   14.79250050  117.79900360    0.50000000    2.73000002
   14.79555607  120.98699951    0.44000000    2.73000002
   14.80166721  120.98699951    0.41999999    2.73000002
   14.80583382  120.98400116    0.44000000    2.73000002
   14.80916691  114.26300049    0.44000000    2.73000002
   14.81222248  119.62899780    0.61000001    2.75000000
   14.81555557  131.90199280    0.63000000    2.73000002
   14.81888866  119.63800049    0.63000000    2.73000002
   14.82194424  130.25000000    0.63000000    2.73000002
   14.82527733  129.16000366    0.58999997    2.73000002
   14.82861137  120.97899628    0.64999998    2.73000002
   14.83166695  133.36599731    0.58999997    2.73000002
   14.83500004  138.33399963    0.51999998    2.73000002
   14.83805561  135.48199463    0.47999999    2.73000002
   14.83916664  133.22999573    0.47999999    2.73000002
   14.84472179  133.22999573    0.47999999    2.73000002
   14.84861088  153.58200073    0.47999999    2.73000002
   14.85194492  158.50599670    0.44000000    2.75000000
   14.85527802  143.43699646    0.44000000    2.75000000
   14.85833359  164.86000061    0.38000000    2.75000000
   14.86166668  142.63900757    0.38000000    2.75000000
   14.86472225  161.72000122    0.36000001    2.75000000
   14.86805534  168.89700317    0.40000001    2.75000000
   14.87138939  145.83299255    0.36000001    2.73000002
   14.87250042  147.99600220    0.36000001    2.73000002
   14.87500000  154.78999329    0.36000001    2.73000002
   14.87805557  175.17700195    0.41999999    2.75000000
   14.88138866  142.11099243    0.47999999    2.73000002
   14.88749981  142.11099243    0.44000000    2.75000000
   14.89166641  140.24699402    0.47999999    2.75000000
   14.89472198  138.53300476    0.44000000    2.75000000
   14.89805508  135.62800598    0.38000000    2.75000000
   14.90111065  139.61700439    0.41999999    2.73000002
   14.90444374  143.15400696    0.44000000    2.75000000
   14.90583324  175.26199341    0.44000000    2.75000000
   14.90805531  150.35499573    0.44000000    2.73000002
   14.91111088  129.41999817    0.44000000    2.73000002
   14.91444397  136.75900269    0.50000000    2.75000000
   14.91777802  144.39500427    0.56999999    2.75000000
   14.92083359  127.58399963    0.64999998    2.75000000
   14.92416668  153.02799988    0.55000001    2.75000000
   14.93027782  153.02799988    1.14999998    2.75000000
   14.93444443  139.82600403    1.63000000    2.73000002
   14.93777752  116.57399750    1.63000000    2.73000002
   14.93916702  119.72599792    1.64999998    2.73000002
   14.94138908  138.07099915    1.83000004    2.73000002
   14.94472218  129.94500732    1.96000004    2.73000002
   14.94777775  126.51699829    1.96000004    2.73000002
   14.95111084  141.49099731    1.88000000    2.73000002
   14.95444393  132.95700073    1.16999996    2.75000000
   14.95749950  138.89999390    0.67000002    2.75000000
   14.96083355  140.38600159    0.64999998    2.75000000
   14.96388912  160.37699890    0.63000000    2.75000000
   14.96722221  134.49600220    0.64999998    2.75000000
   14.97305489  134.49600220    0.70999998    2.73000002
   14.97722149  155.98899841    0.75000000    2.75000000
   14.98055553  138.56399536    0.88000000    2.75000000
   14.98361111  144.16499329    0.86000001    2.73000002
   14.98694515  143.45199585    0.86000001    2.75000000
   14.99027824  137.60000610    0.86000001    2.75000000
   14.99333382  114.47100067    0.80000001    2.75000000
   14.99666691  134.67300415    0.58999997    2.75000000
   14.99972248  152.11300659    0.79000002    2.75000000
   15.00305557  146.17300415    0.79000002    2.75000000
   15.00583363  137.08000183    0.86000001    2.75000000
   15.00666714  125.88300323    0.86000001    2.75000000
   15.01000023  127.03399658    0.94000000    2.75000000
   15.01611137  127.03399658    1.05999994    2.75000000
   15.01999950  139.47999573    1.09000003    2.75000000
   15.02333355  155.93800354    1.61000001    2.73000002
   15.02666664  136.63800049    1.58000004    2.73000002
   15.02972221  140.97000122    1.58000004    2.73000002
   15.03305531  153.98399353    1.58000004    2.73000002
   15.03638935  140.14300537    2.40000010    2.73000002
   15.03916740  129.70700073    2.42000008    2.71000004
   15.04000092  156.28700256    2.42000008    2.71000004
   15.04333401  142.73199463    2.50000000    2.71000004
   15.04638958  148.10499573    3.11999989    2.71000004
   15.04972267  153.08399963    3.86999989    2.71000004
   15.05277824  134.10200500    3.59999990    2.69000006
   15.05888939  134.10200500    3.41000009    2.71000004
   15.06305599  138.91099548    3.14000010    2.71000004
   15.06611156  123.05699921    2.78999996    2.73000002
   15.06944466  113.25399780    2.15000010    2.73000002
   15.07250023  120.42900085    1.13000000    2.73000002
   15.07305527  131.50799561    1.03999996    2.73000002
   15.07638836  120.40599823    0.88000000    2.73000002
   15.07944393  108.05100250    0.81999999    2.73000002
   15.08277798  142.38000488    1.09000003    2.73000002
   15.08583260  128.55299377    1.30999994    2.75000000
   15.08916664  106.93900299    1.07000005    2.75000000
   15.09249973  128.44599915    1.09000003    2.73000002
   15.09555531  122.54699707    1.23000002    2.73000002
   15.10166740  122.54699707    0.75000000    2.75000000
   15.10583401  124.69899750    0.75000000    2.75000000
   15.10638905  116.55000305    0.76999998    2.75000000
   15.10972214  121.68399811    0.94000000    2.75000000
   15.11277771  104.51899719    0.89999998    2.73000002
   15.11611176  112.97399902    1.01999998    2.73000002
   15.11944485   96.64479828    1.01999998    2.73000002
   15.12250042  100.71399689    0.86000001    2.75000000
   15.12583351  106.78600311    0.86000001    2.75000000
   15.12888908  126.94599915    0.83999997    2.75000000
   15.13222218  111.94100189    0.92000002    2.73000002
   15.13555527  110.21900177    0.92000002    2.73000002
   15.13861084  110.49800110    0.83999997    2.75000000
   15.13972187  110.08399963    0.83999997    2.75000000
   15.14444447  110.08399963    0.63000000    2.75000000
   15.14861107  110.16400146    0.47999999    2.75000000
   15.15194416  108.21800232    0.51999998    2.75000000
   15.15499973  113.42199707    0.55000001    2.75000000
   15.15833282  109.52200317    0.55000001    2.75000000
   15.16166592  124.86499786    0.55000001    2.75000000
   15.16472149  106.55500031    0.67000002    2.75000000
   15.16805553  103.78700256    0.70999998    2.75000000
   15.17111111  107.66200256    0.70999998    2.75000000
   15.17305565  114.73200226    0.70999998    2.75000000
   15.17472267  111.91999817    0.70999998    2.75000000
   15.17805576  107.63899994    0.75000000    2.75000000
   15.18138885  106.93900299    0.94000000    2.75000000
   15.18722248  106.93900299    1.05999994    2.73000002
   15.19138908   94.78669739    0.92000002    2.75000000
   15.19472218  107.02500153    0.98000002    2.75000000
   15.19805527   93.51909637    0.95999998    2.75000000
   15.20111084  114.18599701    1.03999996    2.75000000
   15.20444393  140.61099243    1.03999996    2.75000000
   15.20638847  100.80799866    1.14999998    2.73000002
   15.20777798  118.83200073    1.25000000    2.75000000
   15.21111107   92.34899902    1.33000004    2.75000000
   15.21444416  108.53299713    1.33000004    2.75000000
   15.21749973   98.65299988    1.33000004    2.75000000
   15.22083282  111.05000305    1.34000003    2.73000002
   15.22416592  106.95200348    2.26999998    2.73000002
   15.23027706  106.95200348    1.00000000    2.75000000
   15.23444462  107.17199707    0.83999997    2.75000000
   15.23750019  106.15899658    1.11000001    2.75000000
   15.23972225  104.50199890    1.21000004    2.75000000
   15.24138927  113.79100037    1.36000001    2.75000000
   15.24444485  111.91600037    1.41999996    2.75000000
   15.24777794   96.40409851    1.50000000    2.75000000
   15.25083351  106.64900208    1.60000002    2.73000002
   15.25416660  111.90499878    1.60000002    2.73000002
   15.25749969  103.47000122    1.85000002    2.75000000
   15.26055527  108.61599731    1.39999998    2.75000000
   15.26388931  100.76000214    1.21000004    2.75000000
   15.26722240   90.50810242    1.05999994    2.75000000
   15.27305508   90.50810242    1.11000001    2.75000000
   15.27722168  101.63099670    1.11000001    2.75000000
   15.28027725   97.10359955    1.05999994    2.75000000
   15.28361130   92.70529938    0.86000001    2.75000000
   15.28694534  102.27700043    0.80000001    2.75000000
   15.29000092   97.82389832    0.75000000    2.75000000
   15.29333401   95.21080017    0.73000002    2.75000000
   15.39611053   -1.00000000   -1.00000000   -1.00000000
   15.51666641   -1.00000000   -1.00000000   -1.00000000
   15.61916637   -1.00000000   -1.00000000   -1.00000000
   15.64750004  312.62600708    4.90999985    2.23000002
   15.65083313  169.16999817    4.90999985    2.19000006
   15.65388870  139.67999268    4.90999985    2.42000008
   15.65722179  135.12800598    4.90999985    2.42000008
   15.66055489  144.83000183    4.90999985    2.42000008
   15.66361046  140.29100037    4.90999985    2.39000010
   15.66777802  140.29100037    4.90999985    2.34999990
   15.67194462  198.97999573    4.90999985    2.25000000
   15.67527771  164.68899536    4.90999985    2.23000002
   15.67833328  140.76600647    4.90999985    2.32999992
   15.68083382  131.71800232    4.90999985    2.40000010
   15.68222237  109.38700104    4.90999985    2.46000004
   15.68527794  112.86000061    4.90999985    2.46000004
   15.68861103  108.35199738    4.90999985    2.48000002
   15.69194412  115.11599731    4.90999985    2.53999996
   15.69499969  125.99800110    4.90999985    2.40000010
   15.69833374  146.22900391    4.90999985    2.39000010
   15.70138836  180.70700073    4.90999985    2.30999994
   15.70472240  436.83499146    4.90999985    2.21000004
   15.70666695  270.83099365    4.90999985    2.13000011
   15.70694447  112.86000061    4.90999985    2.46000004
   15.70694447  108.35199738    4.90999985    2.48000002
   15.70694447  115.11599731    4.90999985    2.53999996
   15.70722198  125.99800110    4.90999985    2.40000010
   15.70722198  146.22900391    4.90999985    2.39000010
   15.70722198  180.70700073    4.90999985    2.30999994
   15.70749950  436.83499146    4.90999985    2.21000004
   15.70749950  140.76600647    4.90999985    2.32999992
   15.70749950  109.38700104    4.90999985    2.46000004
   15.71194458  109.38700104    4.90999985    2.11999989
   15.71611118  347.43600464    4.90999985    2.09999990
   15.71916580  292.89700317    4.90999985    2.05999994
   15.72249985  226.98300171    4.90999985    2.03999996
   15.72583294  376.15399170    4.90999985    2.07999992
   15.72888851  305.30499268    4.90999985    2.07999992
   15.73222160  348.71600342    4.90999985    2.15000010
   15.73555565  226.64500427    4.90999985    2.13000011
   15.73861122  299.66500854    4.90999985    2.17000008
   15.74055576  194.34700012    4.90999985    2.05999994
   15.74222279  179.01300049    4.90999985    2.25000000
   15.74555588  294.35598755    4.90999985    2.05999994
   15.74861145  289.05099487    4.90999985    2.07999992
   15.75472260  289.05099487    4.90999985    2.01999998
   15.75888920   -1.00000000   -1.00000000   -1.00000000
   15.76194477   -1.00000000    4.90999985    1.91999996
   15.76527786   -1.00000000    4.90999985    1.89999998
   15.76861095   -1.00000000    4.90999985    1.83000004
   15.77166653   -1.00000000    4.90999985    1.85000002
   15.77527714   -1.00000000    4.90999985    1.86000001
   15.77861118   -1.00000000    4.90999985    1.83000004
   15.78166676   -1.00000000    4.90999985    1.76999998
   15.78500080   -1.00000000    4.90999985    1.78999996
   15.78805637   -1.00000000    4.90999985    1.76999998
   15.79138947   -1.00000000    4.90999985    1.78999996
   15.79750061   -1.00000000    4.90999985    1.73000002
   15.80166721   -1.00000000    4.90999985    1.75000000
   15.80500031   -1.00000000    4.90999985    1.78999996
   15.80861092   -1.00000000    4.90999985    1.75000000
   15.81166649   -1.00000000    4.90999985    1.76999998
   15.81500053   -1.00000000    4.90999985    1.83000004
   15.81833363   54.97259903    4.90999985    1.86000001
   15.82138920   -1.00000000   -1.00000000   -1.00000000
   15.82472229  136.06399536    4.90999985    1.98000002
   15.82777786  299.02700806    4.90999985    2.01999998
   15.83111095  323.35699463    4.90999985    2.09999990
   15.83444405  196.44599915    4.90999985    2.07999992
   15.84027767  196.44599915    4.90999985    2.19000006
   15.84444427  134.81599426    4.90999985    2.19000006
   15.84777737  157.49299622    4.90999985    2.23000002
   15.85083389  145.21299744    4.90999985    2.21000004
   15.85416698  156.74600220    4.90999985    2.25000000
   15.85750008  181.93099976    4.90999985    2.26999998
   15.86055565  148.46099854    4.90999985    2.23000002
   15.86388969  173.61500549    4.90999985    2.26999998
   15.86722279  158.72200012    4.90999985    2.25000000
   15.87027836  136.74200439    4.90999985    2.28999996
   15.87361145  144.19299316    4.90999985    2.30999994
   15.87527752  126.77200317    4.90999985    2.32999992
   15.87722206  126.66000366    4.90999985    2.32999992
   15.88305569  126.66000366    4.90999985    2.34999990
   15.88722229  121.91899872    4.90999985    2.40000010
   15.89055538  130.02799988    4.90999985    2.36999989
   15.89388847  135.52699280    4.90999985    2.34999990
   15.89694405  125.91100311    4.90999985    2.32999992
   15.90027714  155.28799438    4.90999985    2.36999989
   15.90361118  160.25500488    4.90999985    2.34999990
   15.90666676  145.54899597    4.90999985    2.30999994
   15.90861034  158.47700500    4.90999985    2.25000000
   15.91027737  210.14500427    4.90999985    2.23000002
   15.91361046  149.33299255    4.90999985    2.26999998
   15.91666698  119.30100250    4.90999985    2.21000004
   15.92000008  156.50300598    4.90999985    2.30999994
   15.92611122  156.50300598    4.90999985    2.26999998
   15.93027782  337.87399292    4.90999985    2.03999996
   15.93333340  236.16000366    4.90999985    1.91999996
   15.93666649  239.56599426    4.90999985    2.11999989
   15.93972206  194.26800537    4.90999985    2.15000010
   15.94222260  360.19100952    4.90999985    2.15000010
   15.94361115  314.77700806    4.90999985    2.11999989
   15.94666672  342.50698853    4.90999985    2.01999998
   15.94999981   34.15349960    4.90999985    2.07999992
   15.95333290   58.33679962    4.90999985    2.05999994
   15.95638847   -1.00000000    4.90999985    1.78999996
   15.95972157   -1.00000000    4.90999985    1.60000002
   15.96305561   -1.00000000    4.90999985    1.71000004
   15.96888828   -1.00000000    4.90999985    1.64999998
   15.97305489   -1.00000000    4.90999985    1.63000000
   15.97638798   -1.00000000    4.90999985    1.75000000
   15.97972202   -1.00000000    4.90999985    1.80999994
   15.98305511   -1.00000000    4.90999985    1.86000001
   15.98611164   -1.00000000    4.90999985    1.88000000
   15.98944473   -1.00000000    4.90999985    1.91999996
   15.99277782   -1.00000000    4.90999985    1.86000001
   15.99583340   -1.00000000    4.90999985    1.88000000
   15.99916649   -1.00000000    4.90999985    1.85000002
   16.00222206   -1.00000000    4.90999985    1.80999994
   16.00555611   -1.00000000    4.90999985    1.76999998
   16.01166725   -1.00000000    4.90999985    1.88000000
   16.01583290   -1.00000000   -1.00000000   -1.00000000
   16.01916695   52.47399902    4.90999985    1.94000006
   16.02222252  318.64199829    4.90999985    1.96000004
   16.02555466  214.01199341    4.90999985    2.01999998
   16.02888870  193.59300232    4.90999985    2.03999996
   16.03194427  147.34500122    4.90999985    2.11999989
   16.03527641  170.08299255    4.90999985    2.15000010
   16.03833199  129.17999268    4.90999985    2.23000002
   16.04166603  119.53700256    4.90999985    2.36999989
   16.04249954  106.70300293    4.90999985    2.40000010
   16.04527664  105.44499969    4.90999985    2.40000010
   16.04861069  109.80100250    4.90999985    2.46000004
   16.05444336  109.80100250    4.90999985    2.53999996
   16.05861092   93.65399933    4.90999985    2.57999992
   16.06194305   94.27510071    4.90999985    2.53999996
   16.06527710  100.16999817    4.90999985    2.53999996
   16.06833458   92.65059662    4.90999985    2.51999998
   16.07166672  104.25199890    4.90999985    2.44000006
   16.07472229  110.47299957    4.90999985    2.50000000
   16.07583427  110.31199646    4.90999985    2.50000000
   16.07833481   93.75070190    4.90999985    2.44000006
   16.08166695  139.26199341    4.90999985    2.39000010
   16.08472252  134.59700012    4.90999985    2.23000002
   16.08805656  216.17199707    4.90999985    2.15000010
   16.09138870  226.63400269    4.90999985    2.03999996
   16.09749985  226.63400269    4.90999985    1.96000004
   16.10166740   84.84529877    4.90999985    2.21000004
   16.10472298  107.84999847    4.90999985    2.39000010
   16.10805511   99.44850159    4.90999985    2.34999990
   16.10944557   86.84619904    4.90999985    2.34999990
   16.11166763  105.81300354    4.90999985    2.39000010
   16.11499977   85.00769806    4.90999985    2.42000008
   16.11805534   94.48419952    4.90999985    2.42000008
   16.12138939   86.26180267    4.90999985    2.66000009
   16.12444496   97.38369751    4.90999985    2.57999992
   16.12777710  124.36799622    4.90999985    2.61999989
   16.13111115  150.09500122    4.90999985    2.01999998
   16.13416672  104.37500000    4.90999985    2.53999996
   16.14027786  104.37500000    4.90999985    2.57999992
   16.14444351   76.93689728    4.90999985    2.67000008
   16.14749908   84.18479919    4.90999985    2.57999992
   16.15083313   84.87590027    4.26000023    2.76999998
   16.15416718   87.96140289    1.94000006    2.76999998
   16.15722275   76.18969727    2.23000002    2.78999996
   16.16055489   77.12660217    2.34999990    2.78999996
   16.16388893   85.67539978    2.59999990    2.76999998
   16.16694450   78.20960236    2.55999994    2.75000000
   16.17027664   93.35260010    3.11999989    2.75000000
   16.17333221   81.16210175    2.91000009    2.75000000
   16.17611122   79.39820099    2.42000008    2.76999998
   16.17722130   84.60729980    2.21000004    2.76999998
   16.18305397   84.60729980    1.50000000    2.78999996
   16.18722153   83.78479767    1.55999994    2.76999998
   16.19055557   88.35530090    1.60000002    2.76999998
   16.19361115   78.72899628    1.60000002    2.76999998
   16.19694328   80.11370087    2.00000000    2.76999998
   16.20027924   83.50990295    2.01999998    2.76999998
   16.20333481   76.99250031    2.07999992    2.76999998
   16.20666695   78.93900299    2.00000000    2.75000000
   16.20944595   80.86190033    1.63000000    2.76999998
   16.21027946   78.01920319    1.55999994    2.78999996
   16.21361160   78.82109833    1.51999998    2.76999998
   16.21666718   79.63500214    1.50000000    2.78999996
   16.22000122   83.13339996    1.44000006    2.78999996
   16.22583389   83.13339996    1.98000002    2.76999998
   16.23000145   77.21360016    2.05999994    2.76999998
   16.23333359   83.35800171    2.34999990    2.78999996
   16.23666763   79.53890228    2.46000004    2.75000000
   16.23972321   80.99909973    4.51000023    2.71000004
   16.24277878   72.53269958    4.90999985    2.75000000
   16.24333382   83.19889832    4.90999985    2.75000000
   16.24666786   77.13030243    2.86999989    2.78999996
   16.24972153   86.00409698    1.23000002    2.78999996
   16.25305557   78.86019897    1.14999998    2.78999996
   16.25611115   90.36589813    1.36000001    2.78999996
   16.25944519   85.24530029    1.28999996    2.78999996
   16.26277733   82.48380280    1.50000000    2.76999998
   16.26888847   82.48380280    2.78999996    2.75000000
   16.27305603   76.26399994    4.73999977    2.75000000
   16.27611160   79.51599884    4.90999985    2.64000010
   16.27666664   92.79869843    4.90999985    2.64000010
   16.28000069   86.98760223    4.90999985    2.51999998
   16.28305435   87.20700073    4.90999985    2.59999990
   16.28638840   94.74150085    4.90999985    2.53999996
   16.28944397   83.32949829    4.90999985    2.50000000
   16.29277802   84.37989807    4.90999985    2.53999996
   16.29611015   84.98560333    4.90999985    2.51999998
   16.29916573   78.98519897    4.90999985    2.57999992
   16.30249977   84.60150146    4.90999985    2.59999990
   16.30583191   84.29080200    4.90999985    2.61999989
   16.31166649   84.29080200    4.90999985    2.66000009
   16.31583214   77.38700104    4.90999985    2.67000008
   16.31888962   69.34500122    4.90999985    2.69000006
   16.32222366   79.41049957    4.90999985    2.75000000
   16.32555580   76.73709869    4.90999985    2.75000000
   16.32861137   79.09449768    4.90999985    2.69000006
   16.33194542   75.82240295    4.90999985    2.71000004
   16.33527756   75.23670197    4.90999985    2.64000010
   16.33833313   74.55169678    4.90999985    2.55999994
   16.34166718   76.37889862    4.90999985    2.61999989
   16.34277916   84.78209686    4.90999985    2.55999994
   16.34527779   72.13439941    4.90999985    2.61999989
   16.34861183   75.94439697    4.90999985    2.71000004
   16.35444450   75.94439697    1.39999998    2.78999996
   16.35861206   73.11100006    0.94000000    2.78999996
   16.36194420   79.13400269    1.13000000    2.78999996
   16.36499977   71.30660248    1.26999998    2.78999996
   16.36833382   74.50530243    1.19000006    2.78999996
   16.37166595   79.10199738    1.25000000    2.76999998
   16.37472153   71.39839935    1.21000004    2.78999996
   16.37611198   80.99520111    1.23000002    2.76999998
   16.37833405   75.18560028    1.30999994    2.78999996
   16.38166618   71.06130219    1.38000000    2.78999996
   16.38472176   77.54589844    1.34000003    2.76999998
   16.38805580   70.44940186    1.38000000    2.78999996
   16.39138794   70.67099762    1.39999998    2.78999996
   16.39722252   70.67099762    1.55999994    2.76999998
   16.40138817   68.75019836    1.58000004    2.78999996
   16.40472221   71.12300110    1.63000000    2.78999996
   16.40805435   71.70480347    1.63000000    2.78999996
   16.40972137   74.50319672    1.88000000    2.76999998
   16.41166687   72.51149750    1.88000000    2.76999998
   16.41472244   70.37889862    1.78999996    2.76999998
   16.41805458   67.62470245    1.85000002    2.78999996
   16.42138863   69.52349854    1.80999994    2.78999996
   16.42444420   74.38649750    1.48000002    2.76999998
   16.42777634   71.96800232    1.48000002    2.78999996
   16.43111038   69.77580261    1.48000002    2.78999996
   16.43444443   70.26270294    1.50000000    2.78999996
   16.44027710   70.26270294    1.44000006    2.78999996
   16.44444275   68.35849762    1.44000006    2.76999998
   16.44749832   71.69950104    1.46000004    2.76999998
   16.45083427   71.90519714    1.39999998    2.76999998
   16.45416832   72.81050110    1.25000000    2.78999996
   16.45750046   73.49069977    1.25000000    2.78999996
   16.46055603   72.91010284    1.19000006    2.76999998
   16.46389008   75.21540070    1.07000005    2.76999998
   16.46722221   68.83679962    0.98000002    2.78999996
   16.47027779   71.47080231    0.94000000    2.78999996
   16.47361183   70.81880188    0.83999997    2.78999996
   16.47638893   78.32369995    0.83999997    2.78999996
   16.47722244   70.73709869    0.83999997    2.78999996
   16.48305511   70.73709869    0.67000002    2.78999996
   16.48722267   73.22019958    0.69000000    2.78999996
   16.49027824   71.44660187    0.70999998    2.76999998
   16.49361229   76.76190186    0.75000000    2.78999996
   16.49694443   70.69619751    0.67000002    2.76999998
   16.50000000   68.41040039    0.67000002    2.78999996
   16.50361061   70.37650299    0.69000000    2.80999994
   16.50666618   70.43399811    0.73000002    2.78999996
   16.50972176   73.23059845    0.73000002    2.78999996
   16.51055527   74.68309784    0.81999999    2.78999996
   16.51361084   69.89649963    0.81999999    2.78999996
   16.51694489   69.33670044    0.92000002    2.78999996
   16.52027702   69.30249786    0.94000000    2.78999996
   16.52583313   69.30249786    0.94000000    2.78999996
   16.53000069   67.66159821    0.92000002    2.76999998
   16.53333282   69.30529785    0.89999998    2.76999998
   16.53638840   67.84169769    0.81999999    2.80999994
   16.53972244   67.46690369    0.76999998    2.78999996
   16.54305458   68.56829834    0.79000002    2.78999996
   16.54333305   69.12719727    0.79000002    2.78999996
   16.54694366   68.98040009    0.79000002    2.78999996
   16.54999924   67.21980286    0.83999997    2.80999994
   16.55333328   68.70279694    0.81999999    2.76999998
   16.55666542   71.94439697    0.83999997    2.76999998
   16.55972099   70.78630066    0.79000002    2.78999996
   16.56305504   70.52500153    0.76999998    2.78999996
   16.56861115   70.52500153    0.76999998    2.78999996
   16.57277870   67.67680359    0.73000002    2.78999996
   16.57611275   70.20800018    0.73000002    2.78999996
   16.57694626   70.88649750    0.73000002    2.78999996
   16.58000183   68.44129944    0.69000000    2.78999996
   16.58305550   70.23310089    0.75000000    2.76999998
   16.58638954   67.87409973    0.73000002    2.78999996
   16.58972359   70.28450012    0.73000002    2.78999996
   16.59277916   70.64260101    0.79000002    2.78999996
   16.59611130   74.96800232    0.75000000    2.76999998
   16.59944534   74.82749939    0.69000000    2.78999996
   16.60250092   73.77030182    0.75000000    2.78999996
   16.60583305   67.33799744    0.75000000    2.78999996
   16.61166763   67.33799744    0.76999998    2.78999996
   16.61583328   69.84349823    0.76999998    2.78999996
   16.61888885   69.19170380    0.76999998    2.78999996
   16.62222290   69.84870148    0.67000002    2.78999996
   16.62527847   68.74960327    0.75000000    2.78999996
   16.62861061   69.44550323    0.76999998    2.78999996
   16.63194466   68.78479767    0.79000002    2.78999996
   16.63500023   67.64959717    0.80000001    2.78999996
   16.63833237   69.98359680    0.81999999    2.76999998
   16.64166641   68.59449768    0.81999999    2.76999998
   16.64361191   68.72820282    0.86000001    2.78999996
   16.64527702   69.92070007    0.86000001    2.78999996
   16.66833305   69.92070007    0.98000002    2.78999996
   16.67249870  101.36299896    1.00000000    2.78999996
   16.67555428  104.13899994    1.00000000    2.78999996
   16.67694473   97.50360107    1.00000000    2.78999996
   16.67916679  101.81199646    1.00000000    2.78999996
   16.68249893  103.75499725    0.80000001    2.78999996
   16.68555450  101.22899628    0.81999999    2.76999998
   16.68888855   92.98699951    0.81999999    2.76999998
   16.69222069  113.80400085    0.81999999    2.78999996
   16.69527626  107.69200134    0.83999997    2.78999996
   16.69861031  111.34500122    0.83999997    2.78999996
   16.70194435  111.61699677    0.79000002    2.78999996
   16.70499992  105.10199738    0.69000000    2.78999996
   16.71111107  105.10199738    0.70999998    2.80999994
   16.71527863  105.38200378    0.69000000    2.78999996
   16.71833420  109.61399841    0.70999998    2.78999996
   16.72166634  109.96099854    0.70999998    2.78999996
   16.72500038  110.59899902    0.73000002    2.78999996
   16.72805595  109.05300140    0.81999999    2.78999996
   16.73139000  109.50000000    0.81999999    2.78999996
   16.73444557  110.57099915    0.81999999    2.78999996
   16.73777771  104.87400055    0.98000002    2.78999996
   16.74111176  108.93099976    1.01999998    2.78999996
   16.74388885  108.22899628    1.01999998    2.78999996
   16.74472237  106.04799652    1.03999996    2.76999998
   16.74805641  108.42199707    1.03999996    2.78999996
   16.75388908  108.42199707    1.05999994    2.78999996
   16.75805473   94.90450287    1.13000000    2.78999996
   16.76111031   89.41999817    1.14999998    2.76999998
   16.76444435  102.65699768    1.11000001    2.76999998
   16.76777840  100.32299805    0.94000000    2.76999998
   16.77083397  110.71600342    0.95999998    2.76999998
   16.77416611  103.52700043    0.95999998    2.78999996
   16.77722168  102.00299835    0.95999998    2.78999996
   16.77777672  105.45700073    0.98000002    2.76999998
   16.78111076  110.34999847    0.98000002    2.76999998
   16.78416634  105.11399841    0.98000002    2.78999996
   16.78750038  103.52100372    0.95999998    2.76999998
   16.79083252  119.09500122    0.95999998    2.78999996
   16.79666710  119.09500122    0.95999998    2.78999996
   16.80083275  108.47200012    0.89999998    2.78999996
   16.80416679  102.98899841    0.89999998    2.78999996
   16.80722237  114.31199646    0.88000000    2.78999996
   16.81055450  108.02700043    0.88000000    2.78999996
   16.81083298  100.44499969    0.88000000    2.78999996
   16.81416512   91.26360321    0.86000001    2.76999998
   16.81722260  104.57199860    0.86000001    2.76999998
   16.82055664  101.11100006    0.86000001    2.78999996
   16.82389069   95.91809845    0.86000001    2.78999996
   16.82694626   85.38349915    0.86000001    2.78999996
   16.83027840  105.53700256    0.89999998    2.78999996
   16.83361244  109.79199982    0.95999998    2.78999996
   16.83944511  109.79199982    1.05999994    2.76999998
   16.84388924  103.09999847    1.07000005    2.78999996
   16.84416771  106.38800049    1.07000005    2.78999996
   16.84749985  114.09899902    1.03999996    2.78999996
   16.85055542  110.77500153    1.00000000    2.78999996
   16.85388947  112.12799835    1.11000001    2.78999996
   16.85722351  105.50800323    1.03999996    2.78999996
   16.86027908  105.05300140    1.05999994    2.76999998
   16.86361122  102.48600006    1.05999994    2.76999998
   16.86694527  108.02100372    1.05999994    2.78999996
   16.87000084  106.12100220    1.01999998    2.78999996
   16.87333298  103.33300018    0.98000002    2.78999996
   16.87638855  101.06600189    0.95999998    2.78999996
   16.87722206  104.86299896    0.95999998    2.78999996
   16.88249969  104.86299896    0.95999998    2.78999996
   16.88666725  112.27999878    0.94000000    2.76999998
   16.88972282  102.95200348    0.92000002    2.78999996
   16.89305496  104.18399811    0.88000000    2.78999996
   16.89611053  101.40699768    0.76999998    2.78999996
   16.89944458  102.65699768    0.83999997    2.78999996
   16.90277672  104.84300232    0.92000002    2.78999996
   16.90583229   99.27760315    0.92000002    2.78999996
   16.90916634  107.49400330    0.95999998    2.78999996
   16.91055489  106.77200317    0.92000002    2.76999998
   16.91277695  107.01799774    0.92000002    2.76999998
   16.91611099  114.90100098    0.88000000    2.78999996
   16.91944313  104.91699982    0.92000002    2.78999996
   16.92527771  104.91699982    0.92000002    2.78999996
   16.92944336  120.90899658    0.92000002    2.78999996
   16.93249893  113.99400330    1.05999994    2.76999998
   16.93583298  116.41100311    1.05999994    2.76999998
   16.93916512   90.86810303    1.03999996    2.78999996
   16.94222069  113.84999847    1.05999994    2.78999996
   16.94388771  106.20099640    1.07000005    2.76999998
   16.94583321  102.44400024    1.03999996    2.76999998
   16.94916534  121.05799866    1.03999996    2.78999996
   16.95250130  103.27899933    1.01999998    2.78999996
   16.95555687  107.97699738    1.01999998    2.78999996
   16.95888901  110.92099762    1.01999998    2.78999996
   16.96194458  113.29699707    1.01999998    2.78999996
   16.96805573  113.29699707    1.05999994    2.78999996
   16.97222328  111.08999634    1.07000005    2.76999998
   16.97555542  113.83100128    1.05999994    2.78999996
   16.97722244  109.21399689    1.05999994    2.78999996
   16.97916794  105.29100037    1.13000000    2.76999998
   16.98250008  105.74800110    1.13000000    2.76999998
   16.98583412   98.13079834    1.13000000    2.76999998
   16.98888969  102.66999817    1.26999998    2.76999998
   16.99222183  106.79399872    1.14999998    2.76999998
   16.99527740  111.93399811    1.14999998    2.76999998
   16.99861145  101.21700287    1.13000000    2.78999996
   17.00194359  114.98000336    1.03999996    2.76999998
   17.00499916  107.27100372    0.94000000    2.76999998
   17.01083374  107.27100372    0.89999998    2.78999996
   17.01499939  101.53199768    0.86000001    2.78999996
   17.01833344  104.16400146    0.86000001    2.78999996
   17.02166557  108.71299744    0.80000001    2.78999996
   17.02472115  114.07800293    0.80000001    2.78999996
   17.02805519  110.95700073    0.80000001    2.78999996
   17.03111076  112.17600250    0.81999999    2.78999996
   17.03444481  104.89600372    0.94000000    2.78999996
   17.03777695  110.56600189    0.94000000    2.78999996
   17.04083252  114.89800262    1.01999998    2.78999996
   17.04388809  117.23699951    1.01999998    2.78999996
   17.04444313  111.58300018    1.01999998    2.78999996
   17.04777718  100.35600281    0.92000002    2.78999996
   17.05388832  100.35600281    0.89999998    2.76999998
   17.05805397  106.51599884    0.88000000    2.78999996
   17.06110954  103.21499634    0.94000000    2.78999996
   17.06444359   98.92469788    0.92000002    2.78999996
   17.06777954   98.22810364    0.92000002    2.78999996
   17.07083511  107.50800323    0.89999998    2.78999996
   17.07416725  101.41999817    0.89999998    2.78999996
   17.07722282  103.54499817    0.92000002    2.78999996
   17.07777786  105.94100189    0.94000000    2.76999998
   17.08111191  108.21499634    0.94000000    2.76999998
   17.08444595  100.87000275    0.94000000    2.78999996
   17.08750153   95.58270264    0.94000000    2.78999996
   17.09083366  100.54900360    0.89999998    2.78999996
   17.09666824  100.54900360    0.92000002    2.78999996
   17.10083389   97.14890289    0.92000002    2.78999996
   17.10388947  100.56400299    1.03999996    2.78999996
   17.10722351  103.30500031    1.07000005    2.78999996
   17.11055565  102.39199829    1.05999994    2.78999996
   17.11083412  102.02400208    1.05999994    2.78999996
   17.11416626  101.78199768    1.05999994    2.76999998
   17.11750031  105.92600250    0.95999998    2.78999996
   17.12055588  105.24500275    0.88000000    2.76999998
   17.12388992  101.10700226    0.79000002    2.78999996
   17.12694550   95.58979797    0.79000002    2.78999996
   17.13027763  101.43499756    0.80000001    2.78999996
   17.13361168  102.64600372    0.80000001    2.78999996
   17.13944435  102.64600372    0.81999999    2.78999996
   17.14361191  100.68299866    0.81999999    2.78999996
   17.14416695   90.27089691    0.81999999    2.78999996
   17.14749908   95.61969757    0.83999997    2.78999996
   17.15055466  110.22899628    0.86000001    2.78999996
   17.15388870  102.23400116    0.88000000    2.78999996
   17.15722275   99.77079773    0.86000001    2.76999998
   17.16027832   96.67579651    0.86000001    2.76999998
   17.16361046  105.27899933    0.86000001    2.76999998
   17.16666603  108.26499939    0.94000000    2.78999996
   17.17000008   92.90579987    1.05999994    2.78999996
   17.17333221  105.94499969    1.16999996    2.76999998
   17.17638779  102.44899750    1.16999996    2.76999998
   17.17749977  103.65599823    1.16999996    2.76999998
   17.18222237  103.65599823    1.14999998    2.78999996
   17.18638802   95.74340057    1.01999998    2.76999998
   17.18972206   97.54660034    1.00000000    2.78999996
   17.19305420   93.29209900    0.94000000    2.78999996
   17.19610977   93.79920197    0.94000000    2.78999996
   17.19944382   98.76059723    0.94000000    2.78999996
   17.20277786   97.91149902    0.88000000    2.78999996
   17.20583344   99.06680298    0.88000000    2.78999996
   17.20916748   98.96720123    0.86000001    2.78999996
   17.21083450  100.89700317    0.86000001    2.78999996
   17.21277809   98.37889862    0.88000000    2.76999998
   17.21583366   89.23549652    0.89999998    2.78999996
   17.21916771  109.02200317    0.94000000    2.78999996
   17.22527885  109.02200317    0.94000000    2.76999998
   17.22944450   99.36769867    0.94000000    2.78999996
   17.23250008  106.37899780    0.83999997    2.76999998
   17.23583412  106.46800232    0.83999997    2.78999996
   17.23888969   97.44219971    0.83999997    2.78999996
   17.24222183  100.41999817    0.80000001    2.78999996
   17.24416733  100.27899933    0.80000001    2.76999998
   17.24583435   91.39279938    0.80000001    2.76999998
   17.24888992  100.77300262    0.81999999    2.76999998
   17.25222206  104.14299774    0.79000002    2.78999996
   17.25555611   99.69920349    0.76999998    2.78999996
   17.25861168   99.38259888    0.76999998    2.78999996
   17.26194382  102.11000061    0.75000000    2.78999996
   17.26805496  102.11000061    0.69000000    2.78999996
   17.27222252   96.84770203    0.67000002    2.80999994
   17.27527809  101.51999664    0.63000000    2.78999996
   17.27750015  106.43099976    0.61000001    2.78999996
   17.27916718   90.75589752    0.61000001    2.78999996
   17.28222275   98.13909912    0.64999998    2.78999996
   17.28555489   89.75540161    0.64999998    2.78999996
   17.28888893  103.82599640    0.69000000    2.78999996
   17.29194450   98.94300079    0.92000002    2.76999998
   17.29527664   91.90969849    0.67000002    2.78999996
   17.29861069   99.77320099    0.70999998    2.78999996
   17.30166626   94.54570007    0.70999998    2.78999996
   17.30499840   94.61499786    0.70999998    2.78999996
   17.31083298   94.61499786    0.83999997    2.76999998
   17.31499863   98.09249878    0.81999999    2.76999998
   17.31833458   89.25260162    0.80000001    2.76999998
   17.32139015   99.67050171    0.80000001    2.78999996
   17.32472229   91.03869629    0.73000002    2.78999996
   17.32805634   91.54560089    0.67000002    2.78999996
   17.33111191   99.40799713    0.67000002    2.78999996
   17.33444595   89.78040314    0.70999998    2.78999996
   17.33750153   90.13240051    0.75000000    2.76999998
   17.34083366   93.37039948    0.64999998    2.78999996
   17.34416771   95.00019836    0.63000000    2.78999996
   17.34583473   90.62960052    0.63000000    2.78999996
   17.34777832   88.77909851    0.63000000    2.78999996
   17.35361099   88.77909851    0.52999997    2.78999996
   17.35777855  105.00199890    0.55000001    2.78999996
   17.36111069   97.91919708    0.55000001    2.80999994
   17.36416626   91.11170197    0.55000001    2.80999994
   17.36750031   94.32029724    0.58999997    2.78999996
   17.37083435  100.69100189    0.63000000    2.78999996
   17.37416649   90.97489929    0.64999998    2.78999996
   17.37722206   95.72859955    0.67000002    2.76999998
   17.37916756   99.48069763    0.64999998    2.76999998
   17.38083267   92.28949738    0.63000000    2.78999996
   17.38416672   83.50959778    0.63000000    2.78999996
   17.38722229   93.24939728    0.58999997    2.78999996
   17.39055634   93.50189972    0.58999997    2.76999998
   17.39666748   93.50189972    0.58999997    2.78999996
   17.40055466   97.56279755    0.61000001    2.78999996
   17.40388870   90.58889771    0.63000000    2.78999996
   17.40722275  100.50199890    0.58999997    2.78999996
   17.41027832   92.86660004    0.55000001    2.78999996
   17.41277695   92.03980255    0.55000001    2.78999996
   17.41416550   95.44850159    0.55000001    2.78999996
   17.41722107  100.07700348    0.56999999    2.78999996
   17.42055511   91.57070160    0.56999999    2.78999996
   17.42388916  103.20999908    0.56999999    2.78999996
   17.42694473   98.44219971    0.55000001    2.78999996
   17.43027687  101.38800049    0.47999999    2.78999996
   17.43361092   96.27330017    0.50000000    2.78999996
   17.43944359   96.27330017    0.50000000    2.78999996
   17.44361115   90.68019867    0.44000000    2.78999996
   17.44610977   96.16539764    0.44000000    2.78999996
   17.44722176   84.87200165    0.44000000    2.78999996
   17.45027924   79.99530029    0.47999999    2.78999996
   17.45361137   90.43659973    0.46000001    2.78999996
   17.45694542   85.85269928    0.50000000    2.78999996
   17.46000099   96.77500153    0.61000001    2.76999998
   17.46333504   85.85890198    0.69000000    2.76999998
   17.46638870   93.52680206    0.73000002    2.76999998
   17.46972275   99.74669647    0.73000002    2.76999998
   17.47305679   89.23600006    0.75000000    2.78999996
   17.47611237   93.47380066    0.81999999    2.78999996
   17.48222351   93.47380066    0.89999998    2.78999996
   17.48638916   81.34120178    0.92000002    2.76999998
   17.48972321   76.00939941    0.83999997    2.76999998
   17.49277878   80.50689697    0.80000001    2.76999998
   17.49611092   93.09040070    0.80000001    2.76999998
   17.49944496   86.93219757    0.76999998    2.78999996
   17.50250053   81.41449738    0.56999999    2.76999998
   17.50583267   85.68849945    0.56999999    2.78999996
   17.50916672   90.57830048    0.56999999    2.78999996
   17.51222229   82.67040253    0.52999997    2.78999996
   17.51305580   89.96749878    0.51999998    2.78999996
   17.51583290   94.46959686    0.51999998    2.78999996
   17.51916695   99.43209839    0.51999998    2.78999996
   17.52499962   99.43209839    0.51999998    2.78999996
   17.52916718   94.84580231    0.51999998    2.76999998
   17.53249931   95.68900299    0.51999998    2.78999996
   17.53583336   92.21839905    0.56999999    2.78999996
   17.53888893   89.54570007    0.67000002    2.78999996
   17.54222107   94.58809662    0.67000002    2.78999996
   17.54527664   86.65049744    0.76999998    2.76999998
   17.54638863   95.45230103    0.79000002    2.78999996
   17.54916573   86.72660065    0.79000002    2.78999996
   17.55249977   97.47049713    0.69000000    2.78999996
   17.55555534   93.26909637    0.63000000    2.78999996
   17.55888748   91.90650177    0.63000000    2.76999998
   17.56222153   88.29989624    0.75000000    2.76999998
   17.56805611   88.29989624    0.79000002    2.78999996
   17.57194519  100.68699646    0.80000001    2.76999998
   17.57527924   92.76560211    0.73000002    2.78999996
   17.57861137   92.02159882    0.75000000    2.78999996
   17.58000183   83.33860016    0.79000002    2.76999998
   17.58222389   92.48590088    0.80000001    2.76999998
   17.58527756   77.38800049    0.81999999    2.75000000
   17.58861160   83.06220245    0.76999998    2.76999998
   17.59194565   81.52539825    0.76999998    2.76999998
   17.59500122   80.32849884    0.79000002    2.76999998
   17.59833336   85.68170166    0.79000002    2.78999996
   17.60138893   84.19699860    0.76999998    2.76999998
   17.60472298   80.27230072    0.76999998    2.76999998
   17.61083412   80.27230072    0.75000000    2.76999998
   17.61499977   90.73789978    0.69000000    2.78999996
   17.61805534   87.95410156    0.64999998    2.78999996
   17.62138939   89.95500183    0.58999997    2.78999996
   17.62444496   91.63849640    0.61000001    2.78999996
   17.62777710   99.52989960    0.64999998    2.76999998
   17.63111115  104.24299622    0.64999998    2.76999998
   17.63416672  109.36100006    0.58999997    2.76999998
   17.63750076  104.91000366    0.51999998    2.76999998
   17.64083290  117.76300049    0.51999998    2.76999998
   17.64388847  112.62200165    0.51999998    2.78999996
   17.64666748  112.75599670    0.51999998    2.78999996
   17.64777756  122.78900146    0.51999998    2.76999998
   17.65361023  122.78900146    0.51999998    2.78999996
   17.65777779  138.43499756    0.52999997    2.76999998
   17.66083336  132.73300171    0.52999997    2.76999998
   17.66416550  148.85800171    0.55000001    2.76999998
   17.68166542  163.88299561    0.58999997    2.78999996
   17.68416595  159.12899780    0.58999997    2.76999998
   17.68750000  161.38400269    0.58999997    2.76999998
   17.69055557  129.74299622    0.67000002    2.78999996
   17.69666672  129.74299622    0.70999998    2.76999998
   17.70083427  138.13600159    0.70999998    2.75000000
   17.70388985  149.51499939    0.69000000    2.76999998
   17.70722389  132.96200562    0.69000000    2.76999998
   17.71055603  142.07899475    0.67000002    2.76999998
   17.71361160  125.04000092    0.67000002    2.76999998
   17.71500015  141.19799805    0.69000000    2.76999998
   17.71750069  140.64999390    0.70999998    2.76999998
   17.72055626  145.32299805    0.73000002    2.78999996
   17.72389030  145.34599304    0.89999998    2.76999998
   17.72722244  133.09399414    0.89999998    2.76999998
   17.73027802  141.95899963    0.89999998    2.76999998
   17.73361206   93.78469849    0.88000000    2.76999998
   17.73944473   93.78469849    0.86000001    2.76999998
   17.74361229  129.54699707    0.88000000    2.75000000
   17.74694443  141.10499573    0.81999999    2.76999998
   17.74833298  124.75000000    0.81999999    2.76999998
   17.75055504  140.15699768    0.81999999    2.76999998
   17.75361061  123.58300018    0.86000001    2.76999998
   17.75694466  111.33300018    1.00000000    2.76999998
   17.76000023  112.74500275    1.00000000    2.76999998
   17.76333427  118.75099945    1.83000004    2.75000000
   17.76666641  117.54399872    1.75000000    2.75000000
   17.76972198  121.19100189    1.71000004    2.75000000
   17.77305603  114.18699646    1.66999996    2.75000000
   17.77638817  106.97000122    1.66999996    2.75000000
   17.78222275  106.97000122    1.25000000    2.75000000
   17.78638840  106.58000183    1.14999998    2.75000000
   17.78972244  106.55899811    1.16999996    2.76999998
   17.79305458  121.37000275    1.14999998    2.76999998
   17.79611015  114.30400085    1.09000003    2.76999998
   17.79944420  122.33000183    1.09000003    2.76999998
   17.80277634  115.42099762    1.19000006    2.76999998
   17.80583191  112.74500275    1.23000002    2.75000000
   17.80916595  115.41899872    1.16999996    2.75000000
   17.81250000  118.18499756    1.13000000    2.76999998
   17.81499863  109.45099640    1.13000000    2.76999998
   17.81611061  105.89399719    1.01999998    2.75000000
   17.81916809  111.25599670    1.01999998    2.75000000
   17.82527924  111.25599670    1.03999996    2.75000000
   17.82944489  106.97000122    0.70999998    2.75000000
   17.83250046  100.04199982    0.70999998    2.76999998
   17.83583450  108.74800110    0.70999998    2.76999998
   17.83889008  100.88899994    0.73000002    2.76999998
   17.84222221  108.79199982    0.67000002    2.75000000
   17.84555626  112.27200317    0.64999998    2.76999998
   17.84833336  103.17199707    0.69000000    2.76999998
   17.84916687  114.81300354    0.69000000    2.76999998
   17.85222244   98.01339722    0.69000000    2.76999998
   17.85555649  107.08000183    0.69000000    2.75000000
   17.85888863  105.09999847    0.73000002    2.76999998
   17.86194420  111.18199921    0.73000002    2.76999998
   17.86805534  111.18199921    0.92000002    2.75000000
   17.87222290  106.11499786    0.98000002    2.75000000
   17.87527847  105.89299774    1.01999998    2.75000000
   17.87861061  101.24299622    0.94000000    2.75000000
   17.88166618  102.62100220    0.83999997    2.75000000
   17.88222313  100.48600006    0.83999997    2.75000000
   17.88555527  100.35399628    0.83999997    2.75000000
   17.88861084  103.86100006    0.95999998    2.75000000
   17.89194489  103.82599640    0.81999999    2.75000000
   17.89500046  113.69599915    0.79000002    2.76999998
   17.89833260  100.62899780    0.76999998    2.76999998
   17.90166664  100.20200348    0.76999998    2.76999998
   17.90472221  111.92700195    0.79000002    2.76999998
   17.91083336  111.92700195    0.76999998    2.75000000
   17.91499901   94.72779846    0.76999998    2.75000000
   17.91833305  109.50000000    0.76999998    2.75000000
   17.92138863  110.37000275    0.76999998    2.76999998
   17.92472076  100.23100281    0.70999998    2.75000000
   17.92777634   99.98130035    0.69000000    2.75000000
   17.93111038  102.52500153    0.70999998    2.76999998
   17.93444443  105.30400085    0.70999998    2.76999998
   17.93750000  103.29000092    0.75000000    2.75000000
   17.94083214   96.32379913    0.79000002    2.76999998
   17.94416618   96.18070221    0.86000001    2.75000000
   17.94722176  106.54000092    0.94000000    2.75000000
   17.94833183   97.75769806    0.94000000    2.75000000
   17.95361137   97.75769806    1.03999996    2.75000000
   17.95777893  128.65299988    1.00000000    2.75000000
   17.96111107  114.26300049    1.00000000    2.75000000
   17.96444511  106.81900024    0.94000000    2.75000000
   17.96750069  107.42900085    0.92000002    2.75000000
   17.97083473   92.78859711    0.92000002    2.76999998
   17.97416687  105.84500122    0.89999998    2.75000000
   17.97722244  106.38899994    0.94000000    2.75000000
   17.98055649  103.89299774    0.94000000    2.75000000
   17.98166656   97.19819641    0.94000000    2.75000000
   17.98416710  104.72200012    1.11000001    2.75000000
   17.98722267  101.66000366    1.03999996    2.75000000
   17.99055672   91.71150208    1.03999996    2.75000000
   17.99666786   91.71150208    0.86000001    2.75000000
   18.00055504   93.51840210    0.83999997    2.75000000
   18.00388908   71.69450378    0.76999998    2.75000000
   18.00722313   90.71949768    0.80000001    2.75000000
   18.01027870   93.93460083    0.80000001    2.75000000
   18.01361084   99.75080109    0.80000001    2.75000000
   18.01499939   85.65879822    0.80000001    2.75000000
   18.01722145   97.26180267    0.80000001    2.75000000
   18.02027702   91.78710175    0.79000002    2.75000000
   18.02361107   99.96260071    0.58999997    2.75000000
   18.02694511  107.47499847    0.58999997    2.76999998
   18.03000069  119.24500275    0.58999997    2.76999998
   18.03333282  105.77999878    0.55000001    2.75000000
   18.03944397  105.77999878    0.46000001    2.76999998
   18.04361153  122.61100006    0.46000001    2.76999998
   18.04666710  112.26300049    0.46000001    2.76999998
   18.04833221  107.13800049    0.46000001    2.76999998
   18.05055428  115.10399628    0.47999999    2.75000000
   18.05388832  117.50099945    0.50000000    2.75000000
   18.05694389  123.53399658    0.47999999    2.76999998
   18.06027794  122.53500366    0.47999999    2.75000000
   18.06333351  108.87699890    0.50000000    2.75000000
   18.06666756  109.80500031    0.61000001    2.75000000
   18.07000160  132.93400574    0.61000001    2.75000000
   18.07305717  135.16000366    0.67000002    2.75000000
   18.07638931  128.17500305    0.69000000    2.75000000
   18.08222389  128.17500305    0.67000002    2.75000000
   18.08638954  111.98699951    0.64999998    2.76999998
   18.08972359  118.06999969    0.64999998    2.75000000
   18.09277916  114.82499695    0.50000000    2.76999998
   18.09611130  102.08999634    0.51999998    2.75000000
   18.09916687  108.76499939    0.51999998    2.75000000
   18.10250092  104.37599945    0.51999998    2.75000000
   18.10583305   93.93869781    0.51999998    2.75000000
   18.10888863  106.05400085    0.55000001    2.75000000
   18.11222267  112.42600250    0.56999999    2.75000000
   18.11499977  106.69300079    0.56999999    2.75000000
   18.11583328   96.86489868    0.56999999    2.75000000
   18.11888885  104.21700287    0.58999997    2.75000000
   18.12500000  104.21700287    0.58999997    2.75000000
   18.12916756   89.82350159    0.56999999    2.75000000
   18.13249969   96.01509857    0.55000001    2.75000000
   18.13555527   97.12770081    0.55000001    2.75000000
   18.13888931   95.34040070    0.56999999    2.75000000
   18.14222145   86.39820099    0.58999997    2.76999998
   18.14527702   89.58029938    0.56999999    2.75000000
   18.14833260   95.43209839    0.56999999    2.75000000
   18.14916611   96.33119965    0.56999999    2.75000000
   18.15222168  112.16799927    0.56999999    2.75000000
   18.15555573   95.41699982    0.58999997    2.75000000
   18.15888786  100.14600372    0.55000001    2.75000000
   18.16194344   94.35009766    0.55000001    2.75000000
   18.16805458   94.35009766    0.56999999    2.75000000
   18.17222214   87.06220245    0.58999997    2.75000000
   18.17555428   79.88839722    0.51999998    2.75000000
   18.17860985   85.37349701    0.52999997    2.75000000
   18.18166542   77.99749756    0.52999997    2.75000000
   18.18249893   77.46430206    0.52999997    2.75000000
   18.18583298   84.55940247    0.55000001    2.75000000
   18.18916512   75.59670258    0.52999997    2.75000000
   18.19222069   75.85459900    0.63000000    2.76999998
   18.19555473   83.31400299    0.63000000    2.76999998
   18.19888878   76.46890259    0.69000000    2.75000000
   18.20194435   78.89340210    0.70999998    2.75000000
   18.20527840   83.41580200    0.79000002    2.75000000
   18.21083450   83.41580200    0.73000002    2.73000002
   18.21500015   81.89440155    0.52999997    2.75000000
   18.21555710   77.62599945    0.51999998    2.75000000
   18.21861076   77.93620300    0.47999999    2.75000000
   18.22194481   71.81369781    0.47999999    2.75000000
   18.22527885   78.79360199    0.47999999    2.75000000
   18.22861099   74.84239960    0.44000000    2.75000000
   18.23166656   76.57230377    0.41999999    2.75000000
   18.23500061   75.47370148    0.46000001    2.75000000
   18.23805618   76.25990295    0.50000000    2.75000000
   18.24138832   84.28869629    0.47999999    2.75000000
   18.24472237   74.93520355    0.44000000    2.75000000
   18.24777794   81.32839966    0.40000001    2.76999998
   18.24888992   75.21739960    0.40000001    2.76999998
   18.25361061   75.21739960    0.41999999    2.75000000
   18.25777817   69.31559753    0.44000000    2.75000000
   18.26111031   75.80480194    0.46000001    2.75000000
   18.26416588   77.81189728    0.47999999    2.75000000
   18.26749992   81.55549622    0.52999997    2.75000000
   18.27083397   79.95189667    0.52999997    2.75000000
   18.27388954   77.58670044    0.51999998    2.76999998
   18.27722168   80.95110321    0.63000000    2.75000000
   18.28027725   81.34059906    0.63000000    2.75000000
   18.28222275   80.24990082    0.63000000    2.75000000
   18.28388786   79.11299896    0.63000000    2.75000000
   18.28722191   79.97979736    0.63000000    2.75000000
   18.29055595   78.10240173    0.63000000    2.73000002
   18.29638863   78.10240173    0.63000000    2.75000000
   18.30055428   73.21469879    0.63000000    2.75000000
   18.30388832   76.66059875    0.63000000    2.75000000
   18.30722237   74.70800018    0.61000001    2.75000000
   18.31027794   79.55039978    0.61000001    2.75000000
   18.31361008   80.20960236    0.55000001    2.75000000
   18.31555557   82.29290009    0.55000001    2.75000000
   18.31750107   78.46769714    0.55000001    2.75000000
   18.32055664   83.22299957    0.55000001    2.75000000
   18.32389069   81.75650024    0.52999997    2.75000000
   18.32694626   79.69699860    0.47999999    2.75000000
   18.33027840   71.05590057    0.55000001    2.75000000
   18.33361244   77.19300079    0.56999999    2.75000000
   18.33944511   77.19300079    0.52999997    2.75000000
   18.34333420   71.09390259    0.52999997    2.75000000
   18.34666824   79.39360046    0.52999997    2.75000000
   18.34889030   76.05010223    0.58999997    2.75000000
   18.35027885   72.16249847    0.58999997    2.75000000
   18.35361099   77.53829956    0.67000002    2.75000000
   18.35694504   70.45850372    0.55000001    2.73000002
   18.36000061   78.63520050    0.55000001    2.73000002
   18.36333466   69.92569733    0.55000001    2.75000000
   18.36638832   70.90499878    0.55000001    2.75000000
   18.36972237   69.03800201    0.56999999    2.73000002
   18.37305641   67.74739838    0.55000001    2.73000002
   18.37611198   76.51959991    0.55000001    2.73000002
   18.38222313   76.51959991    0.55000001    2.75000000
   18.38638878   70.99099731    0.55000001    2.73000002
   18.38944435   70.07740021    0.55000001    2.73000002
   18.39277840   77.96130371    0.55000001    2.73000002
   18.39611053   70.75920105    0.55000001    2.73000002
   18.39916611   71.72840118    0.51999998    2.75000000
   18.40250015   72.11519623    0.50000000    2.75000000
   18.40555573   77.38330078    0.51999998    2.76999998
   18.40888786   69.41929626    0.50000000    2.75000000
   18.41222191   68.24310303    0.55000001    2.75000000
   18.41527748   71.77749634    0.50000000    2.73000002
   18.41583252   73.85459900    0.50000000    2.73000002
   18.41916656   76.64050293    0.47999999    2.73000002
   18.42499924   76.64050293    0.47999999    2.75000000
   18.42916679   70.34320068    0.50000000    2.75000000
   18.43249893   69.66760254    0.50000000    2.75000000
   18.43555450   70.03279877    0.50000000    2.75000000
   18.43888855   68.66459656    0.50000000    2.75000000
   18.44194412   68.43849945    0.52999997    2.75000000
   18.44527626   70.32379913    0.61000001    2.73000002
   18.44861031   68.40869904    0.61000001    2.75000000
   18.44916534   69.76779938    0.61000001    2.75000000
   18.45222282   69.29969788    0.61000001    2.75000000
   18.45555687   67.01039886    0.69000000    2.75000000
   18.45861244   68.64669800    0.63000000    2.73000002
   18.46194458   70.14859772    0.63000000    2.73000002
   18.46777916   70.14859772    0.67000002    2.73000002
   18.47194481   68.02490234    0.69000000    2.73000002
   18.47527885   66.59190369    0.64999998    2.75000000
   18.47833443   70.43119812    0.63000000    2.73000002
   18.48166656   69.34999847    0.63000000    2.73000002
   18.48250008   70.18589783    0.67000002    2.75000000
   18.48527718   68.46089935    0.67000002    2.75000000
   18.48861122   70.64469910    0.70999998    2.73000002
   18.49166679   67.55680084    0.70999998    2.75000000
   18.49500084   67.02890015    0.69000000    2.73000002
   18.49805641   68.87429810    0.76999998    2.73000002
   18.50138855   68.25009918    0.80000001    2.75000000
   18.50472260   70.49259949    0.80000001    2.75000000
   18.51083374   70.49259949    0.80000001    2.73000002
   18.51472282   69.79969788    0.79000002    2.73000002
   18.51583290   68.17810059    0.79000002    2.73000002
   18.51861000   68.05229950    0.79000002    2.75000000
   18.52194405   72.15519714    0.76999998    2.73000002
   18.52499962   69.77809906    0.75000000    2.73000002
   18.52833366   68.38670349    0.55000001    2.73000002
   18.53166580   69.80210114    0.56999999    2.73000002
   18.53472137   68.68009949    0.58999997    2.73000002
   18.53805542   69.74369812    0.58999997    2.73000002
   18.54111099   68.84480286    0.58999997    2.73000002
   18.54444313   66.79930115    0.56999999    2.73000002
   18.54777718   67.80870056    0.56999999    2.75000000
   18.54916573   66.68569946    0.56999999    2.75000000
   18.55360985   66.68569946    0.64999998    2.75000000
   18.55777740   67.69409943    0.67000002    2.73000002
   18.56083298   70.28009796    0.70999998    2.73000002
   18.56416512   69.29329681    0.69000000    2.73000002
   18.56722260   69.02079773    0.63000000    2.73000002
   18.57055664   68.79519653    0.63000000    2.73000002
   18.57389069   68.30930328    0.58999997    2.71000004
   18.57722282   69.94290161    0.63000000    2.75000000
   18.58027840   68.32379913    0.63000000    2.75000000
   18.58250046   70.56829834    0.63000000    2.73000002
   18.58388901   69.59449768    0.63000000    2.73000002
   18.58722305   69.19239807    0.63000000    2.73000002
   18.59027863   67.86239624    0.61000001    2.73000002
   18.59638977   67.86239624    0.64999998    2.73000002
   18.60055542   67.79530334    0.64999998    2.73000002
   18.60388947   68.80470276    0.63000000    2.73000002
   18.60694504   68.15709686    0.63000000    2.73000002
   18.61027908   69.47290039    0.63000000    2.73000002
   18.61333466   68.49349976    0.64999998    2.73000002
   18.61583328   69.03690338    0.64999998    2.71000004
   18.61694527   67.27909851    0.64999998    2.71000004
   18.62027740   67.82640076    0.75000000    2.73000002
   18.62333298   69.24739838    0.75000000    2.73000002
   18.62666702   69.94370270    0.73000002    2.71000004
   18.63000107   67.73850250    0.69000000    2.73000002
   18.63305473   68.24669647    0.69000000    2.73000002
   18.63916588   68.24669647    0.69000000    2.71000004
   18.64333344   70.05039978    0.95999998    2.71000004
   18.64666748   69.30789948    0.95999998    2.73000002
   18.64916611   70.56330109    0.95999998    2.71000004
   18.65027809   72.09020233    0.95999998    2.71000004
   18.65361023   69.54620361    0.92000002    2.73000002
   18.65666580   67.73329926    1.00000000    2.71000004
   18.65999985   67.37059784    0.94000000    2.71000004
   18.66333389   69.44509888    0.92000002    2.71000004
   18.66638756   69.53019714    0.92000002    2.71000004
   18.66972160   69.14350128    0.88000000    2.71000004
   18.67277718   68.35590363    0.88000000    2.73000002
   18.67611122   69.00009918    0.88000000    2.73000002
   18.68222237   69.00009918    0.75000000    2.71000004
   18.70055580   68.25309753    0.63000000    2.73000002
   18.70361137   68.15899658    0.61000001    2.71000004
   18.70694542   68.89700317    0.61000001    2.71000004
   18.71027946   68.21369934    0.61000001    2.71000004
   18.71333504   67.71990204    0.81999999    2.71000004
   18.71666718   69.02649689    0.80000001    2.71000004
   18.71972275   69.84539795    0.80000001    2.73000002
   18.72527885   69.84539795    0.81999999    2.71000004
   18.72944450   68.50450134    0.95999998    2.71000004
   18.73250008   68.52179718    1.16999996    2.71000004
   18.73361206   69.31719971    1.16999996    2.71000004
   18.73611069   68.07499695    1.16999996    2.71000004
   18.73944473   69.18270111    1.50000000    2.71000004
   18.74277878   68.29180145    2.48000002    2.69000006
   18.74583435   71.01989746    2.11999989    2.71000004
   18.74916649   67.64340210    1.86000001    2.71000004
   18.75250053   68.34140015    1.85000002    2.71000004
   18.75555611   68.32309723    2.26999998    2.69000006
   18.75888824   68.63870239    2.15000010    2.71000004
   18.76222229   67.61640167    1.96000004    2.69000006
   18.76805496   67.61640167    1.80999994    2.69000006
   18.77222252   69.09529877    1.86000001    2.69000006
   18.77555466   68.42140198    1.69000006    2.69000006
   18.77861023   69.82689667    1.80999994    2.69000006
   18.78194427   70.24150085    1.78999996    2.71000004
   18.78499985   66.40440369    1.78999996    2.71000004
   18.78833199   68.91320038    1.69000006    2.71000004
   18.79166603   67.76069641    1.44000006    2.71000004
   18.79472160   67.53009796    2.09999990    2.69000006
   18.79805565   67.44280243    2.05999994    2.69000006
   18.80027771   67.99279785    1.89999998    2.69000006
   18.80166626   67.94550323    2.00000000    2.69000006
   18.80499840   69.36990356    2.05999994    2.69000006
   18.81083298   69.36990356    2.61999989    2.69000006
   18.81499863   68.38510132    2.17000008    2.69000006
   18.81833458   68.74160004    1.80999994    2.69000006
   18.82139015   67.91519928    1.69000006    2.71000004
   18.82472229   67.10060120    1.21000004    2.71000004
   18.82805634   69.16049957    1.39999998    2.69000006
   18.83111191   65.96440125    1.51999998    2.69000006
   18.83361244   69.08789825    1.55999994    2.71000004
   18.83472252   67.22650146    1.55999994    2.71000004
   18.83805656   68.33959961    1.55999994    2.71000004
   18.84138870   68.77749634    1.16999996    2.69000006
   18.84444427   68.37069702    0.80000001    2.69000006
   18.84777832   68.71279907    0.70999998    2.71000004
   18.85361099   68.71279907    0.73000002    2.71000004
   18.85777855   67.83989716    0.64999998    2.71000004
   18.86111069   68.89949799    0.89999998    2.69000006
   18.86444473   67.60880280    1.05999994    2.71000004
   18.86694527   66.31079865    0.76999998    2.69000006
   18.86777878   68.41680145    0.76999998    2.69000006
   18.87111092   68.19550323    0.76999998    2.71000004
   18.87444496   66.79869843    0.79000002    2.71000004
   18.87750053   69.14099884    0.79000002    2.71000004
   18.88083267   68.53140259    0.81999999    2.71000004
   18.88416672   67.81130219    0.86000001    2.71000004
   18.88722229   66.76820374    0.86000001    2.69000006
   18.89055634   68.40509796    0.88000000    2.71000004
   18.89666748   68.40509796    0.83999997    2.71000004
   18.90055466   67.09619904    0.83999997    2.69000006
   18.90388870   68.88300323    0.83999997    2.71000004
   18.90722275   68.25240326    0.86000001    2.71000004
   18.91027832   70.37979889    0.95999998    2.69000006
   18.91361046   71.14499664    0.98000002    2.69000006
   18.91694450   68.22560120    1.00000000    2.69000006
   18.92027664   69.59480286    0.95999998    2.69000006
   18.92333221   69.36139679    0.95999998    2.69000006
   18.92666626   68.76550293    0.98000002    2.69000006
   18.92972183   69.56860352    0.92000002    2.69000006
   18.93305397   69.05979919    0.75000000    2.71000004
   18.93361092   66.55799866    0.75000000    2.71000004
   18.93944359   66.55799866    0.73000002    2.71000004
   18.94361115   68.86080170    0.73000002    2.71000004
   18.94666672   68.33560181    0.73000002    2.71000004
   18.95000076   68.29029846    0.79000002    2.71000004
   18.95333481   68.47570038    0.76999998    2.69000006
   18.95639038   69.07700348    0.76999998    2.69000006
   18.95972252   69.30169678    0.79000002    2.71000004
   18.96305656   67.95719910    0.79000002    2.71000004
   18.96611214   68.39559937    0.79000002    2.71000004
   18.96694565   70.33159637    0.88000000    2.69000006
   18.97000122   69.22389984    0.88000000    2.69000006
   18.97305679   68.74970245    0.92000002    2.69000006
   18.97638893   68.75319672    0.92000002    2.71000004
   18.98222351   68.75319672    0.83999997    2.69000006
   18.98638916   70.09539795    0.89999998    2.69000006
   18.98972321   70.49620056    0.89999998    2.69000006
   18.99277878   69.28690338    0.92000002    2.69000006
   18.99611092   71.85990143    0.89999998    2.69000006
   18.99916649   68.78959656    0.89999998    2.69000006
   19.00027847   67.80030060    0.89999998    2.69000006
   19.00305557   69.55850220    0.88000000    2.69000006
   19.00611115   66.96600342    0.89999998    2.69000006
   19.00944519   72.57730103    1.05999994    2.69000006
   19.01277733   68.86430359    1.03999996    2.69000006
   19.01583290   68.72029877    1.00000000    2.69000006
   19.01916695   69.91159821    1.01999998    2.69000006
   19.02499962   69.91159821    1.01999998    2.69000006
   19.02944374   68.33309937    1.01999998    2.69000006
   19.03249931   68.14830017    0.98000002    2.67000008
   19.03361130   69.38059998    0.98000002    2.67000008
   19.03638840   70.74069977    0.98000002    2.67000008
   19.03944397   69.80960083    0.95999998    2.67000008
   19.04277802   72.21119690    1.05999994    2.69000006
   19.04611015   70.92839813    1.05999994    2.69000006
   19.04916573   69.65509796    1.21000004    2.69000006
   19.05249977   69.35759735    1.21000004    2.69000006
   19.05583191   67.55789948    1.34000003    2.69000006
   19.05888748   67.77330017    1.51999998    2.67000008
   19.06222153   65.77490234    1.46000004    2.69000006
   19.06805611   65.77490234    1.48000002    2.69000006
   19.07222366   67.24089813    1.60000002    2.67000008
   19.07527924   67.36589813    1.51999998    2.69000006
   19.07861137   68.42150116    1.51999998    2.67000008
   19.08166695   68.05410004    1.50000000    2.67000008
   19.08500099   68.85620117    3.30999994    2.67000008
   19.08833313   68.91660309    4.59999990    2.64000010
   19.09138870   67.94850159    3.99000001    2.66000009
   19.09472275   68.36499786    2.93000007    2.67000008
   19.09805679   68.22699738    2.80999994    2.67000008
   19.10027885   69.79879761    2.53999996    2.66000009
   19.10166740   70.09249878    2.50000000    2.67000008
   19.10472298   67.33460236    2.19000006    2.67000008
   19.11083412   67.33460236    1.44000006    2.67000008
   19.11499977   68.43080139    1.58000004    2.67000008
   19.11805534   69.38749695    1.60000002    2.66000009
   19.12138939   68.87039948    1.76999998    2.66000009
   19.12472153   68.54039764    1.71000004    2.67000008
   19.12777710   68.24690247    1.69000006    2.67000008
   19.13111115   67.87419891    1.60000002    2.67000008
   19.13361168   67.49510193    1.91999996    2.67000008
   19.13472176   67.88939667    1.91999996    2.67000008
   19.13777733   68.34159851    1.94000006    2.67000008
   19.14111137   70.75250244    1.85000002    2.67000008
   19.14444351   67.90589905    1.91999996    2.66000009
   19.14749908   69.02110291    1.96000004    2.67000008
   19.15361023   69.02110291    2.00000000    2.66000009
   19.15777779   70.35810089    2.01999998    2.66000009
   19.16110992   66.37090302    2.15000010    2.67000008
   19.16416550   69.50350189    2.15000010    2.66000009
   19.16694450   67.90560150    2.30999994    2.66000009
   19.16805458   69.06970215    2.34999990    2.66000009
   19.17111015   68.63159943    2.39000010    2.66000009
   19.17444420   68.74990082    2.67000008    2.66000009
   19.17777634   69.88649750    3.20000005    2.64000010
   19.18083191   70.03369904    3.73000002    2.64000010
   19.18416595   70.53649902    4.40999985    2.61999989
   19.18750000   71.47039795    4.90999985    2.61999989
   19.19055557   72.13110352    4.90999985    2.61999989
   19.19638824   72.13110352    4.76000023    2.64000010
   19.20055580   72.47640228    3.95000005    2.66000009
   19.20388985   72.00309753    3.09999990    2.66000009
   19.20694542   69.71690369    2.59999990    2.66000009
   19.21027946   68.10620117    2.42000008    2.66000009
   19.21361160   71.26470184    2.28999996    2.66000009
   19.21666718   69.42330170    2.21000004    2.66000009
   19.22000122   69.33799744    2.15000010    2.66000009
   19.22333336   73.29019928    2.21000004    2.66000009
   19.22638893   68.99620056    2.25000000    2.66000009
   19.22972298   68.43609619    2.09999990    2.66000009
   19.23277855   68.82080078    1.94000006    2.66000009
   19.23361206   69.81559753    1.94000006    2.66000009
   19.23944473   69.81559753    2.23000002    2.66000009
   19.24333382   69.78510284    2.34999990    2.66000009
   19.24666786   68.98609924    2.28999996    2.66000009
   19.25000000   67.67430115    2.21000004    2.66000009
   19.25305557   69.34580231    2.09999990    2.66000009
   19.25638962   69.92769623    2.00000000    2.66000009
   19.25972176   68.57900238    2.01999998    2.66000009
   19.26277733   67.62539673    1.96000004    2.66000009
   19.26611137   67.72399902    1.94000006    2.66000009
   19.26694489   70.49050140    1.94000006    2.66000009
   19.26972198   69.18930054    2.26999998    2.66000009
   19.27277756   68.86710358    2.57999992    2.66000009
   19.27611160   68.92440033    2.09999990    2.66000009
   19.28222275   68.92440033    2.21000004    2.66000009
   19.28638840   68.08830261    2.51999998    2.64000010
   19.28944397   70.46720123    2.80999994    2.64000010
   19.29277802   68.86750031    3.30999994    2.61999989
   19.29611015   69.03289795    3.50000000    2.61999989
   19.29916573   67.40360260    4.38999987    2.64000010
   19.30027771   69.15720367    4.17999983    2.61999989
   19.30277634   70.04550171    3.68000007    2.61999989
   19.30583191   71.77510071    2.82999992    2.64000010
   19.30916595   69.32099915    3.03999996    2.64000010
   19.31250000   69.78320313    4.90999985    2.61999989
   19.31555557   76.35430145    4.90999985    2.48000002
   19.31888962   94.31749725    4.90999985    2.07999992
   19.32500076   94.31749725    4.90999985    1.34000003
   19.32916832   -1.00000000    4.90999985    1.51999998
   19.33250046   75.51260376    4.90999985    1.53999996
   19.33361244   76.12400055    4.90999985    2.07999992
   19.33611107   71.72290039    4.90999985    2.39000010
   19.33916664   72.16639709    4.90999985    2.66000009
   19.34250069   81.59770203    4.90999985    2.66000009
   19.34583473   73.61550140    3.95000005    2.64000010
   19.34889030   76.76139832    4.11999989    2.64000010
   19.35222244   68.98249817    3.55999994    2.64000010
   19.35555649   69.85870361    3.01999998    2.64000010
   19.35861206   68.05269623    3.39000010    2.61999989
   19.36194420   70.26570129    3.80999994    2.61999989
   19.36777878   70.26570129    4.90999985    2.55999994
   19.37194443   71.89830017    4.90999985    2.48000002
   19.40472221  134.69900513    4.90999985    2.57999992
   19.40805435  122.14600372    4.86999989    2.61999989
   19.41110992  110.44000244    4.48999977    2.61999989
   19.41444397  190.59700012    4.90999985    2.55999994
   19.41777802  182.14799500    4.90999985    1.98000002
   19.42083359  129.96800232    4.90999985    2.25000000
   19.42499924  129.96800232    4.90999985    2.59999990
   19.42916679  138.90100098    4.90999985    1.55999994
   19.43249893  135.75900269    4.90999985    2.57999992
   19.43555450  130.83000183    4.90999985    2.53999996
   19.43805504  135.16099548    4.90999985    2.53999996
   19.43916512  145.17399597    4.90999985    2.53999996
   19.44249916  127.66999817    4.90999985    2.50000000
   19.44583321  137.90499878    4.90999985    2.53999996
   19.44888878  137.87199402    4.90999985    2.53999996
   19.45222282  137.50900269    4.90999985    2.51999998
   19.45555687  137.76600647    4.90999985    2.51999998
   19.45861244  134.64799500    4.90999985    2.57999992
   19.46194458  112.80400085    4.90999985    2.57999992
   19.46777916  112.80400085    4.90999985    2.59999990
   19.47194481  125.07399750    4.76000023    2.57999992
   19.47527885  141.08900452    3.57999992    2.61999989
   19.47861099  121.86199951    2.40000010    2.61999989
   19.48166656  145.79400635    3.28999996    2.61999989
   19.48500061  119.59600067    2.94000006    2.61999989
   19.48805618  116.84600067    2.39000010    2.61999989
   19.49138832  121.21199799    3.11999989    2.59999990
   19.49472237  114.98000336    2.64000010    2.61999989
   19.49777794  142.23699951    2.32999992    2.64000010
   19.50111198  132.32699585    2.36999989    2.61999989
   19.50444412  128.18400574    2.98000002    2.61999989
   19.50499916  131.05499268    3.01999998    2.61999989
   19.51083374  131.05499268    2.57999992    2.61999989
   19.51499939  133.90899658    2.28999996    2.64000010
   19.51805496  140.42399597    0.88000000    2.67000008
   19.52138901  121.06600189    0.19000000    0.44000000
   19.52444458  133.16799927    0.09000000    0.15000001
   19.52777672  129.59700012    0.07000000    0.03000000
   19.53111076  142.08900452    0.07000000    0.03000000
   19.53416634  118.26399994    0.07000000    0.03000000
   19.53750038  110.42900085    0.07000000    0.03000000
   19.53833199  115.20300293    0.07000000    0.03000000
   19.54111099  125.69599915    0.07000000    0.03000000
   19.54444313  122.59999847    0.07000000    0.03000000
   19.54749870  130.70399475    0.07000000    0.03000000
   19.55360985  130.70399475    0.07000000    0.03000000
   19.55777740  124.58399963    0.07000000    0.03000000
   19.56110954  134.23599243    0.07000000    0.03000000
   19.56416512  119.14600372    0.07000000    0.03000000
   19.56750107  120.86699677    0.07000000    0.03000000
   19.57055664  120.15000153    0.07000000    0.03000000
   19.57166672  136.04800415    0.07000000    0.03000000
   19.57416725  122.69699860    0.07000000    0.03000000
   19.57750130  138.38800049    0.07000000    0.03000000
   19.58055687  136.38600159    0.07000000    0.03000000
   19.58388901  136.95399475    0.07000000    0.03000000
   19.58722305  135.70599365    0.07000000    0.03000000
   19.59027863  137.24000549    0.07000000    0.03000000
   19.59638977  137.24000549    0.07000000    0.03000000
   19.60055542  144.13299561    0.07000000    0.03000000
   19.60388947  145.00100708    0.07000000    0.03000000
   19.60499954  123.44400024    0.07000000    0.03000000
   19.60750008  121.72899628    0.07000000    0.03000000
   19.61083412  139.70399475    0.07000000    0.03000000
   19.61388969  123.52200317    0.07000000    0.03000000
   19.61722183  131.50199890    0.07000000    0.03000000
   19.62055588  144.69500732    0.07000000    0.03000000
   19.62361145  150.38299561    0.07000000    0.03000000
   19.62694550  153.14500427    0.07000000    0.03000000
   19.63027763  157.97300720    0.07000000    0.03000000
   19.63333321  138.06300354    0.07000000    0.03000000
   19.63916588  138.06300354    0.07000000    0.03000000
   19.64333344  133.37199402    0.07000000    0.03000000
   19.64666748  143.54499817    0.07000000    0.03000000
   19.64999962  140.22099304    0.07000000    0.03000000
   19.65305519  159.52999878    0.07000000    0.03000000
   19.65638924   -1.00000000    0.07000000    0.03000000
   19.65944481   -1.00000000    0.07000000    0.03000000
   19.66277695  137.91700745    0.07000000    0.03000000
   19.66611099  138.43699646    0.07000000    0.03000000
   19.66916656  143.50799561    0.07000000    0.03000000
   19.67166519  142.54400635    0.07000000    0.03000000
   19.67277718  136.60800171    0.07000000    0.03000000
   19.67611122  132.71699524    0.07000000    0.03000000
   19.68222237  132.71699524    0.07000000    0.03000000
   19.69305420   72.64810181    0.00000000    0.00000000
   19.69610977   72.64810181    0.00000000    0.00000000
   19.69972038   72.64810181    0.00000000    0.00000000
   19.71916771   -1.00000000   -1.00000000   -1.00000000
   19.74916649  160.14799500    0.07000000    0.03000000
   19.75250053  152.03500366    0.07000000    0.03000000
   19.75583267  199.25100708    0.07000000    0.03000000
   19.75888824  198.50700378    0.07000000    0.03000000
   19.76222229  202.97399902    0.07000000    0.03000000
   19.76555634  173.87500000    0.07000000    0.03000000
   19.76972198  173.87500000    0.07000000    0.03000000
   19.77388954  171.33799744    0.07000000    0.03000000
   19.77694511  162.80400085    0.07000000    0.03000000
   19.78027725  165.55900574    0.07000000    0.03000000
   19.78249931  166.54200745    0.07000000    0.03000000
   19.78388786  178.61799622    0.07000000    0.03000000
   19.78722191  167.14500427    0.07000000    0.03000000
   19.79055595  172.94900513    0.07000000    0.03000000
   19.79361153  190.64999390    0.07000000    0.03000000
   19.79694366  165.28999329    0.07000000    0.03000000
   19.79999924   -1.00000000    0.07000000    0.03000000
   19.80333328  232.72700500    0.07000000    0.03000000
   19.80666542   -1.00000000    0.07000000    0.03000000
   19.81250000   -1.00000000    0.07000000    0.03000000
   19.81666756  137.17300415    0.07000000    0.03000000
   19.81972313  147.19999695    0.07000000    0.03000000
   19.82305717  153.83900452    0.07000000    0.03000000
   19.82638931  138.46000671    0.07000000    0.03000000
   19.82944489  150.06199646    0.07000000    0.03000000
   19.83277893  160.90699768    0.07000000    0.03000000
   19.83611107  161.90100098    0.07000000    0.03000000
   19.83916664  140.46800232    0.07000000    0.03000000
   19.84250069  158.03799438    0.07000000    0.03000000
   19.84555626  152.76499939    0.07000000    0.03000000
   19.84889030  134.08000183    0.07000000    0.03000000
   19.84944534  141.88699341    0.07000000    0.03000000
   19.85527802  141.88699341    0.07000000    0.03000000
   19.85944557  149.52699280    0.07000000    0.03000000
   19.86250114  141.44799805    0.07000000    0.03000000
   19.86583328  151.16499329    0.07000000    0.03000000
   19.86916733  142.13400269    0.07000000    0.03000000
   19.87222290  154.50599670    0.07000000    0.03000000
   19.87555504  148.67300415    0.07000000    0.03000000
   19.87888908  174.64799500    0.07000000    0.03000000
   19.88194466  163.22099304    0.07000000    0.03000000
   19.88277817  164.32099915    0.07000000    0.03000000
   19.88555527  161.93699646    0.07000000    0.03000000
   19.88888931  151.99400330    0.07000000    0.03000000
   19.89222145  158.50700378    0.07000000    0.03000000
   19.89805603  158.50700378    0.07000000    0.03000000
   19.90222168  163.23399353    0.07000000    0.03000000
   19.90555573  146.48800659    0.07000000    0.03000000
   19.90888786  152.64999390    0.07000000    0.03000000
   19.91194344  149.09700012    0.07000000    0.03000000
   19.91527748  160.28799438    0.07000000    0.03000000
   19.91611099  134.61700439    0.07000000    0.03000000
   19.91888809  158.61999512    0.07000000    0.03000000
   19.92222214  155.92300415    0.07000000    0.03000000
   19.92555428  156.86099243    0.07000000    0.03000000
   19.92860985  146.72799683    0.07000000    0.03000000
   19.93194389  154.28900146    0.07000000    0.03000000
   19.93527603  141.48300171    0.07000000    0.03000000
   19.94083214  141.48300171    0.07000000    0.03000000
   19.94499969  156.66600037    0.07000000    0.03000000
   19.94833183  143.15299988    0.07000000    0.03000000
   19.94944382  158.59100342    0.07000000    0.03000000
   19.95194435  157.74299622    0.07000000    0.03000000
   19.95527840  152.04200745    0.07000000    0.03000000
   19.95861244  145.10499573    0.07000000    0.03000000
   19.96166801  137.39999390    0.07000000    0.03000000
   19.96500015  151.45399475    0.07000000    0.03000000
   19.96833420  130.16000366    0.07000000    0.03000000
   19.97138977  133.01400757    0.07000000    0.03000000
   19.97472191  131.20300293    0.07000000    0.03000000
   19.97777748  134.88099670    0.07000000    0.03000000
   19.98388863  134.88099670    0.07000000    0.03000000
   19.98805618  127.41200256    0.07000000    0.03000000
   19.99111176  127.41400146    0.07000000    0.03000000
   19.99444389  127.23799896    0.07000000    0.03000000
   19.99749947  118.89099884    0.07000000    0.03000000
   20.00083351  123.13999939    0.07000000    0.03000000
   20.00416756  132.27699280    0.07000000    0.03000000
   20.00722313  126.09500122    0.07000000    0.03000000
   20.01055527  136.47799683    0.07000000    0.03000000
   20.01388931  124.71600342    0.07000000    0.03000000
   20.01611137  118.68900299    0.07000000    0.03000000
   20.01722145  131.79800415    0.07000000    0.03000000
   20.02055550  132.02099609    0.07000000    0.03000000
   20.02666664  132.02099609    0.07000000    0.03000000
   20.03083229  137.86999512    0.07000000    0.03000000
   20.03388786  136.71000671    0.07000000    0.03000000
   20.03722191  133.38099670    0.07000000    0.03000000
   20.04055595  131.17500305    0.07000000    0.03000000
   20.04361153  126.92700195    0.07000000    0.03000000
   20.04694366  133.38699341    0.07000000    0.03000000
   20.04944420  126.74900055    0.07000000    0.03000000
   20.05055428   97.30120087    0.07000000    0.03000000
   20.05388832  131.93800354    0.07000000    0.03000000
   20.05722237  126.85700226    0.07000000    0.03000000
   20.06027794  134.22300720    0.07000000    0.03000000
   20.06361008  146.17300415    0.07000000    0.03000000
   20.06944466  146.17300415    0.07000000    0.03000000
   20.07361221  130.60299683    0.07000000    0.03000000
   20.07694626  131.28300476    0.07000000    0.03000000
   20.08000183  129.46000671    0.07000000    0.03000000
   20.08277893  126.93499756    0.07000000    0.03000000
   20.08361244  134.31199646    0.07000000    0.03000000
   20.08694458  142.59800720    0.07000000    0.03000000
   20.09027863  165.90499878    0.07000000    0.03000000
   20.09333420  201.77200317    0.07000000    0.03000000
   20.09666824  211.23199463    0.07000000    0.03000000
   20.10000038  185.68299866    0.07000000    0.03000000
   20.10305595  208.05200195    0.07000000    0.03000000
   20.10639000  197.07200623    0.07000000    0.03000000
   20.11222267  197.07200623    0.07000000    0.03000000
   20.11638832  187.94999695    0.07000000    0.03000000
   20.11972237  193.87399292    0.07000000    0.03000000
   20.12305641  180.24899292    0.07000000    0.03000000
   20.12611198  186.27400208    0.07000000    0.03000000
   20.12944412  195.67399597    0.07000000    0.03000000
   20.13249969  182.95300293    0.07000000    0.03000000
   20.13583374  198.86799622    0.07000000    0.03000000
   20.13916588  168.07200623    0.07000000    0.03000000
   20.14222145  176.60099792    0.07000000    0.03000000
   20.14555550  169.03100586    0.07000000    0.03000000
   20.14888954  151.40199280    0.07000000    0.03000000
   20.14944458  151.29200745    0.07000000    0.03000000
   20.15527725  151.29200745    0.07000000    0.03000000
   20.15944481  171.43400574    0.07000000    0.03000000
   20.16305542  150.72200012    0.00000000    0.00000000
   20.16694450  138.39700317    0.00000000    0.00000000
   20.17083359  147.72599792    0.00000000    0.00000000
   20.17472076  168.82400513    0.00000000    0.00000000
   20.17860985  153.96699524    0.00000000    0.00000000
   20.18249893  160.46000671    0.00000000    0.00000000
   20.18305397  155.58500671    0.00000000    0.00000000
   20.18666649  157.78399658    0.00000000    0.00000000
   20.19027710  163.60800171    0.00000000    0.00000000
   20.19416618  145.36900330    0.00000000    0.00000000
   20.19916534  145.36900330    0.00000000    0.00000000
   20.20388985  138.05599976    0.00000000    0.00000000
   20.20777893  162.32299805    0.00000000    0.00000000
   20.21166801  157.88600159    0.00000000    0.00000000
   20.21527863  156.33099365    0.00000000    0.00000000
   20.21638870  171.91200256    0.00000000    0.00000000
   20.21972275  151.25999451    0.00000000    0.00000000
   20.22333336  149.38400269    0.00000000    0.00000000
   20.22722244  192.75100708    0.00000000    0.00000000
   20.23111153  198.55999756    0.00000000    0.00000000
   20.23500061  257.52099609    0.00000000    0.00000000
   20.24194527  257.52099609    0.00000000    0.00000000
