    HOUR (UT)   FLARE FACTOR    SKY TESTER    SUN TESTER
   10.94555569   -1.00000000   -1.00000000   -1.00000000
   10.97166634  488.67599487    4.90999985    2.17000008
   10.97499943  423.86099243    4.90999985    2.17000008
   10.97722149  467.72698975    4.90999985    2.19000006
   10.97833252  424.52899170    4.90999985    2.17000008
   10.97972202  474.75500488    4.90999985    2.19000006
   10.98111057  466.53100586    4.90999985    2.19000006
   10.98249912  511.29000854    4.90999985    2.19000006
   10.98388958  452.39401245    4.90999985    2.19000006
   10.98527813  463.39498901    4.90999985    2.19000006
   10.98666668  464.92700195    4.90999985    2.19000006
   10.98805618  469.74301147    4.90999985    2.19000006
   10.98944473  460.13598633    4.90999985    2.19000006
   10.99083328  495.57998657    4.90999985    2.19000006
   10.99222279  460.71398926    4.90999985    2.21000004
   10.99361134  490.25500488    4.90999985    2.19000006
   10.99499989  439.48498535    4.90999985    2.19000006
   10.99638939  439.29400635    4.90999985    2.21000004
   10.99777794  427.78100586    4.90999985    2.21000004
   10.99916649  443.77600098    4.90999985    2.21000004
   11.00055599  470.23098755    4.90999985    2.21000004
   11.00194454  419.35699463    4.90999985    2.21000004
   11.00333309  458.45001221    4.90999985    2.21000004
   11.00472260  458.64401245    4.90999985    2.21000004
   11.00611115  486.81298828    4.90999985    2.21000004
   11.00749969  510.05398560    4.90999985    2.21000004
   11.00888920  423.94299316    4.90999985    2.21000004
   11.01027775  500.38500977    4.90999985    2.21000004
   11.01166630  482.07699585    4.90999985    2.21000004
   11.01305580  453.97198486    4.90999985    2.23000002
   11.01444435  478.05398560    4.90999985    2.23000002
   11.01583290  503.48901367    4.90999985    2.23000002
   11.01722240  465.06298828    4.90999985    2.23000002
   11.01861095  439.67599487    4.90999985    2.21000004
   11.01999950  481.61801147    4.90999985    2.23000002
   11.02138901  488.59799194    4.90999985    2.23000002
   11.02277756  450.55099487    4.90999985    2.23000002
   11.02416611  466.31698608    4.90999985    2.23000002
   11.02555561  457.57901001    4.90999985    2.23000002
   11.02694416  509.29199219    4.90999985    2.23000002
   11.02833271  479.73599243    4.90999985    2.23000002
   11.02972221  442.28298950    4.90999985    2.23000002
   11.03111076  462.55200195    4.90999985    2.23000002
   11.03249931  461.16900635    4.90999985    2.23000002
   11.03388977  508.98199463    4.90999985    2.23000002
   11.03527832  471.10299683    4.90999985    2.23000002
   11.03666687  452.55398560    4.90999985    2.23000002
   11.03805637  473.91299438    4.90999985    2.25000000
   11.03944492  456.32000732    4.90999985    2.25000000
   11.04083347  422.80599976    4.90999985    2.25000000
   11.04222298  475.95001221    4.90999985    2.25000000
   11.04361153  465.59201050    4.90999985    2.25000000
   11.04500008  462.65100098    4.90999985    2.25000000
   11.04638958  448.50900269    4.90999985    2.25000000
   11.04777813  428.66598511    4.90999985    2.25000000
   11.04916668  399.58300781    4.90999985    2.25000000
   11.05055618  538.73297119    4.90999985    2.25000000
   11.05194473  462.43499756    4.90999985    2.25000000
   11.05333328  459.51800537    4.90999985    2.25000000
   11.05472279  458.54098511    4.90999985    2.25000000
   11.05611134  446.34298706    4.90999985    2.25000000
   11.05749989  474.07400513    4.90999985    2.26999998
   11.05888939  434.41699219    4.90999985    2.25000000
   11.06027794  450.60000610    4.90999985    2.25000000
   11.06166649  432.82400513    4.90999985    2.25000000
   11.06305599  424.17098999    4.90999985    2.25000000
   11.06444454  453.72500610    4.90999985    2.25000000
   11.06583309  399.86401367    4.90999985    2.26999998
   11.06722260  410.95700073    4.90999985    2.26999998
   11.06861115  423.89801025    4.90999985    2.26999998
   11.06999969  424.93099976    4.90999985    2.26999998
   11.07138920  410.98699951    4.90999985    2.26999998
   11.07277775  430.55200195    4.90999985    2.26999998
   11.07416630  406.44100952    4.90999985    2.26999998
   11.07555580  428.67498779    4.90999985    2.26999998
   11.07694435  394.27301025    4.90999985    2.26999998
   11.07833290  435.26998901    4.90999985    2.26999998
   11.07972240  410.37701416    4.90999985    2.26999998
   11.08111095  413.39498901    4.90999985    2.28999996
   11.08249950  414.81100464    4.90999985    2.26999998
   11.08388901  380.04400635    4.90999985    2.26999998
   11.08527756  415.94198608    4.90999985    2.26999998
   11.08666611  401.18701172    4.90999985    2.26999998
   11.08805561  401.18499756    4.90999985    2.28999996
   11.08944416  435.54901123    4.90999985    2.28999996
   11.09083271  412.93798828    4.90999985    2.28999996
   11.09222221  407.42800903    4.90999985    2.28999996
   11.09361076  398.95199585    4.90999985    2.28999996
   11.09499931  415.69400024    4.90999985    2.28999996
   11.09638882  390.72000122    4.90999985    2.28999996
   11.09777737  381.18499756    4.90999985    2.28999996
   11.09916592  398.00399780    4.90999985    2.28999996
   11.10055637  409.59799194    4.90999985    2.28999996
   11.10194492  403.65399170    4.90999985    2.28999996
   11.10333347  425.07998657    4.90999985    2.28999996
   11.10472298  421.82400513    4.90999985    2.28999996
   11.10611153  404.49899292    4.90999985    2.28999996
   11.10750008  421.77200317    4.90999985    2.28999996
   11.10888958  391.72198486    4.90999985    2.30999994
   11.11027813  410.94500732    4.90999985    2.30999994
   11.11166668  396.43798828    4.90999985    2.30999994
   11.11305618  378.48400879    4.90999985    2.30999994
   11.11444473  405.38900757    4.90999985    2.30999994
   11.11583328  363.25000000    4.90999985    2.30999994
   11.11722279  395.07501221    4.90999985    2.30999994
   11.11861134  397.26400757    4.90999985    2.30999994
   11.11999989  378.94299316    4.90999985    2.30999994
   11.12138939  402.85299683    4.90999985    2.30999994
   11.12277794  390.77398682    4.90999985    2.30999994
   11.12416649  366.86700439    4.90999985    2.30999994
   11.12555599  405.78698730    4.90999985    2.30999994
   11.12694454  395.18499756    4.90999985    2.30999994
   11.12833309  390.96099854    4.90999985    2.30999994
   11.12972260  373.08898926    4.90999985    2.30999994
   11.13111115  402.81298828    4.90999985    2.30999994
   11.13249969  382.78900146    4.90999985    2.30999994
   11.13388920  390.79598999    4.90999985    2.30999994
   11.13527775  383.89001465    4.90999985    2.30999994
   11.13666630  359.26501465    4.90999985    2.30999994
   11.13805580  390.51098633    4.90999985    2.30999994
   11.13944435  372.69699097    4.90999985    2.32999992
   11.14083290  394.09298706    4.90999985    2.32999992
   11.14222240  388.69900513    4.90999985    2.32999992
   11.14361095  378.78698730    4.90999985    2.32999992
   11.14499950  363.76501465    4.90999985    2.32999992
   11.14638901  366.48300171    4.90999985    2.32999992
   11.14777756  356.76400757    4.90999985    2.32999992
   11.14916611  357.15200806    4.90999985    2.32999992
   11.15055561  355.18301392    4.90999985    2.32999992
   11.15194416  379.73999023    4.90999985    2.32999992
   11.15333271  354.18701172    4.90999985    2.32999992
   11.15472221  362.76199341    4.90999985    2.32999992
   11.15611076  373.26199341    4.90999985    2.32999992
   11.15749931  382.15200806    4.90999985    2.32999992
   11.15888882  384.12799072    4.90999985    2.32999992
   11.16027737  350.59600830    4.90999985    2.34999990
   11.16166592  364.97299194    4.90999985    2.34999990
   11.16305542  370.49301147    4.90999985    2.32999992
   11.16444397  346.71398926    4.90999985    2.32999992
   11.16472149  423.86099243    4.90999985    2.17000008
   11.16527748  363.98699951    4.90999985    2.34999990
   11.16833401  377.71798706    4.90999985    2.32999992
   11.17166710  364.92001343    4.90999985    2.34999990
   11.17500019  331.56900024    4.90999985    2.34999990
   11.17805576  372.47299194    4.90999985    2.34999990
   11.18138885  331.94000244    4.90999985    2.34999990
   11.18555546  331.94000244    4.90999985    2.36999989
   11.18972206  346.15701294    4.90999985    2.34999990
   11.19277763  356.32699585    4.90999985    2.34999990
   11.19611073  341.58999634    4.90999985    2.36999989
   11.19833374  330.42898560    4.90999985    2.36999989
   11.19972229  356.88299561    4.90999985    2.36999989
   11.20305538  298.47698975    4.90999985    2.36999989
   11.20611095  336.13198853    4.90999985    2.36999989
   11.20944405  348.66299438    4.90999985    2.36999989
   11.21277714  313.51098633    4.90999985    2.36999989
   11.21583271  341.66198730    4.90999985    2.36999989
   11.21916580  335.85400391    4.90999985    2.39000010
   11.22222137  344.93200684    4.90999985    2.39000010
   11.22833252  344.93200684    4.90999985    2.39000010
   11.23249912  323.31100464    4.90999985    2.39000010
   11.23583317  316.51400757    4.90999985    2.39000010
   11.23888874  308.78201294    4.90999985    2.39000010
   11.24222279  288.43600464    4.90999985    2.39000010
   11.24527836  322.64001465    4.90999985    2.40000010
   11.24861145  302.48098755    4.90999985    2.40000010
   11.25194454  292.60800171    4.90999985    2.40000010
   11.25500011  316.80499268    4.90999985    2.40000010
   11.25833321  322.64099121    4.90999985    2.40000010
   11.26166630  298.90301514    4.90999985    2.40000010
   11.26472187  309.17098999    4.90999985    2.40000010
   11.26527786  322.05099487    4.90999985    2.40000010
   11.27111053  322.05099487    4.90999985    2.40000010
   11.27527714  303.52600098    4.90999985    2.40000010
   11.27861118  325.28399658    4.90999985    2.40000010
   11.28166676  299.15899658    4.90999985    2.42000008
   11.28500080  316.28298950    4.90999985    2.42000008
   11.28833389  328.16799927    4.90999985    2.42000008
   11.29138947  297.18200684    4.90999985    2.42000008
   11.29472256  324.53298950    4.90999985    2.42000008
   11.29805565  297.79400635    4.90999985    2.42000008
   11.29861164  336.76300049    4.90999985    2.42000008
   11.30166721  284.52099609    4.90999985    2.42000008
   11.30500031  331.47698975    4.90999985    2.42000008
   11.30805588  294.36300659    4.90999985    2.42000008
   11.31416702  294.36300659    4.90999985    2.44000006
   11.31805515  326.55999756    4.90999985    2.44000006
   11.32138920  310.46499634    4.90999985    2.44000006
   11.32472229  300.24200439    4.90999985    2.44000006
   11.32777786  308.83898926    4.90999985    2.44000006
   11.33111095  331.78698730    4.90999985    2.46000004
   11.33194447  314.86999512    4.90999985    2.46000004
   11.33472157  302.54901123    4.90999985    2.46000004
   11.33805561  331.04901123    4.90999985    2.46000004
   11.34111118  320.29998779    4.90999985    2.44000006
   11.34444427  330.58499146    4.90999985    2.46000004
   11.34749985  327.63900757    4.90999985    2.46000004
   11.35083389  347.11801147    4.90999985    2.46000004
   11.35694504  347.11801147    4.90999985    2.46000004
   11.36111164  329.51000977    4.90999985    2.46000004
   11.36416721  332.45199585    4.90999985    2.46000004
   11.36527824  339.77700806    4.90999985    2.46000004
   11.36777782  330.43399048    4.90999985    2.46000004
   11.37111092  298.88800049    4.90999985    2.46000004
   11.37416649  303.13500977    4.90999985    2.46000004
   11.37750053  310.17498779    4.90999985    2.46000004
   11.38055611  314.75698853    4.90999985    2.48000002
   11.38388920  287.91799927    4.90999985    2.48000002
   11.38722229  328.33999634    4.90999985    2.48000002
   11.39027786  336.78100586    4.90999985    2.48000002
   11.39361095  294.16900635    4.90999985    2.48000002
   11.39972210  294.16900635    4.90999985    2.48000002
   11.40388870  298.18399048    4.90999985    2.48000002
   11.40722179  306.82998657    4.90999985    2.48000002
   11.41027737  297.40798950    4.90999985    2.48000002
   11.41361046  302.81900024    4.90999985    2.48000002
   11.41694450  274.46701050    4.90999985    2.50000000
   11.42000008  292.14099121    4.90999985    2.50000000
   11.42333412  308.93499756    4.90999985    2.50000000
   11.42666721  284.46099854    4.90999985    2.50000000
   11.42972279  315.35000610    4.90999985    2.50000000
   11.43194485  291.34298706    4.90999985    2.50000000
   11.43333340  310.48098755    4.90999985    2.50000000
   11.43666649  293.91900635    4.90999985    2.50000000
   11.44250011  293.91900635    4.90999985    2.50000000
   11.44666672  327.99899292    4.90999985    2.51999998
   11.44999981  321.49700928    4.90999985    2.51999998
   11.45333290  320.14498901    4.90999985    2.51999998
   11.45638847  311.28298950    4.90999985    2.50000000
   11.45972157  301.07598877    4.90999985    2.51999998
   11.46277714  307.01501465    4.90999985    2.51999998
   11.46527767  393.87899780    4.90999985    2.51999998
   11.46666622  391.58300781    4.90999985    2.51999998
   11.46999931  349.98300171    4.90999985    2.50000000
   11.47305489  348.00299072    4.90999985    2.51999998
   11.47638798  355.84899902    4.90999985    2.51999998
   11.47944355  353.50201416    4.90999985    2.51999998
   11.48555565  353.50201416    4.90999985    2.53999996
   11.48944473  357.41500854    4.90999985    2.51999998
   11.49277782  344.41400146    4.90999985    2.51999998
   11.49611092  342.53799438    4.90999985    2.53999996
   11.49861145  321.98498535    4.90999985    2.53999996
   11.49972248  313.69198608    4.90999985    2.51999998
   11.50305557  332.50601196    4.90999985    2.53999996
   11.50611115  324.04699707    4.90999985    2.51999998
   11.50944424  317.83599854    4.90999985    2.53999996
   11.51249981  323.04699707    4.90999985    2.53999996
   11.51583290  312.09399414    4.90999985    2.53999996
   11.51916599  296.82998657    4.90999985    2.53999996
   11.52222157  299.12298584    4.90999985    2.53999996
   11.52833271  299.12298584    4.90999985    2.53999996
   11.53249931  311.51901245    4.90999985    2.53999996
   11.53555584  317.01098633    4.90999985    2.53999996
   11.53888893  310.25500488    4.90999985    2.53999996
   11.54222298  306.00900269    4.90999985    2.53999996
   11.54527855  343.76901245    4.90999985    2.53999996
   11.54861164  317.16400146    4.90999985    2.53999996
   11.55166721  341.41500854    4.90999985    2.53999996
   11.55500031  366.42599487    4.90999985    2.55999994
   11.55833340  352.23001099    4.90999985    2.55999994
   11.56138897  333.16400146    4.90999985    2.55999994
   11.56472206  410.93899536    4.90999985    2.55999994
   11.56666660  362.96600342    4.90999985    2.55999994
   11.56805515  456.67599487    4.90999985    2.55999994
   11.56944466  387.38699341    4.90999985    2.55999994
   11.57083321  378.70498657    4.90999985    2.55999994
   11.57222176  394.20498657    4.90999985    2.55999994
   11.57361126  410.82901001    4.90999985    2.55999994
   11.57499981  398.76800537    4.90999985    2.55999994
   11.57638836  414.80300903    4.90999985    2.55999994
   11.57777786  360.30099487    4.90999985    2.55999994
   11.57916641  403.94400024    4.90999985    2.55999994
   11.58055592  366.83801270    4.90999985    2.55999994
   11.58194447  404.99499512    4.90999985    2.55999994
   11.58333302  401.43200684    4.90999985    2.55999994
   11.58472157  423.70599365    4.90999985    2.55999994
   11.58611107  372.76599121    4.90999985    2.57999992
   11.58749962  395.07800293    4.90999985    2.55999994
   11.58888817  448.52099609    4.90999985    2.57999992
   11.59027767  466.37899780    4.90999985    2.57999992
   11.59166622  365.62200928    4.90999985    2.57999992
   11.59305477  368.22799683    4.90999985    2.57999992
   11.59444427  408.98400879    4.90999985    2.57999992
   11.59583282  367.59298706    4.90999985    2.57999992
   11.59722233  407.18301392    4.90999985    2.57999992
   11.59861088  416.32400513    4.90999985    2.57999992
   11.60000038  435.24398804    4.90999985    2.57999992
   11.60138893  373.88598633    4.90999985    2.57999992
   11.60277843  413.69601440    4.90999985    2.57999992
   11.60416698  517.44000244    4.90999985    2.57999992
   11.60555553  478.72100830    4.90999985    2.57999992
   11.60694504  436.86599731    4.90999985    2.57999992
   11.60833359  493.28601074    4.90999985    2.57999992
   11.60972214  463.06698608    4.90999985    2.57999992
   11.61111164  466.66299438    4.90999985    2.57999992
   11.61250019  514.81597900    4.90999985    2.57999992
   11.61388969  413.60400391    4.90999985    2.57999992
   11.61527824  578.76300049    4.90999985    2.57999992
   11.61666679  542.60601807    4.90999985    2.57999992
   11.61805534  514.86602783    4.90999985    2.57999992
   11.61944485  520.58001709    4.90999985    2.57999992
   11.62083340  565.60498047    4.90999985    2.57999992
   11.62222195  526.85900879    4.90999985    2.57999992
   11.62361145  550.21600342    4.90999985    2.57999992
   11.62500000  484.93798828    4.90999985    2.59999990
   11.62638855  472.68200684    4.90999985    2.57999992
   11.62777805  521.82202148    4.90999985    2.59999990
   11.62916660  539.78002930    4.90999985    2.59999990
   11.63055611  531.11602783    4.90999985    2.59999990
   11.63194466  475.03100586    4.90999985    2.59999990
   11.63333321  520.11901855    4.90999985    2.57999992
   11.63472176  465.31600952    4.90999985    2.59999990
   11.63611126  534.08197021    4.90999985    2.57999992
   11.63749981  489.79199219    4.90999985    2.57999992
   11.63888836  572.44201660    4.90999985    2.59999990
   11.64027786  504.60198975    4.90999985    2.59999990
   11.64166641  480.89599609    4.90999985    2.59999990
   11.64305496  513.21398926    4.90999985    2.59999990
   11.64444447  545.53198242    4.90999985    2.57999992
   11.64583302  496.78201294    4.90999985    2.57999992
   11.64722252  529.67999268    4.90999985    2.59999990
   11.64861107  498.00799561    4.90999985    2.59999990
   11.64999962  470.16101074    4.90999985    2.59999990
   11.65138817  513.47802734    4.90999985    2.59999990
   11.65277767  503.13800049    4.90999985    2.59999990
   11.65416622  470.15600586    4.90999985    2.59999990
   11.65555477  531.71502686    4.90999985    2.59999990
   11.65694427  498.47698975    4.90999985    2.59999990
   11.65833282  511.82501221    4.90999985    2.59999990
   11.65972137  461.77899170    4.90999985    2.59999990
   11.66111088  476.39401245    4.90999985    2.59999990
   11.66249943  453.18600464    4.90999985    2.59999990
   11.66388893  475.32998657    4.90999985    2.59999990
   11.66527748  451.04998779    4.90999985    2.59999990
   11.66666698  409.91598511    4.90999985    2.59999990
   11.66805553  504.27600098    4.90999985    2.59999990
   11.66944504  499.53698730    4.90999985    2.59999990
   11.67083359  525.58801270    4.90999985    2.59999990
   11.67222214  483.91500854    4.90999985    2.59999990
   11.67361164  473.72100830    4.90999985    2.59999990
   11.67500019  492.37100220    4.90999985    2.59999990
   11.67638874  429.88000488    4.90999985    2.59999990
   11.67777824  446.25698853    4.90999985    2.59999990
   11.67916679  534.16302490    4.90999985    2.59999990
   11.68055630  474.58200073    4.90999985    2.59999990
   11.68194485  431.53500366    4.90999985    2.59999990
   11.68333340  436.28100586    4.90999985    2.59999990
   11.68472195  487.91198730    4.90999985    2.59999990
   11.68611145  444.76800537    4.90999985    2.61999989
   11.68750000  415.46099854    4.90999985    2.59999990
   11.68888855  485.37200928    4.90999985    2.59999990
   11.69027805  457.90200806    4.90999985    2.61999989
   11.69166660  426.33801270    4.90999985    2.61999989
   11.69305515  462.50698853    4.90999985    2.61999989
   11.69444466  475.99600220    4.90999985    2.59999990
   11.69583321  496.90399170    4.90999985    2.61999989
   11.69722271  478.20401001    4.90999985    2.61999989
   11.69861126  462.32699585    4.90999985    2.61999989
   11.69999981  474.95498657    4.90999985    2.61999989
   11.70138836  449.57800293    4.90999985    2.61999989
   11.70277786  493.79000854    4.90999985    2.61999989
   11.70416641  446.71499634    4.90999985    2.61999989
   11.70555496  430.19198608    4.90999985    2.61999989
   11.70694447  468.89199829    4.90999985    2.61999989
   11.70833302  443.86401367    4.90999985    2.61999989
   11.70972157  475.71301270    4.90999985    2.61999989
   11.71111107  484.02999878    4.90999985    2.61999989
   11.71249962  445.81600952    4.90999985    2.61999989
   11.71388912  479.68701172    4.90999985    2.61999989
   11.71527767  460.57199097    4.90999985    2.61999989
   11.71666622  478.16101074    4.90999985    2.61999989
   11.71805477  476.51800537    4.90999985    2.61999989
   11.71944427  432.52700806    4.90999985    2.61999989
   11.72083282  520.60998535    4.90999985    2.61999989
   11.72222137  501.42999268    4.90999985    2.61999989
   11.72361088  495.19601440    4.90999985    2.61999989
   11.72499943  464.94601440    4.90999985    2.61999989
   11.72638798  467.88598633    4.90999985    2.61999989
   11.72777748  424.05700684    4.90999985    2.61999989
   11.72916603  445.67800903    4.90999985    2.64000010
   11.73055553  435.02398682    4.90999985    2.64000010
   11.73194408  411.36801147    4.90999985    2.64000010
   11.73333359  444.26400757    4.90999985    2.61999989
   11.73472214  426.19100952    4.90999985    2.64000010
   11.73611164  411.74301147    4.90999985    2.64000010
   11.73750019  416.23300171    4.90999985    2.64000010
   11.73888874  459.14599609    4.90999985    2.64000010
   11.74027824  405.57400513    4.90999985    2.64000010
   11.74166679  434.71701050    4.90999985    2.64000010
   11.74305534  443.92098999    4.90999985    2.61999989
   11.74444485  434.27301025    4.90999985    2.61999989
   11.74583340  416.94400024    4.90999985    2.64000010
   11.74722290  428.12600708    4.90999985    2.64000010
   11.74861145  423.80200195    4.90999985    2.61999989
   11.75000000  418.65399170    4.90999985    2.64000010
   11.75138855  404.45199585    4.90999985    2.64000010
   11.75277805  455.24600220    4.90999985    2.61999989
   11.75416660  449.81900024    4.90999985    2.64000010
   11.75555515  403.48498535    4.90999985    2.64000010
   11.75694466  424.51998901    4.90999985    2.64000010
   11.75833321  423.66799927    4.90999985    2.64000010
   11.75972176  421.33801270    4.90999985    2.64000010
   11.76111126  400.06298828    4.90999985    2.64000010
   11.76249981  449.91500854    4.90999985    2.64000010
   11.76388931  447.01599121    4.90999985    2.64000010
   11.76527786  415.85299683    4.90999985    2.64000010
   11.76666641  411.12701416    4.90999985    2.66000009
   11.76805496  416.76599121    4.90999985    2.64000010
   11.76944447  494.91500854    4.90999985    2.64000010
   11.77083302  415.43200684    4.90999985    2.64000010
   11.77222157  406.02200317    4.90999985    2.64000010
   11.77361107  408.69601440    4.90999985    2.64000010
   11.77499962  476.29699707    4.90999985    2.64000010
   11.77638817  387.44799805    4.90999985    2.64000010
   11.77777767  409.06500244    4.90999985    2.64000010
   11.77916622  386.24301147    4.90999985    2.64000010
   11.78055573  381.03399658    4.90999985    2.64000010
   11.78194427  442.94400024    4.90999985    2.64000010
   11.78333378  448.19400024    4.90999985    2.66000009
   11.78472233  404.06698608    4.90999985    2.64000010
   11.78611183  408.67599487    4.90999985    2.66000009
   11.78750038  396.92800903    4.90999985    2.64000010
   11.78888893  436.40899658    4.90999985    2.64000010
   11.79027843  388.16900635    4.90999985    2.66000009
   11.79166698  431.63400269    4.90999985    2.64000010
   11.79305553  416.93301392    4.90999985    2.64000010
   11.79444504  361.17199707    4.90999985    2.66000009
   11.79583359  403.73699951    4.90999985    2.66000009
   11.79722309  394.52801514    4.90999985    2.64000010
   11.79861164  417.28298950    4.90999985    2.66000009
   11.80000019  403.97500610    4.90999985    2.66000009
   11.80138874  361.23098755    4.90999985    2.66000009
   11.80277824  386.21499634    4.90999985    2.66000009
   11.80416679  376.92001343    4.90999985    2.66000009
   11.80555534  422.77398682    4.90999985    2.66000009
   11.80694485  396.54299927    4.90999985    2.66000009
   11.80833340  417.33999634    4.90999985    2.66000009
   11.80972195  431.34500122    4.90999985    2.66000009
   11.81111145  408.82800293    4.90999985    2.66000009
   11.81250000  434.71600342    4.90999985    2.66000009
   11.81388950  393.70098877    4.90999985    2.66000009
   11.81527805  448.26199341    4.90999985    2.66000009
   11.81666660  429.49200439    4.90999985    2.66000009
   11.81805515  401.63198853    4.90999985    2.66000009
   11.81944466  374.34100342    4.90999985    2.66000009
   11.82083321  370.57501221    4.90999985    2.66000009
   11.82222176  415.86700439    4.90999985    2.66000009
   11.82361126  376.14001465    4.90999985    2.66000009
   11.82499981  393.63400269    4.90999985    2.66000009
   11.82638836  367.96600342    4.90999985    2.66000009
   11.82777786  446.80999756    4.90999985    2.66000009
   11.82916641  378.52700806    4.90999985    2.66000009
   11.83055592  364.68899536    4.90999985    2.66000009
   11.83194447  405.35299683    4.90999985    2.67000008
   11.83333302  389.17498779    4.90999985    2.67000008
   11.83472157  369.86499023    4.90999985    2.67000008
   11.83611107  362.96899414    4.90999985    2.66000009
   11.83749962  398.85699463    4.90999985    2.67000008
   11.83888817  388.90301514    4.90999985    2.66000009
   11.84027767  381.30599976    4.90999985    2.66000009
   11.84166622  409.49301147    4.90999985    2.67000008
   11.84305477  370.04299927    4.90999985    2.66000009
   11.84444427  400.63400269    4.90999985    2.66000009
   11.84583282  398.85501099    4.90999985    2.66000009
   11.84722233  369.98400879    4.90999985    2.66000009
   11.84861088  352.27999878    4.90999985    2.66000009
   11.85000038  338.55599976    4.90999985    2.67000008
   11.85000038  317.16400146    4.90999985    2.53999996
   11.85027790  341.41500854    4.90999985    2.53999996
   11.85027790  366.42599487    4.90999985    2.55999994
   11.85027790  352.23001099    4.90999985    2.55999994
   11.85055637  333.16400146    4.90999985    2.55999994
   11.85055637  410.93899536    4.90999985    2.55999994
   11.85055637  310.25500488    4.90999985    2.53999996
   11.85083389  306.00900269    4.90999985    2.53999996
   11.85083389  343.76901245    4.90999985    2.53999996
   11.85138893  376.26400757    4.90999985    2.66000009
   11.85472298  380.24499512    4.90999985    2.67000008
   11.85777855  395.23800659    4.90999985    2.66000009
   11.86111164  372.43099976    4.90999985    2.67000008
   11.86444473  355.59298706    4.90999985    2.67000008
   11.87083340  355.59298706    4.90999985    2.67000008
   11.87500000  400.83999634    4.90999985    2.67000008
   11.87694454  346.74899292    4.90999985    2.67000008
   11.87694454  376.26400757    4.90999985    2.66000009
   11.87722206  380.24499512    4.90999985    2.67000008
   11.87722206  395.23800659    4.90999985    2.66000009
   11.87722206  372.43099976    4.90999985    2.67000008
   11.87750053  355.59298706    4.90999985    2.67000008
   11.87750053  400.83999634    4.90999985    2.67000008
   11.87944412  335.78298950    4.90999985    2.67000008
   11.88277817  383.57199097    4.90999985    2.67000008
   11.88583279  361.51901245    4.90999985    2.67000008
   11.88916683  355.13699341    4.90999985    2.67000008
   11.89249992  370.98800659    4.90999985    2.67000008
   11.89777756  370.98800659    4.90999985    2.69000006
   11.90194416  356.51599121    4.90999985    2.67000008
   11.90499973  348.98999023    4.90999985    2.67000008
   11.90833282  332.20599365    4.90999985    2.67000008
   11.91083336  384.45999146    4.90999985    2.69000006
   11.91222191  326.13598633    4.90999985    2.69000006
   11.91527748  308.43600464    4.90999985    2.69000006
   11.91861153  340.40200806    4.90999985    2.69000006
   11.92194462  376.34399414    4.90999985    2.69000006
   11.92500019  377.07501221    4.90999985    2.69000006
   11.92833328  318.75000000    4.90999985    2.69000006
   11.93138885  326.54998779    4.90999985    2.69000006
   11.93472195  315.72500610    4.90999985    2.69000006
   11.94055557  315.72500610    4.90999985    2.69000006
   11.94472218  334.98699951    4.90999985    2.69000006
   11.94805527  326.74798584    4.90999985    2.69000006
   11.95111084  312.91500854    4.90999985    2.69000006
   11.95444393  336.76901245    4.90999985    2.69000006
   11.95749950  340.00601196    4.90999985    2.71000004
   11.96083355  308.56399536    4.90999985    2.69000006
   11.96416664  336.49700928    4.90999985    2.69000006
   11.96722221  350.45401001    4.90999985    2.69000006
   11.97055531  302.40701294    4.90999985    2.71000004
   11.98861122  296.46600342    4.90999985    2.71000004
   11.99277782  296.46600342    4.90999985    2.71000004
   11.99694443  315.90798950    4.90999985    2.71000004
   12.00000000  312.76901245    4.90999985    2.71000004
   12.00333309  320.30398560    4.90999985    2.71000004
   12.00638866  317.83700562    4.90999985    2.71000004
   12.00972176  292.36499023    4.90999985    2.73000002
   12.01305580  307.85000610    4.90999985    2.71000004
   12.01611137  310.29901123    4.90999985    2.73000002
   12.01944447  304.66799927    4.90999985    2.71000004
   12.02166653  289.61999512    4.90999985    2.71000004
   12.02305508  292.63800049    4.90999985    2.73000002
   12.02638817  296.01901245    4.90999985    2.71000004
   12.02944374  303.41699219    4.90999985    2.71000004
   12.03555584  303.41699219    4.90999985    2.73000002
   12.03972244  281.65899658    4.90999985    2.71000004
   12.04277802  272.09100342    4.90999985    2.73000002
   12.04611111  276.52999878    4.90999985    2.73000002
   12.04944515  285.47399902    4.90999985    2.73000002
   12.05249977  274.59600830    4.90999985    2.73000002
   12.05500031  283.10699463    4.90999985    2.73000002
   12.05611134  265.02200317    4.90999985    2.73000002
   12.05944443  295.42898560    4.90999985    2.73000002
   12.06250000  305.87701416    4.90999985    2.73000002
   12.06583309  303.33300781    4.90999985    2.73000002
   12.06916618  288.71600342    4.90999985    2.73000002
   12.07222176  290.34899902    4.90999985    2.73000002
   12.07833290  290.34899902    4.90999985    2.73000002
   12.08249950  278.43099976    4.90999985    2.75000000
   12.08583260  261.73999023    4.90999985    2.73000002
   12.08833313  250.98300171    4.90999985    2.73000002
   12.08944416  289.20800781    4.90999985    2.75000000
   12.09277725  267.93499756    4.90999985    2.75000000
   12.09583282  276.38299561    4.90999985    2.75000000
   12.09916592  278.03698730    4.90999985    2.75000000
   12.10249996  272.48098755    4.90999985    2.73000002
   12.10555553  259.88800049    4.90999985    2.73000002
   12.10888958  278.24600220    4.90999985    2.75000000
   12.11194515  264.43798828    4.90999985    2.75000000
   12.11527824  249.24800110    4.90999985    2.75000000
   12.12111092  249.24800110    4.90999985    2.75000000
   12.12527752  243.32499695    4.90999985    2.75000000
   12.12861156  254.47500610    4.90999985    2.75000000
   12.13194466  235.56500244    4.90999985    2.75000000
   12.13500023  232.36500549    4.90999985    2.75000000
   12.13833332  259.12100220    4.90999985    2.75000000
   12.14138889  226.74899292    4.90999985    2.75000000
   12.14472198  198.07699585    4.90999985    2.75000000
   12.14805508  236.00900269    4.90999985    2.75000000
   12.15111065  220.41600037    4.90999985    2.75000000
   12.15444374  216.45500183    4.90999985    2.75000000
   12.15638828  237.58799744    4.90999985    2.75000000
   12.15805531  232.92700195    4.90999985    2.75000000
   12.16416645  232.92700195    4.90999985    2.76999998
   12.16833401  217.99699402    4.90999985    2.75000000
   12.17138958  215.68200684    4.90999985    2.75000000
   12.17472267  252.14599609    4.90999985    2.76999998
   12.17777824  201.63000488    4.90999985    2.76999998
   12.18111134  222.99200439    4.90999985    2.76999998
   12.18444443  221.55700684    4.90999985    2.75000000
   12.18750000  216.89900208    4.90999985    2.76999998
   12.18972206  196.33500671    4.90999985    2.76999998
   12.19111156  224.28199768    4.90999985    2.75000000
   12.19444466  216.76100159    4.90999985    2.76999998
   12.19777775  205.80599976    4.90999985    2.76999998
   12.20083332  222.13200378    4.90999985    2.76999998
   12.20694447  222.13200378    4.90999985    2.78999996
   12.21111107  220.22399902    4.90999985    2.76999998
   12.21416664  216.67300415    4.90999985    2.76999998
   12.21749973  216.36199951    4.90999985    2.76999998
   12.22083282  192.42199707    4.90999985    2.76999998
   12.22305489  214.04699707    4.90999985    2.76999998
   12.22444439  214.66499329    4.90999985    2.76999998
   12.22777748  193.91600037    4.90999985    2.76999998
   12.23083305  185.43099976    4.90999985    2.78999996
   12.23416710  184.57000732    4.90999985    2.76999998
   12.23722267  205.39199829    4.90999985    2.76999998
   12.24055576  191.57400513    4.90999985    2.78999996
   12.24388885  206.09899902    4.90999985    2.76999998
   12.24972248  206.09899902    4.90999985    2.78999996
   12.25388908  178.53199768    4.90999985    2.78999996
   12.25638866  189.10200500    4.90999985    2.78999996
   12.25749969  191.32899475    4.90999985    2.76999998
   12.26083374  198.25599670    4.90999985    2.78999996
   12.26388931  187.41299438    4.90999985    2.76999998
   12.26722240  204.96000671    4.90999985    2.78999996
   12.27027798  194.01899719    4.90999985    2.78999996
   12.27361107  189.94599915    4.90999985    2.76999998
   12.27694416  185.08900452    4.90999985    2.78999996
   12.27999973  182.51899719    4.90999985    2.78999996
   12.28333378  176.37600708    4.90999985    2.78999996
   12.28666687  176.66299438    4.90999985    2.78999996
   12.29250050  176.66299438    4.90999985    2.78999996
   12.29666710  187.46899414    4.90999985    2.78999996
   12.30000019  175.13400269    4.90999985    2.78999996
   12.30333328  188.30999756    4.90999985    2.78999996
   12.30638885  178.81900024    4.90999985    2.80999994
   12.30972195  184.85400391    4.90999985    2.78999996
   12.31305599  176.49099731    4.90999985    2.78999996
   12.31611156  189.61399841    4.90999985    2.78999996
   12.31944466  185.41299438    4.90999985    2.82999992
   12.32277775  193.67500305    4.90999985    2.78999996
   12.32361126  184.58299255    4.90999985    2.78999996
   12.32611084  180.14799500    4.90999985    2.80999994
   12.32944393  194.08999634    4.90999985    2.80999994
   12.33555508  194.08999634    4.90999985    2.80999994
   12.33972168  183.14599609    4.90999985    2.80999994
   12.34277725  189.20799255    4.90999985    2.80999994
   12.34611034  169.89399719    4.90999985    2.80999994
   12.34916592  179.74800110    4.90999985    2.80999994
   12.35249996  179.23300171    4.90999985    2.80999994
   12.35583401  166.96099854    4.90999985    2.78999996
   12.35694504  171.64799500    4.90999985    2.78999996
   12.35916710  173.90100098    4.90999985    2.80999994
   12.36250019  167.15499878    4.90999985    2.80999994
   12.36583328  169.55400085    4.90999985    2.80999994
   12.36888885  185.26600647    4.90999985    2.80999994
   12.37222195  173.74299622    4.90999985    2.80999994
   12.37833309  173.74299622    4.90999985    2.80999994
   12.38249969  184.59399414    4.90999985    2.80999994
   12.38555527  176.88499451    4.90999985    2.82999992
   12.38888836  174.74600220    4.90999985    2.80999994
   12.39027786  172.08299255    4.90999985    2.80999994
   12.39249992  182.60400391    4.90999985    2.82999992
   12.39583302  170.34800720    4.90999985    2.80999994
   12.39888859  168.21099854    4.90999985    2.80999994
   12.40222168  187.39700317    4.90999985    2.80999994
   12.40555477  171.85299683    4.90999985    2.80999994
   12.40861034  173.05999756    4.90999985    2.80999994
   12.41194439  176.51899719    4.90999985    2.82999992
   12.41527748  162.24400330    4.90999985    2.80999994
   12.42111111  162.24400330    4.90999985    2.82999992
   12.42527771  170.66000366    4.90999985    2.80999994
   12.42861176  168.26499939    4.90999985    2.82999992
   12.43166733  176.25500488    4.90999985    2.82999992
   12.43500042  169.63900757    4.90999985    2.80999994
   12.43833351  171.03199768    4.90999985    2.82999992
   12.44138908  167.58900452    4.90999985    2.80999994
   12.44472218  165.14900208    4.90999985    2.80999994
   12.44777775  164.27799988    4.90999985    2.82999992
   12.45111084  164.70599365    4.90999985    2.82999992
   12.45444393  170.20899963    4.90999985    2.82999992
   12.45694447  165.13200378    4.90999985    2.82999992
   12.45805550  163.18200684    4.90999985    2.80999994
   12.46388912  163.18200684    4.90999985    2.82999992
   12.46805477  159.07899475    4.90999985    2.82999992
   12.47138882  178.05099487    4.90999985    2.82999992
   12.47444439  178.49499512    4.90999985    2.82999992
   12.47777748  156.36000061    4.90999985    2.82999992
   12.48111057  167.60699463    4.90999985    2.86999989
   12.48416710  172.48399353    4.90999985    2.84999990
   12.48750019  163.80299377    4.90999985    2.82999992
   12.49027824  163.63600159    4.90999985    2.84999990
   12.49111176  165.66400146    4.90999985    2.82999992
   12.49444485  167.65199280    4.90999985    2.84999990
   12.49750042  167.59199524    4.90999985    2.82999992
   12.50083351  167.45799255    4.90999985    2.82999992
   12.50694466  167.45799255    4.90999985    2.82999992
   12.51083374  164.00500488    4.90999985    2.84999990
   12.51416683  162.01400757    4.90999985    2.82999992
   12.51749992  166.53500366    4.90999985    2.84999990
   12.52055550  172.34199524    4.90999985    2.84999990
   12.52361107  158.71899414    4.90999985    2.84999990
   12.52416611  165.24000549    4.90999985    2.84999990
   12.52750015  156.62199402    4.90999985    2.84999990
   12.53055573  170.93200684    4.90999985    2.82999992
   12.53388977  165.41700745    4.90999985    2.84999990
   12.53722286  177.82899475    4.90999985    2.84999990
   12.54027843  168.08799744    4.90999985    2.84999990
   12.54361153  177.61099243    4.90999985    2.84999990
   12.54972267  177.61099243    4.90999985    2.82999992
   12.55388927  176.53399658    4.90999985    2.84999990
   12.55694485  170.36000061    4.90999985    2.84999990
   12.55749989  169.47099304    4.90999985    2.84999990
   12.56083393  176.83200073    4.90999985    2.84999990
   12.56388950  169.80099487    4.90999985    2.84999990
   12.56722260  173.20899963    4.90999985    2.84999990
   12.57055569  174.57800293    4.90999985    2.84999990
   12.57361126  164.35800171    4.90999985    2.84999990
   12.57694435  158.06399536    4.90999985    2.84999990
   12.57999992  183.58399963    4.90999985    2.84999990
   12.58333302  163.57499695    4.90999985    2.86999989
   12.58666611  173.03399658    4.90999985    2.84999990
   12.59249973  173.03399658    4.90999985    2.84999990
   12.59666634  166.52999878    4.90999985    2.86999989
   12.60000038  170.96699524    4.90999985    2.84999990
   12.60305595  173.07499695    4.90999985    2.84999990
   12.60638905  165.57899475    4.90999985    2.86999989
   12.60944462  166.95100403    4.90999985    2.86999989
   12.61277771  159.77200317    4.90999985    2.84999990
   12.61611176  176.46200562    4.90999985    2.86999989
   12.61916637  173.11799622    4.90999985    2.84999990
   12.62250042  147.32099915    4.90999985    2.84999990
   12.62388897  150.53599548    4.90999985    2.86999989
   12.62611103  163.63400269    4.90999985    2.84999990
   12.62944412  171.04100037    4.90999985    2.86999989
   12.63527775  171.04100037    4.90999985    2.86999989
   12.63944435  183.35400391    4.90999985    2.86999989
   12.64277744  172.24099731    4.90999985    2.86999989
   12.64611053  160.11900330    4.90999985    2.86999989
   12.64916611  166.43699646    4.90999985    2.84999990
   12.65249920  172.16999817    4.90999985    2.86999989
   12.65555477  169.99299622    4.90999985    2.86999989
   12.65722179  166.16200256    4.90999985    2.86999989
   12.65916634  171.80700684    4.90999985    2.84999990
   12.66249943  161.59500122    4.90999985    2.86999989
   12.66555500  171.01300049    4.90999985    2.86999989
   12.66888905  176.79499817    4.90999985    2.86999989
   12.67222214  169.29400635    4.90999985    2.86999989
   12.67833328  169.29400635    4.90999985    2.86999989
   12.68222237  181.43899536    4.90999985    2.86999989
   12.68555546  180.11500549    4.90999985    2.86999989
   12.68888855  174.47000122    4.90999985    2.86999989
   12.69055557  166.48699951    4.90999985    2.86999989
   12.69250011  172.22300720    4.90999985    2.86999989
   12.69583321  167.36199951    4.90999985    2.86999989
   12.69888878  171.89300537    4.90999985    2.86999989
   12.70222187  179.82099915    4.90999985    2.86999989
   12.70527744  167.23800659    4.90999985    2.86999989
   12.70861053  174.43699646    4.90999985    2.86999989
   12.71194458  170.17799377    4.90999985    2.86999989
   12.71500015  181.85800171    4.90999985    2.86999989
   12.72111034  181.85800171    4.90999985    2.86999989
   12.72527695  182.34599304    4.90999985    2.86999989
   12.72833252  162.30799866    4.90999985    2.89000010
   12.73166656  171.62100220    4.90999985    2.89000010
   12.73500061  174.26600647    4.90999985    2.89000010
   12.73805618  164.29499817    4.90999985    2.86999989
   12.74138927  160.39199829    4.90999985    2.86999989
   12.74444485  175.54600525    4.90999985    2.89000010
   12.74777794  181.62600708    4.90999985    2.89000010
   12.75111103  174.03599548    4.90999985    2.89000010
   12.75416660  178.71400452    4.90999985    2.89000010
   12.75722218  171.39599609    4.90999985    2.86999989
   12.75805569  169.41600037    4.90999985    2.86999989
   12.76388931  169.41600037    4.90999985    2.89000010
   12.76805496  173.71899414    4.90999985    2.89000010
   12.77138901  166.09599304    4.90999985    2.89000010
   12.77444458  175.12600708    4.90999985    2.89000010
   12.77777767  174.36099243    4.90999985    2.89000010
   12.78083324  168.40199280    4.90999985    2.86999989
   12.78416729  177.02999878    4.90999985    2.89000010
   12.78805637  164.12399292    4.90999985    2.89000010
   12.79055595  171.99899292    4.90999985    2.89000010
   12.79166698  179.01800537    4.90999985    2.89000010
   12.79500008  171.73800659    4.90999985    2.89000010
   12.79805565  167.61799622    4.90999985    2.89000010
   12.80138874  177.46299744    4.90999985    2.89000010
   12.80666733  177.46299744    4.90999985    2.91000009
   12.81083393   -1.00000000    4.90999985    2.89000010
   12.81416702   -1.00000000    4.90999985    2.89000010
   12.81722260   -1.00000000    4.90999985    2.89000010
   12.82055569   -1.00000000    4.90999985    2.89000010
   12.82388878   -1.00000000    4.90999985    2.89000010
   12.82750034   -1.00000000    4.90999985    2.89000010
   12.83083344   -1.00000000    4.90999985    2.91000009
   12.83388901   -1.00000000    4.90999985    2.91000009
   12.83722210  204.70500183    4.90999985    2.91000009
   12.84027767  196.04299927    4.90999985    2.91000009
   12.84361076  241.53599548    4.90999985    2.91000009
   12.84972191  241.53599548    4.90999985    2.89000010
   12.85361195  228.49800110    4.90999985    2.91000009
   12.85694504  246.26100159    4.90999985    2.89000010
   12.85777855  225.50900269    4.90999985    2.89000010
   12.86055565  221.76499939    4.90999985    2.89000010
   12.86388969  211.85499573    4.90999985    2.89000010
   12.86694431  239.07699585    4.90999985    2.91000009
   12.87027836  206.36399841    4.90999985    2.91000009
   12.87361145  232.95300293    4.90999985    2.89000010
   12.87666702  232.91799927    4.90999985    2.91000009
   12.88000011  235.82600403    4.90999985    2.91000009
   12.88333321  218.01899719    4.90999985    2.91000009
   12.88638878  230.63400269    4.90999985    2.91000009
   12.89249992  230.63400269    4.90999985    2.89000010
   12.89666653  228.21099854    4.90999985    2.89000010
   12.89972210  230.49000549    4.90999985    2.93000007
   12.90305519  237.86000061    4.90999985    2.91000009
   12.90638828  231.63699341    4.90999985    2.91000009
   12.90944386  237.08599854    4.90999985    2.91000009
   12.91277695  227.21800232    4.90999985    2.91000009
   12.91611099  230.88900757    4.90999985    2.91000009
   12.91916656  225.16700745    4.90999985    2.91000009
   12.92250061  224.06700134    4.90999985    2.91000009
   12.92444515  229.77699280    4.90999985    2.91000009
   12.92611122  231.74800110    4.90999985    2.91000009
   12.92944431  227.12500000    4.90999985    2.91000009
   12.93527794  227.12500000    4.90999985    2.91000009
   12.93944454  223.63200378    4.90999985    2.91000009
   12.94277763  220.58299255    4.90999985    2.91000009
   12.94583321  214.94000244    4.90999985    2.93000007
   12.94916630  224.45199585    4.90999985    2.91000009
   12.95222187  226.09899902    4.90999985    2.91000009
   12.95555496  224.84599304    4.90999985    2.91000009
   12.95777798  206.83399963    4.90999985    2.91000009
   12.95916653  214.12699890    4.90999985    2.91000009
   12.96249962  224.72500610    4.90999985    2.91000009
   12.96583271  215.93499756    4.90999985    2.91000009
   12.96888828  228.34399414    4.90999985    2.91000009
   12.97222137  211.97500610    4.90999985    2.91000009
   12.97805500  211.97500610    4.90999985    2.93000007
   12.98222160  217.67300415    4.90999985    2.91000009
   12.98555565  209.18299866    4.90999985    2.93000007
   12.98861122  204.46299744    4.90999985    2.91000009
   13.00583363  206.41499329    4.90999985    2.91000009
   13.00861073  203.37399292    4.90999985    2.93000007
   13.01194477  217.96600342    4.90999985    2.91000009
   13.01527786  236.70199585    4.90999985    2.91000009
   13.02111053  236.70199585    4.90999985    2.91000009
   13.02527714  198.27200317    4.90999985    2.91000009
   13.02861118  214.57099915    4.90999985    2.93000007
   13.03166676  207.89900208    4.90999985    2.93000007
   13.03500080  221.43800354    4.90999985    2.93000007
   13.03833389  208.07000732    4.90999985    2.93000007
   13.03916740  208.07000732    4.90999985    2.93000007
   13.04194450  204.71200562    4.90999985    2.93000007
   13.04527855  206.98199463    4.90999985    2.94000006
   13.04833412  203.12600708    4.90999985    2.93000007
   13.05166721  197.19799805    4.90999985    2.93000007
   13.05500031  231.75000000    4.90999985    2.94000006
   13.05805588  219.16000366    4.90999985    2.93000007
   13.06388950  219.16000366    4.90999985    2.93000007
   13.06805515  222.14300537    4.90999985    2.93000007
   13.07138920  211.03100586    4.90999985    2.93000007
   13.07250023  241.22700500    4.90999985    2.93000007
   13.07499981  220.50300598    4.90999985    2.93000007
   13.07833290  222.74899292    4.90999985    2.93000007
   13.08138847  210.31500244    4.90999985    2.93000007
   13.08472157  205.26400757    4.90999985    2.94000006
   13.08805561  196.15499878    4.90999985    2.94000006
   13.09111118  199.88800049    4.90999985    2.93000007
   13.09444427  199.23599243    4.90999985    2.93000007
   13.09777737  189.68800354    4.90999985    2.93000007
   13.10083389  197.17900085    4.90999985    2.93000007
   13.10694504  197.17900085    4.90999985    2.93000007
   13.11111164  195.39700317    4.90999985    2.93000007
   13.11416721  202.12100220    4.90999985    2.94000006
   13.11750031  196.66299438    4.90999985    2.93000007
   13.12055588  195.33000183    4.90999985    2.93000007
   13.12388897  201.64700317    4.90999985    2.93000007
   13.12722206  199.13800049    4.90999985    2.93000007
   13.13027763  211.67500305    4.90999985    2.94000006
   13.13361073  201.20100403    4.90999985    2.94000006
   13.13694477  206.84599304    4.90999985    2.93000007
   13.13916683  204.25999451    4.90999985    2.93000007
   13.14055538  205.95899963    4.90999985    2.94000006
   13.14388847  207.19599915    4.90999985    2.94000006
   13.14972210  207.19599915    4.90999985    2.93000007
   13.15388870  210.76499939    4.90999985    2.94000006
   13.15694427  222.32200623    4.90999985    2.94000006
   13.16027737  209.03399658    4.90999985    2.94000006
   13.16361046  194.93099976    4.90999985    2.94000006
   13.16666698  197.64700317    4.90999985    2.94000006
   13.17000008  204.39399719    4.90999985    2.93000007
   13.17250061  205.73899841    4.90999985    2.93000007
   13.17361164  208.02099609    4.90999985    2.94000006
   13.17694473  195.90800476    4.90999985    2.93000007
   13.18000031  222.91000366    4.90999985    2.94000006
   13.18333340  201.62100220    4.90999985    2.94000006
   13.18666649  205.55099487    4.90999985    2.94000006
   13.19250011  205.55099487    4.90999985    2.94000006
   13.19666672  210.10099792    4.90999985    2.94000006
   13.19999981  201.77699280    4.90999985    2.94000006
   13.20305538  187.23500061    4.90999985    2.93000007
   13.20583344  199.61999512    4.90999985    2.94000006
   13.20666695  200.94000244    4.90999985    2.94000006
   13.21000004  190.37600708    4.90999985    2.94000006
   13.21305561  199.10000610    4.90999985    2.94000006
   13.21638870  198.28100586    4.90999985    2.93000007
   13.21972179  200.65899658    4.90999985    2.94000006
   13.22277737  203.02900696    4.90999985    2.94000006
   13.22611046  198.71400452    4.90999985    2.94000006
   13.22944355  188.88999939    4.90999985    2.94000006
   13.23527813  188.88999939    4.90999985    2.94000006
   13.23944473  210.83399963    4.90999985    2.94000006
   13.24277782  201.38499451    4.90999985    2.94000006
   13.24611092  200.06599426    4.90999985    2.94000006
   13.24916649  193.51300049    4.90999985    2.94000006
   13.25249958  196.39999390    4.90999985    2.94000006
   13.25555515  196.77799988    4.90999985    2.94000006
   13.25888920  205.45899963    4.90999985    2.94000006
   13.26222229  188.63200378    4.90999985    2.94000006
   13.26527786  205.18400574    4.90999985    2.94000006
   13.26861095  197.78500366    4.90999985    2.94000006
   13.27194405  189.25000000    4.90999985    2.94000006
   13.27250004  200.36500549    4.90999985    2.96000004
   13.27833271  200.36500549    4.90999985    2.94000006
   13.28249931  194.27600098    4.90999985    2.94000006
   13.28555584  189.25300598    4.90999985    2.94000006
   13.28888893  187.92700195    4.90999985    2.94000006
   13.29194450  195.37399292    4.90999985    2.94000006
   13.29527855  187.08799744    4.90999985    2.96000004
   13.29861164  191.32000732    4.90999985    2.96000004
   13.30166721  194.48300171    4.90999985    2.94000006
   13.30500031  194.83299255    4.90999985    2.94000006
   13.30583382  162.48399353    4.90999985    2.94000006
   13.30861092  181.61599731    4.90999985    2.94000006
   13.31194496  196.46499634    4.90999985    2.94000006
   13.31500053  176.81900024    4.90999985    2.96000004
   13.32111073  176.81900024    4.90999985    2.94000006
   13.32527733  198.55599976    4.90999985    2.94000006
   13.32833290  191.04200745    4.90999985    2.94000006
   13.33166695  182.27099609    4.90999985    2.96000004
   13.33500004  194.42700195    4.90999985    2.96000004
   13.33805561  186.14500427    4.90999985    2.96000004
   13.33916664  191.40400696    4.90999985    2.94000006
   13.34166622  187.32400513    4.90999985    2.96000004
   13.34499931  193.16299438    4.90999985    2.94000006
   13.34833336  198.16499329    4.90999985    2.94000006
   13.35138893  185.92900085    4.90999985    2.94000006
   13.35472298  183.11099243    4.90999985    2.94000006
   13.35777855  176.92999268    4.90999985    2.96000004
   13.36388969  176.92999268    4.90999985    2.94000006
   13.36805534  196.91000366    4.90999985    2.96000004
   13.37138939  181.00199890    4.90999985    2.96000004
   13.37250042  187.59300232    4.90999985    2.96000004
   13.37472248  183.56700134    4.90999985    2.96000004
   13.37805557  195.81700134    4.90999985    2.96000004
   13.38138866  181.79800415    4.90999985    2.94000006
   13.38444424  179.35200500    4.90999985    2.96000004
   13.38777733  182.31700134    4.90999985    2.94000006
   13.39083290  173.06700134    4.90999985    2.96000004
   13.39416695  172.56199646    4.90999985    2.96000004
   13.39750004  181.94200134    4.90999985    2.94000006
   13.40055561  172.71200562    4.90999985    2.96000004
   13.40694427  172.71200562    4.90999985    2.96000004
   13.41083336  174.96600342    4.90999985    2.96000004
   13.41416645  179.97300720    4.90999985    2.96000004
   13.41750050  177.45700073    4.90999985    2.96000004
   13.42055607  175.19900513    4.90999985    2.96000004
   13.42388916  188.44400024    4.90999985    2.96000004
   13.42722225  173.38999939    4.90999985    2.96000004
   13.43027782  170.96400452    4.90999985    2.98000002
   13.43361092  171.10099792    4.90999985    2.96000004
   13.43694496  194.20300293    4.90999985    2.96000004
   13.43916702  170.57400513    4.90999985    2.96000004
   13.44027805  180.45799255    4.90999985    2.96000004
   13.44361115  177.71400452    4.90999985    2.96000004
   13.44972229  177.71400452    4.90999985    2.96000004
   13.45388889  171.75199890    4.90999985    2.96000004
   13.45694447  170.75599670    4.90999985    2.96000004
   13.46027756  166.29299927    4.90999985    2.96000004
   13.46333313  171.10600281    4.90999985    2.96000004
   13.46666622  173.68400574    4.90999985    2.96000004
   13.46999931  166.31900024    4.90999985    2.96000004
   13.47249985  167.99200439    4.90999985    2.96000004
   13.47333336  176.75599670    4.90999985    2.96000004
   13.47666645  169.42799377    4.90999985    2.96000004
   13.47999954  163.51800537    4.90999985    2.96000004
   13.48305511  172.62600708    4.90999985    2.96000004
   13.48638916  171.42700195    4.90999985    2.96000004
   13.49250031  171.42700195    4.90999985    2.96000004
   13.49666691  172.59100342    4.90999985    2.98000002
   13.50000000  178.07600403    4.90999985    2.98000002
   13.50305557  170.94599915    4.90999985    2.96000004
   13.50583363  173.52099609    4.90999985    2.96000004
   13.50666714  181.60000610    4.90999985    2.96000004
   13.51000023  166.21099854    4.90999985    2.98000002
   13.51333332  164.93899536    4.90999985    2.96000004
   13.51638889  170.05000305    4.90999985    2.96000004
   13.51972198  163.34700012    4.90999985    2.96000004
   13.52277756  164.50999451    4.90999985    2.96000004
   13.52611065  157.16299438    4.90999985    2.98000002
   13.52944374  159.60699463    4.90999985    2.98000002
   13.53527832  159.60699463    4.90999985    2.96000004
   13.53944492  154.13299561    4.90999985    2.98000002
   13.54277802  166.62399292    4.90999985    2.96000004
   13.54583359  155.98300171    4.90999985    2.98000002
   13.54916668  163.27900696    4.90999985    2.98000002
   13.55249977  178.78300476    4.90999985    2.96000004
   13.55555534  164.91499329    4.90999985    2.98000002
   13.55888939  173.69900513    4.90999985    2.96000004
   13.56222248  175.05900574    4.90999985    2.98000002
   13.56527805  173.94999695    4.90999985    2.98000002
   13.56861115  169.00799561    4.90999985    2.98000002
   13.57166672  179.48399353    4.90999985    2.96000004
   13.57250023  171.62699890    4.90999985    2.98000002
   13.57833290  171.62699890    4.90999985    2.98000002
   13.58222198  179.85499573    4.90999985    2.98000002
   13.58555508  166.30099487    4.90999985    2.96000004
   13.58888817  162.67799377    4.90999985    2.96000004
   13.59194374  156.06300354    4.90999985    2.96000004
   13.59527779  166.77000427    4.90999985    2.98000002
   13.59861088  166.78500366    4.90999985    2.98000002
   13.60166740  182.10899353    4.90999985    2.98000002
   13.60500050  166.73599243    4.90999985    2.98000002
   13.60583401  163.54699707    4.90999985    2.98000002
   13.60861111  158.13099670    4.90999985    2.98000002
   13.61194515  167.00700378    4.90999985    2.98000002
   13.61527824  157.35099792    4.90999985    2.98000002
   13.62111092  157.35099792    4.90999985    2.98000002
   13.62527752  164.03300476    4.90999985    2.98000002
   13.62833309  161.98100281    4.90999985    2.98000002
   13.63166714  167.83999634    4.90999985    2.98000002
   13.63500023  163.98100281    4.90999985    2.98000002
   13.63805580  160.82899475    4.90999985    2.98000002
   13.63916683  155.40400696    4.90999985    2.98000002
   13.64166641  162.40199280    4.90999985    2.98000002
   13.64499950  169.93299866    4.90999985    2.98000002
   13.64833355  172.92399597    4.90999985    2.98000002
   13.65138817  152.32899475    4.90999985    2.98000002
   13.65472221  152.31900024    4.90999985    2.98000002
   13.65805531  165.92399597    4.90999985    2.98000002
   13.66388893  165.92399597    4.90999985    2.98000002
   13.66805553  163.31300354    4.90999985    2.98000002
   13.67111111  159.07600403    4.90999985    2.98000002
   13.67250061  163.19599915    4.90999985    2.98000002
   13.67472267  160.83500671    4.90999985    3.00000000
   13.67805576  158.90499878    4.90999985    2.98000002
   13.68138885  161.22200012    4.90999985    3.00000000
   13.68444443  166.99200439    4.90999985    2.98000002
   13.68777752  163.65400696    4.90999985    3.00000000
   13.69111156  158.24499512    4.90999985    2.98000002
   13.69416714  161.76199341    4.90999985    3.00000000
   13.69750023  166.46699524    4.90999985    3.00000000
   13.70055580  164.87100220    4.90999985    2.98000002
   13.70666695  164.87100220    4.90999985    2.98000002
   13.71083355  160.43800354    4.90999985    3.00000000
   13.71416664  158.29899597    4.90999985    2.98000002
   13.71722221  164.74099731    4.90999985    2.98000002
   13.72055531  169.01400757    4.90999985    3.00000000
   13.72388840  166.62100220    4.90999985    2.98000002
   13.72694397  159.19200134    4.90999985    2.98000002
   13.73027706  160.21600342    4.90999985    2.98000002
   13.73333359  158.32800293    4.90999985    2.98000002
   13.73666668  165.12500000    4.90999985    2.98000002
   13.73916721  170.59899902    4.90999985    2.98000002
   13.74027824  167.15499878    4.90999985    2.98000002
   13.74361134  157.44999695    4.90999985    3.00000000
   13.74944496  157.44999695    4.90999985    2.98000002
   13.75361156  155.72599792    4.90999985    2.98000002
   13.75694466  156.66999817    4.90999985    2.98000002
   13.76027775  156.35299683    4.90999985    3.00000000
   13.76333332  154.21499634    4.90999985    2.98000002
   13.76666641  159.40299988    4.90999985    3.00000000
   13.76999950  160.23699951    4.90999985    3.00000000
   13.77250004  160.54100037    4.90999985    3.00000000
   13.77333355  166.83299255    4.90999985    2.98000002
   13.77666664  155.07200623    4.90999985    3.00000000
   13.77999973  162.30200195    4.90999985    3.00000000
   13.78305531  158.49299622    4.90999985    2.98000002
   13.78638935  159.40600586    4.90999985    3.00000000
   13.79250050  159.40600586    4.90999985    3.00000000
   13.79666710  159.79100037    4.90999985    2.98000002
   13.79972267  153.83599854    4.90999985    2.98000002
   13.80305576  172.12500000    4.90999985    2.98000002
   13.80583382  157.18699646    4.90999985    3.00000000
   13.80666733  174.80299377    4.90999985    3.00000000
   13.81000042  179.33599854    4.90999985    3.00000000
   13.81333351  163.81100464    4.90999985    2.98000002
   13.81638908  172.63499451    4.90999985    3.00000000
   13.81972218  162.78199768    4.90999985    2.98000002
   13.82305527  168.37699890    4.90999985    3.00000000
   13.82611084  169.49099731    4.90999985    3.00000000
   13.82944393  180.68200684    4.90999985    3.00000000
   13.83527756  180.68200684    4.90999985    2.98000002
   13.83944416  167.81700134    4.90999985    2.98000002
   13.84249973  158.32600403    4.90999985    3.00000000
   13.84583282  158.92700195    4.90999985    3.00000000
   13.84916592  153.55200195    4.90999985    3.00000000
   13.85222244  164.83299255    4.90999985    3.00000000
   13.85555553  157.91099548    4.90999985    3.00000000
   13.85888958  159.17799377    4.90999985    2.98000002
   13.86194515  154.55999756    4.90999985    2.98000002
   13.86527824  158.10000610    4.90999985    2.98000002
   13.86833382  164.03300476    4.90999985    2.98000002
   13.87166691  156.89199829    4.90999985    3.00000000
   13.87250042  156.78799438    4.90999985    3.00000000
   13.87805557  156.78799438    4.90999985    2.98000002
   13.88222218  154.68699646    4.90999985    3.00000000
   13.88555527  156.14900208    4.90999985    3.00000000
   13.88861084  161.64399719    4.90999985    3.00000000
   13.89194393  159.64599609    4.90999985    3.00000000
   13.89527798  160.64500427    4.90999985    3.00000000
   13.89833355  161.33900452    4.90999985    3.00000000
   13.90166664  140.68299866    4.90999985    3.00000000
   13.90472221  159.89100647    4.90999985    2.98000002
   13.90583324  160.56199646    4.90999985    3.00000000
   13.90861034  154.91799927    4.90999985    3.00000000
   13.91166592  153.63200378    4.90999985    3.01999998
   13.91499996  158.23800659    4.90999985    3.00000000
   13.92083359  158.23800659    4.90999985    3.00000000
   13.92500019  160.16400146    4.90999985    3.00000000
   13.92833328  156.86500549    4.90999985    3.00000000
   13.93166733  148.87500000    4.90999985    3.00000000
   13.93472195  156.19000244    4.90999985    3.00000000
   13.93805599  172.60200500    4.90999985    3.00000000
   13.93916702  155.96200562    4.90999985    3.00000000
   13.94194412  155.06300354    4.90999985    3.00000000
   13.94499969  158.57899475    4.90999985    3.00000000
   13.94833374  146.99699402    4.90999985    3.00000000
   13.95138836  157.52299500    4.90999985    2.98000002
   13.95472240  165.50100708    4.90999985    3.01999998
   13.95805550  153.33799744    4.90999985    3.00000000
   13.96388912  153.33799744    4.90999985    3.00000000
   13.96805477  162.00999451    4.90999985    3.00000000
   13.97111034  151.39199829    4.90999985    3.00000000
   13.97249985  156.82200623    4.90999985    3.01999998
   13.97499943  159.42300415    4.90999985    3.00000000
   13.97805500  157.57299805    4.90999985    3.00000000
   13.98138809  159.08999634    4.90999985    3.00000000
   13.98444462  153.48399353    4.90999985    2.98000002
   13.98777771  157.18099976    4.90999985    3.00000000
   13.99111176  146.39599609    4.90999985    3.00000000
   13.99416733  156.12100220    4.90999985    2.98000002
   13.99750042  151.93200684    4.90999985    2.98000002
   14.00083351  157.40800476    4.90999985    3.00000000
   14.02305508  153.40800476    4.90999985    3.01999998
   14.02333355  149.77900696    4.90999985    3.01999998
   14.02666664  151.62899780    4.90999985    3.00000000
   14.02999973  153.83000183    4.90999985    3.00000000
   14.03305531  144.11999512    4.90999985    3.00000000
   14.03638935  146.76400757    4.90999985    3.00000000
   14.03916740  153.07800293    4.90999985    3.00000000
   14.04000092  159.20500183    4.90999985    3.00000000
   14.04305553  155.08799744    4.90999985    3.00000000
   14.04944515  155.08799744    4.90999985    3.01999998
   14.05361176  163.57699585    4.90999985    3.01999998
   14.05694485  162.57099915    4.90999985    3.00000000
   14.06027794  158.06199646    4.90999985    3.01999998
   14.06333351  162.90499878    4.90999985    3.00000000
   14.06666660  152.81900024    4.90999985    3.00000000
   14.06972218  157.72099304    4.90999985    3.00000000
   14.07250023  154.18200684    4.90999985    3.00000000
   14.07361126  147.94400024    4.90999985    3.00000000
   14.07666683  155.01300049    4.90999985    3.00000000
   14.07999992  167.71600342    4.90999985    3.00000000
   14.08305550  161.32699585    4.90999985    3.01999998
   14.08638859  151.26400757    4.90999985    2.98000002
   14.09249973  151.26400757    4.90999985    3.01999998
   14.09666634  151.69900513    4.90999985    3.00000000
   14.09972191  160.58500671    4.90999985    2.98000002
   14.10305595  151.55599976    4.90999985    2.98000002
   14.10583401  163.14500427    4.90999985    3.01999998
   14.10666752  157.46499634    4.90999985    3.00000000
   14.10972214  158.04899597    4.90999985    3.00000000
   14.11305618  157.01899719    4.90999985    3.00000000
   14.11638927  156.06500244    4.90999985    3.00000000
   14.11944485  157.59599304    4.90999985    3.01999998
   14.12277794  155.32600403    4.90999985    3.00000000
   14.12611103  163.17799377    4.90999985    3.00000000
   14.12916660  162.92599487    4.90999985    3.00000000
   14.13527775  162.92599487    4.90999985    3.00000000
   14.13944435  149.00799561    4.90999985    3.00000000
   14.14249992  156.78700256    4.90999985    3.00000000
   14.14583302  151.95300293    4.90999985    3.00000000
   14.14916611  153.23699951    4.90999985    3.00000000
   14.15222168  160.63900757    4.90999985    3.00000000
   14.15555477  157.68099976    4.90999985    3.00000000
   14.15888882  157.88099670    4.90999985    2.98000002
   14.16194439  159.66900635    4.90999985    3.00000000
   14.16527748  157.57699585    4.90999985    3.00000000
   14.16833401  147.16200256    4.90999985    3.00000000
   14.17166710  152.93200684    4.90999985    3.00000000
   14.17250061  149.32800293    4.90999985    3.00000000
   14.17805576  149.32800293    4.90999985    3.00000000
   14.18222237  154.46200562    4.90999985    3.00000000
   14.18555546  150.61700439    4.90999985    3.00000000
   14.18861103  146.13099670    4.90999985    3.00000000
   14.19194412  146.87800598    4.90999985    3.00000000
   14.19527817  150.24699402    4.90999985    3.00000000
   14.19833374  147.61700439    4.90999985    3.00000000
   14.20166683  148.38699341    4.90999985    3.00000000
   14.20499992  144.60299683    4.90999985    3.00000000
   14.20583344  148.06100464    4.90999985    3.00000000
   14.20861053  155.17599487    4.90999985    3.00000000
   14.21166611  150.06599426    4.90999985    2.98000002
   14.21500015  157.85600281    4.90999985    3.00000000
   14.22083282  157.85600281    4.90999985    3.00000000
   14.22499943  153.21200562    4.90999985    3.00000000
   14.22833252  158.48800659    4.90999985    3.01999998
   14.23166656  145.99699402    4.90999985    3.00000000
   14.23472214  158.22500610    4.90999985    3.00000000
   14.23805618  160.03399658    4.90999985    3.00000000
   14.23916721  153.42500305    4.90999985    3.00000000
   14.24166679  154.42199707    4.90999985    3.00000000
   14.24472237  161.64999390    4.90999985    3.00000000
   14.24805546  190.49600220    4.90999985    3.00000000
   14.25138855  182.64599609    4.90999985    3.00000000
   14.25444412  187.79299927    4.90999985    3.01999998
   14.25777817  163.46499634    4.90999985    3.00000000
   14.26388931  163.46499634    4.90999985    3.01999998
   14.26777744  179.11700439    4.90999985    3.00000000
   14.27111053  159.50000000    4.90999985    3.00000000
   14.27250004  148.66400146    4.90999985    3.01999998
   14.27472210  157.39999390    4.90999985    3.00000000
   14.27777767  144.34300232    4.90999985    3.01999998
   14.28111076  148.36900330    4.90999985    3.00000000
   14.28444481  151.59300232    4.90999985    3.00000000
   14.28750038  159.61199951    4.90999985    3.00000000
   14.29083347  161.93400574    4.90999985    3.01999998
   14.29388905  151.20100403    4.90999985    3.01999998
   14.29722309  156.86399841    4.90999985    3.00000000
   14.30055618  158.27499390    4.90999985    3.01999998
   14.30666733  158.27499390    4.90999985    3.00000000
   14.31083393  155.78799438    4.90999985    3.00000000
   14.31388950  151.43099976    4.90999985    3.01999998
   14.31722260  156.33399963    4.90999985    3.00000000
   14.32055569  152.17100525    4.90999985    3.01999998
   14.32361126  141.44999695    4.90999985    3.01999998
   14.32694435  155.95500183    4.90999985    3.01999998
   14.33027744  156.51499939    4.90999985    3.01999998
   14.33333302  154.81199646    4.90999985    3.01999998
   14.33666611  152.92799377    4.90999985    3.01999998
   14.33916664  142.45100403    4.90999985    3.00000000
   14.34027767  142.33900452    4.90999985    3.00000000
   14.34333324  149.41299438    4.90999985    3.01999998
   14.34944439  149.41299438    4.90999985    3.00000000
   14.35361195  147.93899536    4.90999985    3.00000000
   14.35694504  148.33900452    4.90999985    3.01999998
   14.36000061  157.71099854    4.90999985    3.01999998
   14.36333370  155.40800476    4.90999985    3.01999998
   14.36638927  144.72700500    4.90999985    3.01999998
   14.36972237  149.35899353    4.90999985    3.00000000
   14.37250042  168.57000732    4.90999985    3.01999998
   14.37333393  168.81599426    4.90999985    3.01999998
   14.37638855  200.94999695    4.90999985    3.00000000
   14.37972260  196.51499939    4.90999985    3.01999998
   14.38305569  217.05499268    4.90999985    3.01999998
   14.38611126  204.15199280    4.90999985    3.01999998
   14.39222240  204.15199280    4.90999985    3.01999998
   14.39638901  176.22200012    4.90999985    3.01999998
   14.39972210  190.42799377    4.90999985    3.01999998
   14.40305519  189.80400085    4.90999985    3.01999998
   14.40583324  168.45700073    4.90999985    3.01999998
   14.40666676  171.59500122    4.90999985    3.01999998
   14.40972137  158.54800415    4.90999985    3.00000000
   14.41305542  163.55400085    4.90999985    3.01999998
   14.41638851  154.05200195    4.90999985    3.00000000
   14.41944504  145.44500732    4.90999985    3.00000000
   14.42277813  154.14900208    4.90999985    3.00000000
   14.42583370  147.77000427    4.90999985    3.01999998
   14.42916679  158.59399414    4.90999985    3.01999998
   14.43527794  158.59399414    4.90999985    3.01999998
   14.43916702  142.42599487    4.90999985    3.01999998
   14.44250011  152.02499390    4.90999985    3.01999998
   14.44583321  154.54200745    4.90999985    3.01999998
   14.44916630  152.41000366    4.90999985    3.01999998
   14.45222187  156.32499695    4.90999985    3.00000000
   14.45555496  155.49000549    4.90999985    3.00000000
   14.45861053  158.25599670    4.90999985    3.01999998
   14.46194458  152.09899902    4.90999985    3.01999998
   14.46527767  149.43899536    4.90999985    3.01999998
   14.46833324  159.30400085    4.90999985    3.01999998
   14.47166634  141.67999268    4.90999985    3.01999998
   14.47249985  148.57899475    4.90999985    3.01999998
   14.47805500  148.57899475    4.90999985    3.00000000
   14.48222160  147.90299988    4.90999985    3.00000000
   14.48527813  151.78199768    4.90999985    3.00000000
   14.48861122  152.08000183    4.90999985    3.01999998
   14.49194431  160.89399719    4.90999985    3.01999998
   14.49499989  152.75900269    4.90999985    3.01999998
   14.49833393  165.29699707    4.90999985    3.01999998
   14.50138855  174.38699341    4.90999985    3.03999996
   14.50472260  176.18800354    4.90999985    3.01999998
   14.50583363  181.32200623    4.90999985    3.01999998
   14.50833321  184.86099243    4.90999985    3.01999998
   14.51138878  186.41999817    4.90999985    3.01999998
   14.51472187  179.19299316    4.90999985    3.01999998
   14.52083302  179.19299316    4.90999985    3.01999998
   14.52499962  168.05000305    4.90999985    3.00000000
   14.52833271  187.87399292    4.90999985    3.01999998
   14.53138828  161.89999390    4.90999985    3.01999998
   14.53472233  172.76499939    4.90999985    3.01999998
   14.53777790  185.52499390    4.90999985    3.03999996
   14.53916740  197.63400269    4.90999985    3.03999996
   14.54166698  196.01800537    4.90999985    3.01999998
   14.54472256  205.18899536    4.90999985    3.03999996
   14.54805565  215.83099365    4.90999985    3.01999998
   14.55138874  287.23001099    4.90999985    3.01999998
   14.55444431  374.84600830    4.90999985    3.01999998
   14.55777836  476.00601196    4.90999985    3.01999998
   14.55972195  506.25399780    4.90999985    3.01999998
   14.56111145  469.83700562    4.90999985    3.01999998
   14.56250000  484.14898682    4.90999985    3.00000000
   14.56388950  431.99398804    4.90999985    3.03999996
   14.56527805  419.91400146    4.90999985    3.01999998
   14.56666660  435.52999878    4.90999985    3.01999998
   14.56805515  491.36700439    4.90999985    3.00000000
   14.56944466  557.59399414    4.90999985    3.01999998
   14.57083321  481.43798828    4.90999985    3.01999998
   14.57222176  494.54098511    4.90999985    3.01999998
   14.57361126  482.22500610    4.90999985    3.00000000
   14.57499981  456.89700317    4.90999985    3.01999998
   14.57638836  535.43701172    4.90999985    3.01999998
   14.57777786  630.22198486    4.90999985    3.01999998
   14.57916641  602.29998779    4.90999985    3.01999998
   14.58055592  603.74102783    4.90999985    3.01999998
   14.58194447  634.23101807    4.90999985    3.01999998
   14.58333302  627.61297607    4.90999985    3.01999998
   14.58472157  518.25000000    4.90999985    3.03999996
   14.58611107  597.40698242    4.90999985    3.01999998
   14.58749962  537.75799561    4.90999985    3.01999998
   14.58888817  400.07598877    4.90999985    3.01999998
   14.59027767  499.10400391    4.90999985    3.01999998
   14.59166622  470.24700928    4.90999985    3.03999996
   14.59305477  559.41400146    4.90999985    3.01999998
   14.59444427  518.20800781    4.90999985    3.01999998
   14.59583282  495.13500977    4.90999985    3.01999998
   14.59722233  538.41400146    4.90999985    3.01999998
   14.59861088  522.46697998    4.90999985    3.01999998
   14.60000038  540.98400879    4.90999985    3.01999998
   14.60138893  538.99499512    4.90999985    3.01999998
   14.60277843  520.45800781    4.90999985    3.01999998
   14.60416698  543.32202148    4.90999985    3.00000000
   14.60555553  532.51501465    4.90999985    3.01999998
   14.60694504  471.63299561    4.90999985    3.01999998
   14.60833359  496.68301392    4.90999985    3.03999996
   14.60972214  475.97100830    4.90999985    3.01999998
   14.61111164  474.44500732    4.90999985    3.01999998
   14.61250019  586.64001465    4.90999985    3.01999998
   14.61388969  482.85101318    4.90999985    3.00000000
   14.61527824  449.68200684    4.90999985    3.01999998
   14.61666679  472.33099365    4.90999985    3.01999998
   14.61805534  477.96301270    4.90999985    3.00000000
   14.61944485  436.55099487    4.90999985    3.00000000
   14.62083340  438.32800293    4.90999985    3.01999998
   14.62222195  380.78900146    4.90999985    3.00000000
   14.62361145  405.79598999    4.90999985    3.01999998
   14.62500000  424.20001221    4.90999985    3.01999998
   14.62638855  351.06799316    4.90999985    3.01999998
   14.62777805  382.41799927    4.90999985    3.00000000
   14.62916660  315.26400757    4.90999985    3.00000000
   14.62916660  476.00601196    4.90999985    3.01999998
   14.62944412  161.89999390    4.90999985    3.01999998
   14.62944412  172.76499939    4.90999985    3.01999998
   14.62944412  185.52499390    4.90999985    3.03999996
   14.62972260  196.01800537    4.90999985    3.01999998
   14.62972260  205.18899536    4.90999985    3.03999996
   14.62972260  215.83099365    4.90999985    3.01999998
   14.63000011  287.23001099    4.90999985    3.01999998
   14.63000011  374.84600830    4.90999985    3.01999998
   14.63055611  320.09100342    4.90999985    3.01999998
   14.63388920  316.38900757    4.90999985    3.00000000
   14.63694477  275.23800659    4.90999985    3.01999998
   14.64027786  297.80999756    4.90999985    3.00000000
   14.64361095  283.55099487    4.90999985    3.01999998
   14.64999962  283.55099487    4.90999985    3.00000000
   14.65416622  212.19400024    4.90999985    3.00000000
   14.65722179  253.12300110    4.90999985    3.00000000
   14.66055489  225.97999573    4.90999985    3.00000000
   14.66305542  213.07800293    4.90999985    3.01999998
   14.66416645  203.60699463    4.90999985    3.01999998
   14.66750050  206.89399719    4.90999985    3.00000000
   14.67083359  207.42300415    4.90999985    3.01999998
   14.67388916  195.73100281    4.90999985    3.00000000
   14.67722225  193.00700378    4.90999985    3.01999998
   14.68055630  182.58200073    4.90999985    3.00000000
   14.68361092  181.14599609    4.90999985    3.01999998
   14.68694496  188.87300110    4.90999985    3.01999998
   14.69277763  188.87300110    4.90999985    3.00000000
   14.69694424  177.28900146    4.90999985    3.00000000
   14.70027733  163.38099670    4.90999985    3.01999998
   14.70333290  177.17999268    4.90999985    3.01999998
   14.70666695  175.11300659    4.90999985    3.00000000
   14.70972157  171.77900696    4.90999985    3.01999998
   14.71305561  163.33000183    4.90999985    3.01999998
   14.71638870  178.74699402    4.90999985    3.01999998
   14.71944427  190.89500427    4.90999985    3.01999998
   14.72277737  178.74400330    4.90999985    3.01999998
   14.72611046  161.70100403    4.90999985    3.00000000
   14.72916603  182.43800354    4.90999985    3.01999998
   14.72972202  175.01899719    4.90999985    3.01999998
   14.73555565  175.01899719    4.90999985    3.01999998
   14.73972225  190.08999634    4.90999985    3.01999998
   14.74305534  180.42399597    4.90999985    3.01999998
   14.74611092  181.31199646    4.90999985    3.01999998
   14.74944496  188.05200195    4.90999985    3.01999998
   14.75277805  180.78100586    4.90999985    3.01999998
   14.75583363  179.41600037    4.90999985    3.01999998
   14.75916672  185.14399719    4.90999985    3.00000000
   14.76249981  191.67300415    4.90999985    3.01999998
   14.76305580  183.54800415    4.90999985    3.01999998
   14.76611137  186.07699585    4.90999985    3.01999998
   14.76916599  184.36000061    4.90999985    3.00000000
   14.77250004  185.25199890    4.90999985    3.01999998
   14.77861118  185.25199890    4.90999985    3.01999998
   14.78249931  184.35600281    4.90999985    3.01999998
   14.78583336  169.57800293    4.90999985    3.01999998
   14.78916740  199.19500732    4.90999985    3.01999998
   14.79222298  158.75900269    4.90999985    3.01999998
   14.79555607  179.95700073    4.90999985    3.01999998
   14.79638958  204.13400269    4.90999985    3.01999998
   14.79916668  186.09599304    4.90999985    3.01999998
   14.80222225  181.86799622    4.90999985    3.00000000
   14.80555534  193.02900696    4.90999985    3.01999998
   14.80888939  212.32099915    4.90999985    3.01999998
   14.81194496  201.86999512    4.90999985    3.01999998
   14.81527805  220.37199402    4.90999985    3.01999998
   14.82138920  220.37199402    4.90999985    3.01999998
   14.82555580  203.55299377    4.90999985    3.03999996
   14.82861137  196.61700439    4.90999985    3.03999996
   14.82972240  184.76600647    4.90999985    3.03999996
   14.83249950  189.19200134    4.90999985    3.01999998
   14.83555508  179.48699951    4.90999985    3.01999998
   14.83888817  198.74400330    4.90999985    3.01999998
   14.84222221  192.51199341    4.90999985    3.01999998
   14.84527779  170.43699646    4.90999985    3.01999998
   14.84861088  181.83999634    4.90999985    3.01999998
   14.85194492  174.05200195    4.90999985    3.01999998
   14.85500050  184.29800415    4.90999985    3.01999998
   14.85833359  177.18299866    4.90999985    3.01999998
   14.86416721  177.18299866    4.90999985    3.01999998
   14.86833382  189.03700256    4.90999985    3.01999998
   14.87166691  194.57299805    4.90999985    3.03999996
   14.87472248  175.77600098    4.90999985    3.01999998
   14.87805557  195.04499817    4.90999985    3.01999998
   14.88111115  216.78700256    4.90999985    3.01999998
   14.88444424  194.87500000    4.90999985    3.01999998
   14.88777733  198.52499390    4.90999985    3.03999996
   14.89083290  192.33299255    4.90999985    3.01999998
   14.89416695  176.36999512    4.90999985    3.01999998
   14.89638901  195.46000671    4.90999985    3.03999996
   14.89777756  175.10000610    4.90999985    3.01999998
   14.90083313  174.80499268    4.90999985    3.01999998
   14.90694427  174.80499268    4.90999985    3.01999998
   14.91111088  193.19099426    4.90999985    3.03999996
   14.91444397  180.89300537    4.90999985    3.01999998
   14.91750050  188.22599792    4.90999985    3.01999998
   14.92083359  190.64100647    4.90999985    3.01999998
   14.92416668  179.39500427    4.90999985    3.03999996
   14.92722225  193.96499634    4.90999985    3.01999998
   14.92972279  179.08999634    4.90999985    3.00000000
   14.93111134  194.51899719    4.90999985    3.01999998
   14.93416691  177.47700500    4.90999985    3.01999998
   14.93750000  180.33799744    4.90999985    3.01999998
   14.94083309  185.86999512    4.90999985    3.01999998
   14.94388866  182.61599731    4.90999985    3.03999996
   14.94999981  182.61599731    4.90999985    3.01999998
   14.95388889  181.39399719    4.90999985    3.01999998
   14.95722198  171.15299988    4.90999985    3.01999998
   14.96055508  165.39100647    4.90999985    3.01999998
   14.96305561  171.28700256    4.90999985    3.03999996
   14.96416664  193.77900696    4.90999985    3.01999998
   14.96722221  180.63200378    4.90999985    3.01999998
   14.97055531  164.50999451    4.90999985    3.01999998
   14.97388840  181.59800720    4.90999985    3.01999998
   14.97694397  194.86099243    4.90999985    3.01999998
   14.98027706  172.62500000    4.90999985    3.03999996
   14.98361111  177.72300720    4.90999985    3.01999998
   14.98666668  170.02900696    4.90999985    3.01999998
   14.99277782  170.02900696    4.90999985    3.01999998
   14.99694443  194.66600037    4.90999985    3.01999998
   15.00000000  189.65199280    4.90999985    3.01999998
   15.00333309  183.83799744    4.90999985    3.01999998
   15.00666714  199.04400635    4.90999985    3.01999998
   15.00972176  183.92700195    4.90999985    3.01999998
   15.01305580  196.48800659    4.90999985    3.01999998
   15.01611137  181.53599548    4.90999985    3.01999998
   15.01944447  179.04299927    4.90999985    3.01999998
   15.02277756  168.65899658    4.90999985    3.01999998
   15.04000092  177.50999451    4.90999985    3.01999998
   15.04416752  177.50999451    4.90999985    3.01999998
   15.04833412  190.61500549    4.90999985    3.01999998
   15.05138874  199.54600525    4.90999985    3.03999996
   15.05472279  195.68400574    4.90999985    3.01999998
   15.05805588  189.86799622    4.90999985    3.01999998
   15.06111145  182.69099426    4.90999985    3.01999998
   15.06444454  202.22500610    4.90999985    3.01999998
   15.06777763  193.07400513    4.90999985    3.03999996
   15.07083321  198.33500671    4.90999985    3.03999996
   15.07333374  178.55599976    4.90999985    3.01999998
   15.07444477  171.44999695    4.90999985    3.03999996
   15.07777786  194.63299561    4.90999985    3.01999998
   15.08111095  171.14900208    4.90999985    3.03999996
   15.08694458  171.14900208    4.90999985    3.01999998
   15.09111118  191.75900269    4.90999985    3.03999996
   15.09444427  164.26499939    4.90999985    3.01999998
   15.09749985  179.33000183    4.90999985    3.01999998
   15.10083389  189.87500000    4.90999985    3.01999998
   15.10416698  192.59199524    4.90999985    3.01999998
   15.10666752  193.54600525    4.90999985    3.03999996
   15.10750008  190.71000671    4.90999985    3.01999998
   15.11083412  182.06799316    4.90999985    3.01999998
   15.11416721  187.16499329    4.90999985    3.01999998
   15.11722279  173.73399353    4.90999985    3.01999998
   15.12055588  166.58700562    4.90999985    3.03999996
   15.12361145  177.18899536    4.90999985    3.03999996
   15.12972260  177.18899536    4.90999985    3.03999996
   15.13388920  173.61799622    4.90999985    3.03999996
   15.13722229  167.32000732    4.90999985    3.03999996
   15.14000034  164.40199280    4.90999985    3.03999996
   15.14083290  179.14700317    4.90999985    3.03999996
   15.14416695  174.58799744    4.90999985    3.03999996
   15.14750004  169.64500427    4.90999985    3.01999998
   15.15055561  173.02200317    4.90999985    3.03999996
   15.15388870  178.63900757    4.90999985    3.03999996
   15.15694427  177.36799622    4.90999985    3.03999996
   15.16027737  181.05099487    4.90999985    3.01999998
   15.16361046  177.72399902    4.90999985    3.03999996
   15.16666698  172.04800415    4.90999985    3.03999996
   15.17277813  172.04800415    4.90999985    3.03999996
   15.17694473  183.42399597    4.90999985    3.03999996
   15.18000031  170.38000488    4.90999985    3.03999996
   15.18333340  173.38099670    4.90999985    3.01999998
   15.18638897  167.81300354    4.90999985    3.03999996
   15.18972206  169.56500244    4.90999985    3.03999996
   15.19305515  168.14599609    4.90999985    3.01999998
   15.19611073  156.69400024    4.90999985    3.03999996
   15.19944477  165.10200500    4.90999985    3.01999998
   15.20277786  172.23399353    4.90999985    3.01999998
   15.20583344  172.63699341    4.90999985    3.01999998
   15.20777798  160.91400146    4.90999985    3.03999996
   15.20972157  174.69200134    4.90999985    3.03999996
   15.21555519  174.69200134    4.90999985    3.01999998
   15.21972179  170.96699524    4.90999985    3.03999996
   15.22277737  174.41299438    4.90999985    3.03999996
   15.22611046  163.89500427    4.90999985    3.03999996
   15.22944355  170.04499817    4.90999985    3.03999996
   15.23249912  161.64599609    4.90999985    3.03999996
   15.23583317  173.59500122    4.90999985    3.03999996
   15.23916721  166.05900574    4.90999985    3.03999996
   15.24111176  158.44799805    4.90999985    3.03999996
   15.24277782  162.14300537    4.90999985    3.03999996
   15.24583340  159.39100647    4.90999985    3.03999996
   15.24916649  163.16499329    4.90999985    3.03999996
   15.35500050   -1.00000000   -1.00000000   -1.00000000
   15.45138836   -1.00000000   -1.00000000   -1.00000000
   15.56694412   -1.00000000   -1.00000000   -1.00000000
   15.87583351  110.20999908    1.51999998    2.91000009
   15.87916660  178.06700134    1.53999996    2.91000009
   15.88222218  172.10899353    1.51999998    2.91000009
   15.88555527  175.27099609    1.50000000    2.91000009
   15.88888836  167.79800415    1.51999998    2.89000010
   15.89194393  163.57600403    1.63000000    2.89000010
   15.89611053  163.57600403    1.39999998    2.91000009
   15.90027714  172.52999878    1.38000000    2.91000009
   15.90361118  172.44799805    1.38000000    2.91000009
   15.90666676  146.72900391    1.39999998    2.91000009
   15.90916634  158.77999878    1.38000000    2.91000009
   15.91055489  155.29699707    1.38000000    2.91000009
   15.91361046  163.92999268    1.39999998    2.91000009
   15.91694450  164.56100464    1.39999998    2.91000009
   15.92027855  164.23599243    1.38000000    2.91000009
   15.92333412  176.46499634    1.38000000    2.91000009
   15.92666721  171.09899902    3.26999998    2.91000009
   15.93000031  164.39399719    3.05999994    2.91000009
   15.93305588  172.29899597    3.01999998    2.91000009
   15.93916702  172.29899597    3.03999996    2.91000009
   15.94305515  169.52799988    3.05999994    2.91000009
   15.94638920  166.67700195    2.98000002    2.91000009
   15.94972229  162.27000427    1.89999998    2.91000009
   15.95277786  165.38600159    0.58999997    2.89000010
   15.95611095  165.77200317    0.55000001    2.89000010
   15.95916653  166.00900269    0.56999999    2.89000010
   15.96249962  156.91000366    0.55000001    2.89000010
   15.96583271  158.47000122    0.56999999    2.91000009
   15.96888828  151.40600586    0.56999999    2.89000010
   15.97222137  152.20799255    0.56999999    2.89000010
   15.97555542  155.69799805    0.55000001    2.89000010
   15.97611046  153.93899536    0.55000001    2.89000010
   15.98194408  153.93899536    0.56999999    2.89000010
   15.98611164  176.61999512    0.55000001    2.91000009
   15.98916721  159.00599670    0.55000001    2.89000010
   15.99250031  163.31500244    0.55000001    2.89000010
   15.99555588  166.54299927    0.55000001    2.89000010
   15.99888897  168.86799622    0.55000001    2.89000010
   16.00222206  164.20799255    0.55000001    2.89000010
   16.00527763  166.82000732    0.52999997    2.89000010
   16.00861168  170.62600708    0.52999997    2.89000010
   16.00944519  172.08399963    0.52999997    2.89000010
   16.01222229  150.86999512    0.52999997    2.89000010
   16.01555634  159.94500732    0.52999997    2.89000010
   16.01888847  173.79200745    0.52999997    2.91000009
   16.02472115  173.79200745    0.51999998    2.89000010
   16.02888870  166.28100586    0.51999998    2.89000010
   16.03194427  167.15400696    0.51999998    2.89000010
   16.03527641  165.19299316    0.51999998    2.91000009
   16.03861046  179.31799316    0.50000000    2.86999989
   16.04166603  182.21499634    0.50000000    2.91000009
   16.04277802  174.29299927    0.50000000    2.91000009
   16.04527664  182.07299805    0.50000000    2.89000010
   16.04861069  186.78999329    0.50000000    2.89000010
   16.05166626  174.57400513    0.50000000    2.91000009
   16.05499840  178.73199463    0.50000000    2.89000010
   16.05833244  180.33799744    0.50000000    2.91000009
   16.06138802  170.46899414    0.50000000    2.89000010
   16.06750107  170.46899414    0.47999999    2.89000010
   16.07166672  169.97500610    0.50000000    2.89000010
   16.07500076  172.11399841    0.47999999    2.89000010
   16.07611275  169.75100708    0.47999999    2.89000010
   16.07861137  159.55400085    0.47999999    2.89000010
   16.08194542  172.05200195    0.47999999    2.91000009
   16.08500099  169.09700012    0.47999999    2.89000010
   16.08833313  182.43200684    0.47999999    2.89000010
   16.09166718  178.34399414    0.47999999    2.89000010
   16.09472275  162.92300415    0.47999999    2.89000010
   16.09805679  173.11399841    0.47999999    2.89000010
   16.10138893  175.25500488    0.47999999    2.89000010
   16.10444450  164.75999451    0.47999999    2.89000010
   16.11027908  164.75999451    0.46000001    2.89000010
   16.11444473  171.41999817    0.47999999    2.89000010
   16.11777878  144.53900146    0.50000000    2.89000010
   16.12111092  165.62899780    0.51999998    2.91000009
   16.12416649  165.02699280    0.51999998    2.91000009
   16.12750053  164.65400696    0.52999997    2.89000010
   16.13083267  164.95799255    0.52999997    2.89000010
   16.13388824  158.19000244    0.52999997    2.91000009
   16.13722229  170.94099426    0.51999998    2.89000010
   16.14055634  162.78900146    0.51999998    2.91000009
   16.14277840  159.57499695    0.51999998    2.89000010
   16.14416695  165.91799927    0.51999998    2.89000010
   16.14749908  158.35800171    0.51999998    2.91000009
   16.15333366  158.35800171    0.50000000    2.89000010
   16.15749931  160.23399353    0.50000000    2.89000010
   16.16055489  135.63900757    0.50000000    2.89000010
   16.16388893  148.99800110    0.51999998    2.86999989
   16.16694450  152.53500366    0.51999998    2.89000010
   16.17027664  165.33999634    0.51999998    2.89000010
   16.17361069  158.73500061    0.51999998    2.91000009
   16.17611122  151.17300415    0.55000001    2.89000010
   16.17722130  152.79499817    0.55000001    2.89000010
   16.18055534  142.01600647    0.55000001    2.91000009
   16.18361092  161.28399658    0.61000001    2.89000010
   16.18694305  159.38299561    0.63000000    2.91000009
   16.19027710  175.75599670    0.64999998    2.89000010
   16.19610977  175.75599670    0.56999999    2.86999989
   16.20027924  170.91600037    0.55000001    2.89000010
   16.20361137  173.40100098    0.52999997    2.89000010
   16.20666695  183.36399841    0.52999997    2.89000010
   16.20944595  159.02299500    0.50000000    2.89000010
   16.21027946  156.37399292    0.50000000    2.86999989
   16.21361160  163.93099976    0.47999999    2.89000010
   16.21666718  157.01199341    0.50000000    2.89000010
   16.22000122  164.02799988    0.51999998    2.91000009
   16.22333336  164.88299561    0.51999998    2.89000010
   16.22666740  164.88699341    0.51999998    2.89000010
   16.22972298  166.03599548    0.47999999    2.89000010
   16.23305511  160.78900146    0.47999999    2.89000010
   16.23888969  160.78900146    0.47999999    2.89000010
   16.24305534  167.88200378    0.50000000    2.89000010
   16.24638939  167.66799927    0.50000000    2.89000010
   16.24944496  166.44299316    0.50000000    2.89000010
   16.25277710  156.07299805    0.50000000    2.89000010
   16.25611115  166.10099792    0.50000000    2.89000010
   16.25916672  162.12500000    0.50000000    2.89000010
   16.26250076  152.90899658    0.50000000    2.91000009
   16.26555634  154.22599792    0.50000000    2.91000009
   16.26888847  165.97000122    0.50000000    2.91000009
   16.27222252  158.25100708    0.50000000    2.91000009
   16.27527809  185.01400757    0.50000000    2.89000010
   16.27611160  165.91999817    0.50000000    2.89000010
   16.28166580  165.91999817    0.47999999    2.91000009
   16.28583336  174.80499268    0.50000000    2.89000010
   16.28916550  177.17900085    0.50000000    2.89000010
   16.29249954  191.10200500    0.50000000    2.89000010
   16.29555511  178.45899963    0.47999999    2.91000009
   16.29888916  175.99400330    0.50000000    2.89000010
   16.30194283  160.68800354    0.50000000    2.91000009
   16.30527687  166.89900208    0.50000000    2.91000009
   16.30861092  163.02200317    0.50000000    2.91000009
   16.30944443  167.38000488    0.50000000    2.91000009
   16.31222153  159.55400085    0.50000000    2.89000010
   16.31555557  169.21299744    0.50000000    2.91000009
   16.31888962  169.75199890    0.50000000    2.91000009
   16.32472229  169.75199890    0.50000000    2.89000010
   16.32888985  168.99000549    0.50000000    2.91000009
   16.33194542  173.77600098    0.50000000    2.89000010
   16.33527756  175.21299744    0.47999999    2.91000009
   16.33833313  182.39599609    0.50000000    2.91000009
   16.34166718  175.33500671    0.50000000    2.89000010
   16.34277916  172.26199341    0.50000000    2.89000010
   16.34527779  190.36399841    0.50000000    2.89000010
   16.34861183  163.39599609    0.51999998    2.89000010
   16.35194397  170.61999512    0.47999999    2.89000010
   16.35499954  190.97000122    0.47999999    2.89000010
   16.35833359  177.33999634    0.50000000    2.89000010
   16.36166763  178.19500732    0.47999999    2.91000009
   16.36750031  178.19500732    0.50000000    2.91000009
   16.37166595  189.02200317    0.50000000    2.89000010
   16.37472153  196.80799866    0.50000000    2.89000010
   16.37611198  177.66400146    0.50000000    2.89000010
   16.37833405  178.41999817    0.50000000    2.91000009
   16.38166618  197.39300537    0.50000000    2.91000009
   16.38500023  189.72099304    0.50000000    2.89000010
   16.38805580  196.55799866    0.51999998    2.91000009
   16.39138794  197.11300659    0.51999998    2.91000009
   16.39472198  196.81300354    0.50000000    2.89000010
   16.39777756  204.66000366    0.51999998    2.89000010
   16.40111160  193.30900574    0.51999998    2.89000010
   16.40416718  175.70899963    0.51999998    2.89000010
   16.41027832  175.70899963    0.51999998    2.89000010
   16.41444397  194.88800049    0.52999997    2.89000010
   16.41777802  198.86099243    0.56999999    2.89000010
   16.42111015  198.81799316    0.58999997    2.89000010
   16.42416573  205.88299561    0.55000001    2.91000009
   16.42749977  200.84300232    0.56999999    2.91000009
   16.43055534  179.50900269    0.64999998    2.89000010
   16.43388748  189.62899780    0.75000000    2.89000010
   16.43722153  178.83200073    0.75000000    2.91000009
   16.44027710  197.18600464    0.76999998    2.91000009
   16.44277763  186.66900635    0.73000002    2.91000009
   16.44388771  153.62500000    0.73000002    2.91000009
   16.44722176  170.77000427    0.80000001    2.89000010
   16.45305634  170.77000427    0.86000001    2.89000010
   16.45722389  174.25399780    0.81999999    2.89000010
   16.46055603  189.00900269    0.89999998    2.89000010
   16.46389008  178.03199768    0.83999997    2.89000010
   16.46694565  188.28100586    0.83999997    2.89000010
   16.47027779  190.61399841    0.92000002    2.89000010
   16.47361183  180.83999634    0.81999999    2.91000009
   16.47611237  181.19799805    0.58999997    2.89000010
   16.47694588  168.78100586    0.58999997    2.89000010
   16.48027802  173.83299255    0.58999997    2.89000010
   16.48361206  181.32000732    0.58999997    2.89000010
   16.48666763  180.89900208    0.58999997    2.89000010
   16.48999977  182.92799377    0.55000001    2.89000010
   16.49611092  182.92799377    0.55000001    2.89000010
   16.50000000  177.44400024    0.52999997    2.89000010
   16.50333405  176.27900696    0.52999997    2.91000009
   16.50666618  171.92399597    0.55000001    2.89000010
   16.50944519  176.69200134    0.51999998    2.89000010
   16.51000023  164.73199463    0.51999998    2.89000010
   16.51333427  175.87100220    0.51999998    2.89000010
   16.51666641  163.24299622    0.51999998    2.91000009
   16.51972198  161.10899353    0.51999998    2.89000010
   16.52305603  174.33799744    0.51999998    2.89000010
   16.52638817  174.91999817    0.52999997    2.89000010
   16.52944374  165.06599426    0.52999997    2.89000010
   16.53277779  171.92399597    0.52999997    2.91000009
   16.53888893  171.92399597    0.52999997    2.91000009
   16.54305458  175.22999573    0.55000001    2.89000010
   16.54611015  171.32699585    0.56999999    2.89000010
   16.54944420  172.27499390    0.58999997    2.89000010
   16.55277634  201.07099915    0.58999997    2.89000010
   16.55583191  182.66499329    0.55000001    2.89000010
   16.55916595  215.58500671    0.55000001    2.89000010
   16.56222153  217.10899353    0.55000001    2.89000010
   16.56555557  195.69700623    0.52999997    2.91000009
   16.56888962  207.69000244    0.55000001    2.91000009
   16.57194519  189.62899780    0.55000001    2.89000010
   16.57527924  176.96299744    0.55000001    2.89000010
   16.57611275  163.70100403    0.55000001    2.89000010
   16.58166695  163.70100403    0.55000001    2.89000010
   16.58583450  155.63900757    0.55000001    2.89000010
   16.58916664  157.36700439    0.55000001    2.89000010
   16.59222221  161.59899902    0.58999997    2.89000010
   16.59555626  157.57499695    0.58999997    2.89000010
   16.59861183  158.49200439    0.58999997    2.89000010
   16.60194397  164.35099792    0.58999997    2.89000010
   16.60527802  163.32299805    0.58999997    2.91000009
   16.60833359  151.80099487    0.58999997    2.89000010
   16.60944557  162.83399963    0.58999997    2.89000010
   16.61194420  159.06700134    0.58999997    2.89000010
   16.61527824  167.36199951    0.61000001    2.91000009
   16.61861038  167.81300354    0.55000001    2.89000010
   16.62472153  167.81300354    0.55000001    2.89000010
   16.62861061  145.62800598    0.55000001    2.89000010
   16.63194466  159.56500244    0.55000001    2.91000009
   16.63527679  156.85400391    0.56999999    2.89000010
   16.63833237  163.36500549    0.56999999    2.89000010
   16.64166641  153.55799866    0.69000000    2.89000010
   16.64277840  163.39300537    0.69000000    2.89000010
   16.64527702  150.08599854    0.79000002    2.89000010
   16.64833260  160.07699585    0.76999998    2.89000010
   16.65166664  148.45899963    0.75000000    2.89000010
   16.65472221  160.48199463    0.63000000    2.89000010
   16.65805435  152.88499451    0.63000000    2.89000010
   16.66138840  147.80200195    0.51999998    2.89000010
   16.66749954  147.80200195    0.61000001    2.89000010
   16.67138863  149.73399353    0.61000001    2.89000010
   16.67472076  145.38200378    0.67000002    2.89000010
   16.67611122  148.86199951    0.61000001    2.89000010
   16.67833328  157.17399597    0.58999997    2.91000009
   16.68166542  146.70899963    0.56999999    2.91000009
   16.68499947  152.74899292    0.56999999    2.89000010
   16.68805504  149.10699463    0.56999999    2.89000010
   16.69138718  147.94900513    0.56999999    2.91000009
   16.69472122  155.99600220    0.56999999    2.91000009
   16.69777679  149.77799988    0.56999999    2.89000010
   16.70111275  152.88299561    0.56999999    2.89000010
   16.70416832  157.03199768    0.56999999    2.89000010
   16.71027946  157.03199768    0.56999999    2.89000010
   16.71444511  158.71800232    0.56999999    2.89000010
   16.71750069  153.39399719    0.56999999    2.89000010
   16.72083473  161.19500732    0.56999999    2.89000010
   16.72416687  157.84300232    0.61000001    2.89000010
   16.72722244  151.10899353    0.61000001    2.89000010
   16.73055649  153.63600159    0.61000001    2.89000010
   16.73388863  149.56900024    0.58999997    2.89000010
   16.73694420  149.61000061    0.63000000    2.86999989
   16.74027824  159.55000305    0.64999998    2.89000010
   16.74277878  150.21899414    0.64999998    2.89000010
   16.74388885  149.44999695    0.64999998    2.91000009
   16.74694443  157.71600342    0.64999998    2.91000009
   16.75305557  157.71600342    0.64999998    2.89000010
   16.75722313  151.32400513    0.67000002    2.89000010
   16.76055527  149.75500488    0.67000002    2.89000010
   16.76361084  148.53999329    0.69000000    2.89000010
   16.76694489  154.77400208    0.67000002    2.89000010
   16.77000046  149.29200745    0.69000000    2.89000010
   16.77333260  155.16400146    0.69000000    2.89000010
   16.77611160  157.24499512    0.73000002    2.89000010
   16.77722168  153.24299622    0.69000000    2.89000010
   16.78027725  151.95700073    0.67000002    2.89000010
   16.78361130  155.55900574    0.67000002    2.89000010
   16.78666687  153.23399353    0.67000002    2.89000010
   16.78999901  153.38699341    0.67000002    2.89000010
   16.79583359  153.38699341    0.67000002    2.89000010
   16.79999924  150.87300110    0.69000000    2.89000010
   16.80333328  143.93299866    0.70999998    2.89000010
   16.80638885  150.28399658    0.70999998    2.89000010
   16.80944443  152.54600525    0.73000002    2.89000010
   16.81027794  155.98500061    0.73000002    2.89000010
   16.81333351  155.81500244    0.73000002    2.89000010
   16.81666756  153.19900513    0.73000002    2.89000010
   16.81972313  151.83200073    0.80000001    2.89000010
   16.82305717  151.19799805    0.81999999    2.91000009
   16.82638931  148.52900696    0.75000000    2.89000010
   16.82944489  137.75300598    0.75000000    2.89000010
   16.83277893  157.94099426    0.76999998    2.86999989
   16.83889008  157.94099426    0.73000002    2.89000010
   16.84277916  150.35200500    0.73000002    2.89000010
   16.84611130  142.59700012    0.73000002    2.89000010
   16.84944534  148.13000488    0.76999998    2.86999989
   16.85250092  152.91400146    0.76999998    2.89000010
   16.85583305  155.22900391    0.79000002    2.91000009
   16.85916710  157.89300537    0.79000002    2.91000009
   16.86222267  153.52000427    0.76999998    2.89000010
   16.86555672  156.77999878    0.79000002    2.89000010
   16.86861038  151.16900635    0.75000000    2.89000010
   16.87194443  166.55599976    0.76999998    2.89000010
   16.87527847  160.31500244    0.79000002    2.89000010
   16.87611198  153.70399475    0.79000002    2.89000010
   16.89666748  153.70399475    0.73000002    2.86999989
   16.90083313  157.36300659    0.70999998    2.89000010
   16.90416718  162.35699463    0.70999998    2.89000010
   16.90722275  161.51800537    0.69000000    2.89000010
   16.90944481  162.45899963    0.69000000    2.89000010
   16.91110992  163.47500610    0.69000000    2.89000010
   16.91416550  171.76499939    0.69000000    2.89000010
   16.91749954  163.53999329    0.67000002    2.86999989
   16.92083359  161.13299561    0.69000000    2.89000010
   16.92388916  172.06799316    0.69000000    2.89000010
   16.92722130  166.34800720    0.67000002    2.86999989
   16.93055534  166.62300110    0.64999998    2.91000009
   16.93361092  161.56900024    0.63000000    2.89000010
   16.93944359  161.56900024    0.63000000    2.89000010
   16.94361115  160.04200745    0.61000001    2.89000010
   16.94694328  165.83599854    0.64999998    2.89000010
   16.95000076  155.33599854    0.64999998    2.89000010
   16.95333481  154.39300537    0.64999998    2.89000010
   16.95666695  160.56199646    0.64999998    2.89000010
   16.95972252  150.61199951    0.69000000    2.89000010
   16.96305656  155.62600708    0.67000002    2.89000010
   16.96611214  150.99499512    0.67000002    2.86999989
   16.96944427  163.31799316    0.67000002    2.86999989
   16.97277832  167.00000000    0.67000002    2.89000010
   16.97583389  167.01600647    0.69000000    2.86999989
   16.97638893  162.76300049    0.69000000    2.86999989
   16.98250008  162.76300049    0.70999998    2.89000010
   16.98638916  162.84899902    0.70999998    2.89000010
   16.98972321  157.42399597    0.79000002    2.89000010
   16.99305534  173.14799500    0.81999999    2.89000010
   16.99611092  173.74000549    0.81999999    2.89000010
   16.99944496  174.32299805    0.80000001    2.89000010
   17.00277710  170.66400146    0.79000002    2.89000010
   17.00583267  182.77299500    0.79000002    2.89000010
   17.00916672  185.28900146    0.79000002    2.89000010
   17.00972176  186.66900635    0.79000002    2.89000010
   17.01277733  196.25700378    0.76999998    2.86999989
   17.01611137  175.32600403    0.79000002    2.89000010
   17.01916695  172.80299377    0.76999998    2.89000010
   17.02527809  172.80299377    0.75000000    2.89000010
   17.02944374  181.89300537    0.75000000    2.89000010
   17.03249931  182.77699280    0.73000002    2.89000010
   17.03583336  166.07299805    0.75000000    2.86999989
   17.03916550  188.43899536    0.75000000    2.89000010
   17.04222107  185.35299683    0.75000000    2.89000010
   17.04305458  180.61300659    0.75000000    2.89000010
   17.04583359  173.22099304    0.75000000    2.89000010
   17.04916573  176.55400085    0.76999998    2.89000010
   17.05222130  171.13400269    0.76999998    2.86999989
   17.05555534  178.15600586    0.76999998    2.89000010
   17.05861092  176.41499329    0.76999998    2.89000010
   17.06194305  178.17399597    0.83999997    2.86999989
   17.06805611  178.17399597    0.86000001    2.89000010
   17.07222366  183.85299683    0.86000001    2.86999989
   17.07527924  174.04299927    1.01999998    2.86999989
   17.07638931  169.07000732    1.01999998    2.89000010
   17.07916832  189.45700073    1.03999996    2.86999989
   17.08250046  176.34800720    1.05999994    2.89000010
   17.08555603  178.85600281    1.00000000    2.89000010
   17.08889008  176.32000732    0.98000002    2.86999989
   17.09194565  165.76499939    0.95999998    2.86999989
   17.09527779  165.64300537    0.95999998    2.86999989
   17.09861183  179.14700317    1.00000000    2.89000010
   17.10166740  161.70300293    0.98000002    2.86999989
   17.10499954  158.50199890    0.98000002    2.86999989
   17.11083412  158.50199890    1.00000000    2.86999989
   17.11499977  166.23500061    0.98000002    2.89000010
   17.11833382  167.24800110    0.98000002    2.89000010
   17.12138939  179.49200439    1.01999998    2.89000010
   17.12472153  155.92999268    1.16999996    2.86999989
   17.12805557  160.45100403    1.34000003    2.86999989
   17.13111115  153.51699829    1.25000000    2.86999989
   17.13444519  160.80999756    1.07000005    2.86999989
   17.13750076  161.55299377    1.07000005    2.86999989
   17.14083290  166.07400513    1.00000000    2.86999989
   17.14305496  154.99600220    1.03999996    2.86999989
   17.14444351  168.78199768    1.05999994    2.86999989
   17.14777756  164.32400513    1.05999994    2.86999989
   17.15361023  164.32400513    1.13000000    2.86999989
   17.15777779  168.97599792    1.13000000    2.86999989
   17.16110992  145.30700684    1.16999996    2.86999989
   17.16444397  167.13600159    1.19000006    2.89000010
   17.16749954  155.11700439    1.23000002    2.86999989
   17.17083359  153.49099731    1.21000004    2.86999989
   17.17388916  165.92999268    1.14999998    2.86999989
   17.17638779  158.02499390    1.11000001    2.86999989
   17.17777634  171.37199402    1.11000001    2.86999989
   17.18111038  160.28700256    1.14999998    2.86999989
   17.18416595  159.73399353    1.16999996    2.89000010
   17.18750000  159.57200623    1.21000004    2.86999989
   17.19055557  165.31599426    1.16999996    2.86999989
   17.19666672  165.31599426    1.16999996    2.86999989
   17.20083427  157.68899536    1.09000003    2.86999989
   17.20388985  155.85400391    1.09000003    2.86999989
   17.20722389  160.68899536    1.11000001    2.86999989
   17.20972252  156.00199890    1.11000001    2.86999989
   17.21083450  154.52699280    1.13000000    2.89000010
   17.21416664  164.16700745    1.11000001    2.86999989
   17.21722221  169.88800049    1.11000001    2.86999989
   17.22055626  161.08999634    1.13000000    2.86999989
   17.22389030  162.55799866    1.14999998    2.89000010
   17.22694588  139.35000610    1.11000001    2.86999989
   17.23027802  143.08700562    1.11000001    2.86999989
   17.23333359  152.06799316    1.11000001    2.86999989
   17.23944473  152.06799316    1.13000000    2.86999989
   17.24361229  154.33000183    1.13000000    2.86999989
   17.24666786  156.78100586    1.13000000    2.86999989
   17.25000000  162.49899292    1.13000000    2.86999989
   17.25333405  160.52499390    1.14999998    2.86999989
   17.25638962  147.78999329    1.16999996    2.86999989
   17.25972176  159.10699463    1.16999996    2.86999989
   17.26277733  163.05000305    1.16999996    2.86999989
   17.26611137  156.04800415    1.16999996    2.86999989
   17.26944351  154.06300354    1.19000006    2.86999989
   17.27249908  156.76899719    1.21000004    2.89000010
   17.27583313  152.89700317    1.19000006    2.86999989
   17.27638817  160.41799927    1.19000006    2.86999989
   17.28222275  160.41799927    1.16999996    2.86999989
   17.28638840  150.09700012    1.16999996    2.86999989
   17.28972244  157.80799866    1.16999996    2.86999989
   17.29277802  151.37100220    1.16999996    2.86999989
   17.29611015  146.47700500    1.16999996    2.86999989
   17.29916573  153.61199951    1.14999998    2.86999989
   17.30249977  156.77400208    1.13000000    2.86999989
   17.30583191  157.63299561    1.13000000    2.86999989
   17.30888748  153.30900574    1.19000006    2.89000010
   17.30972099  152.38299561    1.23000002    2.86999989
   17.31250000  152.68200684    1.26999998    2.86999989
   17.31583214  153.41400146    1.36000001    2.86999989
   17.31888962  149.10699463    1.38000000    2.86999989
   17.32500076  149.10699463    1.48000002    2.86999989
   17.32916832  148.09599304    1.60000002    2.86999989
   17.33250046  143.90100098    1.60000002    2.86999989
   17.33555603  141.60800171    1.60000002    2.86999989
   17.33889008  150.95700073    1.61000001    2.86999989
   17.34222221  145.58599854    1.61000001    2.86999989
   17.34305573  151.67599487    1.61000001    2.86999989
   17.34583473  157.40299988    1.51999998    2.86999989
   17.34916687  152.86000061    1.44000006    2.86999989
   17.35222244  147.49699402    1.38000000    2.86999989
   17.35555649  159.59500122    1.53999996    2.86999989
   17.35888863  157.41900635    1.53999996    2.86999989
   17.36194420  161.50199890    1.53999996    2.86999989
   17.36805534  161.50199890    1.60000002    2.89000010
   17.37194443  148.03199768    1.58000004    2.86999989
   17.37527847  167.96600342    1.61000001    2.86999989
   17.37638855  152.05599976    1.88000000    2.86999989
   17.37888908  151.40899658    1.94000006    2.86999989
   17.38222313  161.40100098    2.53999996    2.86999989
   17.38527679  147.93299866    2.75000000    2.86999989
   17.38861084  154.19200134    2.73000002    2.86999989
   17.39194489  161.92599487    2.93000007    2.84999990
   17.39500046  157.61199951    2.67000008    2.84999990
   17.39833260  153.56599426    2.73000002    2.86999989
   17.40138817  153.60200500    2.57999992    2.86999989
   17.40472221  155.71000671    2.42000008    2.86999989
   17.41083336  155.71000671    2.34999990    2.86999989
   17.41499901  161.52299500    2.57999992    2.84999990
   17.41805458  162.63099670    2.19000006    2.86999989
   17.42138863  157.91600037    2.44000006    2.86999989
   17.42472076  153.18299866    2.64000010    2.86999989
   17.42777634  147.38200378    2.57999992    2.86999989
   17.43111038  163.86999512    2.57999992    2.84999990
   17.43416595  163.11700439    2.23000002    2.86999989
   17.43750000  155.83299255    2.09999990    2.86999989
   17.44083214  166.84100342    2.13000011    2.86999989
   17.44305420  159.96499634    2.19000006    2.86999989
   17.44444275  167.16299438    2.26999998    2.86999989
   17.44777679  162.76699829    2.32999992    2.86999989
   17.45361137  162.76699829    2.23000002    2.86999989
   17.45777893  156.07299805    2.46000004    2.86999989
   17.46111107  164.98300171    2.66000009    2.84999990
   17.46416664  169.47999573    2.64000010    2.84999990
   17.46750069  161.66099548    2.80999994    2.84999990
   17.47055626  172.46899414    2.93000007    2.84999990
   17.47389030  157.60299683    2.86999989    2.84999990
   17.47638893  166.80200195    2.84999990    2.86999989
   17.47750092  164.74200439    2.76999998    2.86999989
   17.48083305  165.89300537    2.71000004    2.86999989
   17.48388863  164.11900330    2.59999990    2.86999989
   17.48722267  160.60000610    2.67000008    2.84999990
   17.49055672  167.97599792    2.76999998    2.84999990
   17.49638939  167.97599792    2.69000006    2.86999989
   17.50055504  165.42700195    2.96000004    2.84999990
   17.50388908  162.82099915    3.16000009    2.84999990
   17.50694466  161.92900085    3.45000005    2.84999990
   17.50972176  170.45100403    3.76999998    2.84999990
   17.51055527  158.97500610    3.76999998    2.84999990
   17.51388931  164.66099548    3.95000005    2.84999990
   17.51722145  176.01899719    3.82999992    2.84999990
   17.52027702  170.30499268    3.82999992    2.84999990
   17.52361107  158.91200256    3.80999994    2.84999990
   17.52666664  161.08000183    3.86999989    2.84999990
   17.53000069  157.85000610    4.11999989    2.82999992
   17.53333282  169.43299866    4.36999989    2.84999990
   17.53944397  169.43299866    4.90999985    2.82999992
   17.54333305  156.82400513    4.90999985    2.82999992
   17.54666710  156.65400696    4.90999985    2.82999992
   17.54999924  164.69000244    4.90999985    2.84999990
   17.55305481  164.45899963    4.90999985    2.82999992
   17.55638885  162.40800476    4.90999985    2.82999992
   17.55972099  158.64799500    4.90999985    2.82999992
   17.56277657  163.86999512    4.80000019    2.82999992
   17.56611061  155.31500244    4.71999979    2.82999992
   17.56916809  171.39399719    4.53999996    2.82999992
   17.57250023  164.09899902    4.46999979    2.84999990
   17.57583427  167.80099487    4.57999992    2.82999992
   17.57666779  167.31799316    4.57999992    2.82999992
   17.58222389  167.31799316    4.51000023    2.82999992
   17.58638954  160.66400146    4.86999989    2.82999992
   17.58944511  181.13000488    4.90999985    2.82999992
   17.59277916  171.05099487    4.76000023    2.82999992
   17.59611130  167.43600464    4.53000021    2.82999992
   17.59916687  177.20899963    4.11999989    2.84999990
   17.60250092  178.84199524    4.26000023    2.84999990
   17.60583305  166.33799744    4.51000023    2.82999992
   17.60888863  174.63400269    4.73999977    2.82999992
   17.61000061  175.84800720    4.80000019    2.82999992
   17.61250114  184.91999817    4.82999992    2.82999992
   17.61583328  168.94000244    4.90999985    2.80999994
   17.61888885  173.53700256    4.90999985    2.82999992
   17.62500000  173.53700256    4.73999977    2.82999992
   17.62916756  185.50799561    4.73999977    2.82999992
   17.63249969  184.85400391    4.55999994    2.82999992
   17.63555527  184.72300720    4.55999994    2.82999992
   17.63888931  184.77200317    4.71999979    2.82999992
   17.64194489  177.45199585    4.90999985    2.82999992
   17.64333344  189.29699707    4.90999985    2.82999992
   17.64555550  187.45100403    4.90999985    2.80999994
   17.64888954  189.03900146    4.90999985    2.82999992
   17.65194321  188.36799622    4.90999985    2.82999992
   17.65527725  184.19099426    4.90999985    2.82999992
   17.65861130  188.36900330    4.90999985    2.82999992
   17.66166687  176.74600220    4.69999981    2.82999992
   17.66777802  176.74600220    4.09999990    2.84999990
   17.67194366  179.88800049    3.86999989    2.84999990
   17.67527771  166.48800659    3.93000007    2.84999990
   17.67666626  174.40199280    3.99000001    2.84999990
   17.67888832  172.91900635    4.07999992    2.84999990
   17.68222237  196.31199646    3.99000001    2.84999990
   17.68527603  173.99400330    4.15999985    2.84999990
   17.68861008  181.57600403    4.19999981    2.84999990
   17.69194412  177.44400024    3.78999996    2.84999990
   17.69499969  167.24600220    3.68000007    2.86999989
   17.69833183  171.36999512    3.66000009    2.84999990
   17.70166779  162.76100159    3.66000009    2.84999990
   17.70472336  180.87399292    3.82999992    2.84999990
   17.71083450  180.87399292    3.93000007    2.84999990
   17.71472359  170.42900085    4.23999977    2.82999992
   17.71805573  178.89399719    4.44999981    2.84999990
   17.72138977  164.86799622    4.67999983    2.82999992
   17.72444534  173.33000183    4.90999985    2.82999992
   17.72777748  148.75900269    4.76000023    2.82999992
   17.73111153  175.31799316    4.90999985    2.82999992
   17.73416710  173.25199890    4.90999985    2.76999998
   17.73750114  185.65299988    4.90999985    2.76999998
   17.74055672  170.34700012    4.90999985    2.75000000
   17.74333382  170.14700317    4.90999985    2.75000000
   17.74416733  176.63800049    4.90999985    2.76999998
   17.74749947  166.30099487    4.90999985    2.80999994
   17.75361061  166.30099487    4.90999985    2.80999994
   17.75777817  151.59300232    4.90999985    2.82999992
   17.76083374  164.56100464    4.90999985    2.82999992
   17.76416588  160.86700439    4.90999985    2.82999992
   17.76749992  180.51400757    4.90999985    2.80999994
   17.77055550  178.25700378    4.90999985    2.80999994
   17.77388954  160.14199829    4.90999985    2.80999994
   17.77666664  167.13299561    4.90999985    2.82999992
   17.77750015  167.02799988    4.90999985    2.80999994
   17.78083229  170.07800293    4.90999985    2.80999994
   17.78416634  155.70700073    4.73999977    2.82999992
   17.78722191  183.77400208    4.48999977    2.82999992
   17.79055595  159.69700623    4.44999981    2.82999992
   17.79638863  159.69700623    4.03999996    2.82999992
   17.80055428  177.55099487    4.15999985    2.82999992
   17.80388832  171.16799927    4.44999981    2.82999992
   17.80694389  159.69400024    4.34999990    2.84999990
   17.80999947  156.85200500    4.67999983    2.82999992
   17.81055450  160.74000549    4.61999989    2.84999990
   17.81388855  164.83700562    4.71999979    2.82999992
   17.81722260  168.38699341    4.67999983    2.82999992
   17.82027817  170.42999268    4.80999994    2.82999992
   17.82361221  171.14999390    4.90999985    2.80999994
   17.82666779  171.55599976    4.90999985    2.82999992
   17.83000183  166.19400024    4.90999985    2.82999992
   17.83333397  165.38400269    4.90999985    2.82999992
   17.83916664  165.38400269    4.57999992    2.82999992
   17.84333420  166.10200500    4.23999977    2.82999992
   17.84666824  169.04800415    4.03999996    2.82999992
   17.84972191  170.29400635    4.05999994    2.84999990
   17.85305595  161.05799866    4.90999985    2.80999994
   17.85639000  160.78999329    4.90999985    2.80999994
   17.85944557  176.72999573    4.90999985    2.82999992
   17.86277771  154.76300049    4.90999985    2.82999992
   17.86611176  155.30400085    3.86999989    2.82999992
   17.86916733  148.85600281    3.72000003    2.84999990
   17.87249947  179.77299500    3.91000009    2.82999992
   17.87555504  166.70399475    4.73999977    2.82999992
   17.87666702  160.33599854    4.82999992    2.82999992
   17.88222313  160.33599854    4.90999985    2.80999994
   17.88611031  163.74200439    4.90999985    2.80999994
   17.88944435  171.76499939    4.90999985    2.82999992
   17.89277840  161.63400269    4.90999985    2.80999994
   17.91027832  167.03999329    4.90999985    2.80999994
   17.91250038  166.33099365    4.90999985    2.80999994
   17.91583252  165.08900452    4.90999985    2.80999994
   17.91916656  167.77999878    4.90999985    2.82999992
   17.92499924  167.77999878    4.63999987    2.82999992
   17.92916679  161.46499634    4.55999994    2.82999992
   17.93249893  163.69500732    4.53999996    2.82999992
   17.93583298  153.02600098    4.40999985    2.82999992
   17.93888855  160.86700439    4.32999992    2.82999992
   17.94222069  160.90899658    4.40999985    2.82999992
   17.94333267  165.47900391    4.48999977    2.82999992
   17.94583321  174.57099915    4.51000023    2.82999992
   17.94916534  168.55000305    4.59999990    2.82999992
   17.95250130  164.55400085    4.46999979    2.82999992
   17.95555687  180.77699280    4.21999979    2.82999992
   17.95888901  160.70199585    4.05999994    2.82999992
   17.96194458  165.23599243    4.03999996    2.82999992
   17.96805573  165.23599243    4.07999992    2.82999992
   17.97222328  166.21099854    3.95000005    2.82999992
   17.97527885  179.30200195    3.84999990    2.84999990
   17.97694588  164.14700317    3.89000010    2.82999992
   17.97888947  165.35899353    3.97000003    2.82999992
   17.98222351  171.09300232    3.91000009    2.82999992
   17.98527718  177.47799683    4.46999979    2.82999992
   17.98861122  176.21400452    4.57999992    2.82999992
   17.99194527  180.64300537    4.53000021    2.80999994
   17.99500084  176.90100098    4.61999989    2.82999992
   17.99833298  180.17599487    4.90999985    2.80999994
   18.00166702  170.36799622    4.90999985    2.80999994
   18.00472260  168.35699463    4.90999985    2.82999992
   18.01083374  168.35699463    4.90999985    2.80999994
   18.01499939  167.30499268    4.90999985    2.80999994
   18.01805496  166.42100525    4.90999985    2.80999994
   18.02138901  171.97399902    4.90999985    2.80999994
   18.02472115  168.75399780    4.80000019    2.82999992
   18.02805519  172.81399536    4.26999998    2.82999992
   18.03111076  173.24200439    3.97000003    2.82999992
   18.03444481  160.22200012    4.23999977    2.82999992
   18.03750038  173.16600037    4.19999981    2.80999994
   18.04083252  167.88299561    4.03999996    2.82999992
   18.04361153  167.62300110    4.03999996    2.82999992
   18.04444313  161.13999939    4.19999981    2.82999992
   18.04777718  158.73800659    4.46999979    2.80999994
   18.05360985  158.73800659    4.90999985    2.80999994
   18.05777740  168.95500183    4.90999985    2.80999994
   18.06110954  167.44599915    4.90999985    2.80999994
   18.06416512  174.66799927    4.90999985    2.80999994
   18.06750107  174.58000183    4.90999985    2.80999994
   18.07083511  179.35200500    4.90999985    2.82999992
   18.07389069  183.38299561    4.90999985    2.80999994
   18.07694626  171.13699341    4.90999985    2.80999994
   18.07750130  171.78599548    4.88999987    2.82999992
   18.08083344  177.18200684    4.67999983    2.80999994
   18.08388901  174.23199463    4.44999981    2.80999994
   18.08722305  167.61000061    4.32999992    2.82999992
   18.09055710  155.96099854    4.30999994    2.82999992
   18.09638977  155.96099854    4.23999977    2.80999994
   18.10055542  172.87600708    4.07999992    2.82999992
   18.10388947  158.05299377    4.03999996    2.82999992
   18.10722351  170.35800171    4.03999996    2.82999992
   18.11027908  173.63600159    4.11999989    2.80999994
   18.11055565  188.52000427    4.11999989    2.80999994
   18.11388969  180.85200500    4.32999992    2.80999994
   18.11722183  172.10699463    4.26999998    2.80999994
   18.12027740  169.44599915    4.03999996    2.82999992
   18.12361145  186.13200378    3.89000010    2.80999994
   18.12694550  186.43499756    3.72000003    2.80999994
   18.13000107  179.98800659    3.76999998    2.82999992
   18.13333321  177.80299377    3.66000009    2.82999992
   18.13944435  177.80299377    3.59999990    2.82999992
   18.14361191  174.57099915    3.73000002    2.82999992
   18.14666748  167.67799377    4.30999994    2.82999992
   18.14999962  168.58999634    4.44999981    2.82999992
   18.15305519  175.78500366    4.38999987    2.82999992
   18.15638924  178.57800293    4.48999977    2.80999994
   18.15972137  168.13800049    4.73999977    2.80999994
   18.16277695  180.18099976    4.65999985    2.80999994
   18.16611099  176.60499573    4.57999992    2.82999992
   18.16944313  172.85600281    4.36999989    2.80999994
   18.17249870  167.28900146    4.40999985    2.80999994
   18.17583275  179.36900330    4.42999983    2.82999992
   18.17694473  168.29899597    4.44999981    2.80999994
   18.18222237  168.29899597    4.53000021    2.80999994
   18.18666649  180.69200134    4.48999977    2.82999992
   18.18999863  174.72700500    4.19999981    2.82999992
   18.19305420  178.46800232    4.07999992    2.82999992
   18.19638824  170.80900574    3.93000007    2.82999992
   18.19944382  172.91999817    3.97000003    2.82999992
   18.20277786  176.08900452    4.07999992    2.80999994
   18.20611191  176.94900513    4.00000000    2.82999992
   18.20916748  165.13800049    4.00000000    2.82999992
   18.21027946  165.85000610    3.97000003    2.82999992
   18.21277809  164.04100037    3.86999989    2.82999992
   18.21611214  171.03900146    3.57999992    2.82999992
   18.21944427  164.66600037    3.46000004    2.82999992
   18.22500038  164.66600037    3.23000002    2.82999992
   18.22916794  165.05900574    3.25000000    2.82999992
   18.23250008  164.23800659    3.05999994    2.82999992
   18.23555565  169.77900696    2.76999998    2.82999992
   18.23888969  165.38600159    2.50000000    2.82999992
   18.24222183  169.81500244    2.53999996    2.82999992
   18.24361229  169.91700745    2.50000000    2.84999990
   18.24555588  175.49000549    2.55999994    2.84999990
   18.24888992  166.93200684    2.32999992    2.84999990
   18.25222206  169.36799622    2.21000004    2.84999990
   18.25527763  174.54899597    2.11999989    2.84999990
   18.25861168  169.47300720    2.05999994    2.84999990
   18.26166725  168.71800232    1.85000002    2.84999990
   18.26777840  168.71800232    1.63000000    2.82999992
   18.27194405  170.68899536    1.73000002    2.82999992
   18.27527809  173.42900085    1.80999994    2.84999990
   18.27694511  165.37199402    1.85000002    2.82999992
   18.27888870  163.23100281    1.80999994    2.84999990
   18.28222275  168.10499573    1.89999998    2.84999990
   18.28555489  168.31599426    1.75000000    2.82999992
   18.28861046  179.71299744    1.66999996    2.84999990
   18.29194450  171.12300110    1.53999996    2.84999990
   18.29500008  180.37899780    1.51999998    2.82999992
   18.29833221  170.42199707    1.61000001    2.84999990
   18.30166626  178.70500183    1.38000000    2.82999992
   18.30472183  182.80799866    1.34000003    2.84999990
   18.31083298  182.80799866    1.30999994    2.84999990
   18.31472206  187.82200623    1.25000000    2.84999990
   18.31805611  177.04899597    1.19000006    2.84999990
   18.32139015  191.28300476    1.09000003    2.84999990
   18.32444572  183.21800232    1.11000001    2.84999990
   18.32777786  175.98199463    1.09000003    2.84999990
   18.33111191  180.59599304    1.09000003    2.84999990
   18.33416748  172.37600708    1.09000003    2.84999990
   18.33750153  163.96499634    1.09000003    2.84999990
   18.34055710  173.55400085    1.11000001    2.84999990
   18.34361267  166.93299866    1.11000001    2.84999990
   18.34444427  172.90100098    1.11000001    2.84999990
   18.34749985  172.97999573    1.23000002    2.84999990
   18.35361099  172.97999573    3.32999992    2.82999992
   18.35777855  178.10000610    4.19999981    2.80999994
   18.36083412  174.76199341    4.32999992    2.80999994
   18.36416626  180.22799683    3.91000009    2.80999994
   18.36750031  175.75100708    3.45000005    2.80999994
   18.37055588  180.31300354    3.48000002    2.80999994
   18.37388992  183.16799927    3.72000003    2.80999994
   18.37694550  176.41400146    4.19999981    2.80999994
   18.37750053  178.29200745    4.42999983    2.80999994
   18.38083267  171.70300293    4.90999985    2.78999996
   18.38416672  180.57600403    4.90999985    2.78999996
   18.38722229  177.03500366    4.82999992    2.78999996
   18.39055634  171.19299316    4.73999977    2.78999996
   18.39638901  171.19299316    4.13999987    2.80999994
   18.40055466  172.18800354    3.78999996    2.80999994
   18.40388870  158.10200500    3.70000005    2.80999994
   18.40694427  165.40499878    3.66000009    2.80999994
   18.41027832  170.28799438    3.89000010    2.80999994
   18.41055489  178.08099365    3.89000010    2.80999994
   18.41388893  169.28599548    4.34999990    2.80999994
   18.41749954  168.67500305    4.42999983    2.80999994
   18.42055511  169.42599487    4.48999977    2.78999996
   18.42388916  173.85800171    4.78000021    2.78999996
   18.42722130  166.38000488    4.65999985    2.80999994
   18.43027687  174.99299622    4.13999987    2.80999994
   18.43361092  169.33399963    3.95000005    2.82999992
   18.43916512  169.33399963    3.99000001    2.80999994
   18.44333267  178.53900146    3.93000007    2.80999994
   18.44388771  170.94500732    3.93000007    2.80999994
   18.44722176  174.72099304    4.07999992    2.80999994
   18.45055580  172.23599243    4.15999985    2.80999994
   18.45361137  171.83299255    4.53000021    2.80999994
   18.45694542  169.04499817    4.65999985    2.80999994
   18.46000099  172.62800598    4.80000019    2.80999994
   18.46333504  166.62600708    4.73999977    2.78999996
   18.46666718  173.80999756    4.80000019    2.78999996
   18.46972275  175.04800415    4.78000021    2.78999996
   18.47305679  168.29200745    4.57999992    2.78999996
   18.47638893  178.97599792    4.73999977    2.80999994
   18.47722244  179.52099609    4.80000019    2.78999996
   18.48222351  179.52099609    4.84999990    2.80999994
   18.48611069  171.33500671    4.57999992    2.80999994
   18.48944473  173.95399475    4.65999985    2.80999994
   18.49277878  173.12500000    4.73999977    2.80999994
   18.49583435  179.76400757    4.59999990    2.80999994
   18.49916649  179.47000122    4.28999996    2.80999994
   18.50250053  170.92599487    4.32999992    2.78999996
   18.50555611  175.12600708    4.07999992    2.80999994
   18.50888824  175.13099670    3.75000000    2.80999994
   18.51055527  176.88800049    3.48000002    2.82999992
   18.51250076  171.18499756    3.34999990    2.80999994
   18.51555634  171.99800110    3.07999992    2.80999994
   18.51888847  168.16400146    3.00000000    2.82999992
   18.52499962  168.16400146    2.93000007    2.82999992
   18.52916718  172.96800232    2.36999989    2.82999992
   18.53222275  172.02999878    1.83000004    2.84999990
   18.53555489  168.94799805    1.63000000    2.82999992
   18.53888893  175.51100159    1.46000004    2.82999992
   18.54194450  180.44999695    1.36000001    2.82999992
   18.54388809  166.50300598    1.39999998    2.82999992
   18.54583359  166.96699524    1.39999998    2.84999990
   18.54888916  178.56100464    1.53999996    2.82999992
   18.55222130  190.30499268    1.63000000    2.82999992
   18.55555534  179.12100220    1.75000000    2.82999992
   18.55861092  172.19599915    1.73000002    2.82999992
   18.56194305  177.00399780    1.71000004    2.82999992
   18.56777954  177.00399780    1.55999994    2.82999992
   18.57194519  188.05799866    1.58000004    2.84999990
   18.57527924  186.62300110    1.53999996    2.82999992
   18.57750130  185.63699341    1.66999996    2.82999992
   18.57888985  174.04400635    1.66999996    2.82999992
   18.58222389  190.41099548    1.78999996    2.82999992
   18.58527756  185.88299561    1.78999996    2.82999992
   18.58861160  191.42999268    1.55999994    2.82999992
   18.59194565  174.91200256    1.55999994    2.82999992
   18.59500122  179.40600586    1.61000001    2.82999992
   18.59833336  178.95100403    1.55999994    2.82999992
   18.60166740  174.65800476    1.55999994    2.82999992
   18.60472298  181.58399963    1.53999996    2.82999992
   18.61055565  181.58399963    1.89999998    2.82999992
   18.61472321  188.46400452    2.03999996    2.80999994
   18.61805534  188.84700012    1.98000002    2.80999994
   18.62111092  180.03199768    2.05999994    2.80999994
   18.62444496  188.11799622    2.00000000    2.82999992
   18.62777710  170.56900024    2.07999992    2.80999994
   18.63083267  195.80999756    2.07999992    2.82999992
   18.63416672  185.77400208    2.05999994    2.82999992
   18.63750076  178.18800354    2.11999989    2.82999992
   18.64055634  171.53199768    2.00000000    2.82999992
   18.64388847  182.78999329    1.88000000    2.80999994
   18.64444351  167.65100098    1.85000002    2.82999992
   18.64749908  193.59800720    1.86000001    2.82999992
   18.65361023  193.59800720    1.73000002    2.80999994
   18.65749931  184.11700439    1.61000001    2.80999994
   18.66083336  199.80099487    1.63000000    2.82999992
   18.66416550  195.73399353    1.60000002    2.82999992
   18.66722107  197.78399658    1.63000000    2.82999992
   18.67055511  215.38099670    1.60000002    2.80999994
   18.67388916  191.45599365    1.38000000    2.82999992
   18.67694473  204.12600708    1.38000000    2.82999992
   18.67777634  186.53399658    1.48000002    2.80999994
   18.68055534  207.77400208    1.48000002    2.80999994
   18.68388748  196.63900757    1.60000002    2.82999992
   18.68722153  209.58299255    1.71000004    2.80999994
   18.69027710  207.68200684    1.64999998    2.80999994
   18.69638824  207.68200684    1.39999998    2.82999992
   18.70055580  212.89999390    1.36000001    2.80999994
   18.70361137  197.20300293    1.34000003    2.80999994
   18.70694542  192.32200623    1.34000003    2.80999994
   18.71027946  205.62500000    1.51999998    2.80999994
   18.71111107  208.77299500    1.51999998    2.80999994
   18.71361160  203.31799316    1.46000004    2.82999992
   18.71694565  206.58999634    1.61000001    2.80999994
   18.72027779  195.97300720    1.55999994    2.82999992
   18.72333336  212.14999390    1.33000004    2.82999992
   18.72666740  200.88400269    1.21000004    2.80999994
   18.73000145  191.22700500    1.19000006    2.80999994
   18.73305511  214.95100403    1.19000006    2.80999994
   18.73916626  214.95100403    1.19000006    2.82999992
   18.74333382  197.99800110    1.30999994    2.82999992
   18.74444389  219.47700500    1.30999994    2.82999992
   18.74694443  194.38400269    1.41999996    2.80999994
   18.75027847  223.46699524    1.55999994    2.80999994
   18.75361061  223.45500183    1.26999998    2.80999994
   18.75666618  183.86999512    1.26999998    2.82999992
   18.76000023  194.07299805    1.25000000    2.80999994
   18.76333427  196.32299805    1.25000000    2.80999994
   18.76638794  212.86999512    1.26999998    2.80999994
   18.76972198  189.44599915    1.39999998    2.80999994
   18.77277756  227.25199890    1.41999996    2.82999992
   18.77611160  205.15400696    1.46000004    2.82999992
   18.77777672  185.98899841    1.66999996    2.80999994
   18.78194427  185.98899841    2.25000000    2.80999994
   18.78610992  196.71899414    2.57999992    2.80999994
   18.78944397  199.08900452    2.84999990    2.78999996
   18.79249954  192.82800293    2.78999996    2.80999994
   18.79583359  226.11999512    2.91000009    2.80999994
   18.79916573  204.44700623    3.43000007    2.80999994
   18.80249977  207.24200439    3.75000000    2.78999996
   18.80555534  201.90199280    3.75000000    2.78999996
   18.80888748  222.95700073    3.97000003    2.78999996
   18.81110954  206.87399292    4.03999996    2.78999996
   18.81222153  216.44000244    4.09999990    2.78999996
   18.81583214  208.40699768    4.23999977    2.78999996
   18.81916809  243.57200623    4.38999987    2.76999998
   18.82472229  243.57200623    4.40999985    2.78999996
   18.82888985  219.31500244    4.36999989    2.78999996
   18.83222389  230.16299438    4.21999979    2.78999996
   18.83555603  202.88099670    4.09999990    2.78999996
   18.83861160  217.00199890    3.76999998    2.78999996
   18.84194565  208.05299377    3.68000007    2.78999996
   18.84444427  229.15199280    3.75000000    2.78999996
   18.84555626  204.33700562    3.78999996    2.78999996
   18.84889030  204.32400513    4.28999996    2.76999998
   18.85222244  196.88499451    4.40999985    2.76999998
   18.85527802  208.05599976    4.19999981    2.78999996
   18.85861206  201.66299438    4.09999990    2.76999998
   18.86194420  198.75300598    4.30999994    2.78999996
   18.86777878  198.75300598    4.09999990    2.78999996
   18.87194443  205.45799255    3.80999994    2.78999996
   18.87500000  222.68800354    3.70000005    2.78999996
   18.87777710  216.69400024    3.50000000    2.78999996
   18.87861061  197.90499878    3.46000004    2.78999996
   18.88194466  194.10000610    3.45000005    2.78999996
   18.88527679  226.56599426    3.41000009    2.78999996
   18.88833237  219.02900696    3.34999990    2.78999996
   18.89166641  199.83000183    3.28999996    2.78999996
   18.89500046  201.69299316    3.16000009    2.78999996
   18.89805603  222.07099915    3.00000000    2.80999994
   18.90138817  217.05099487    2.91000009    2.78999996
   18.90444374  235.00999451    2.86999989    2.78999996
   18.91055489  235.00999451    2.67000008    2.78999996
   18.92888832  190.13900757    2.46000004    2.78999996
   18.93222237  193.14100647    2.67000008    2.78999996
   18.93527603  191.10400391    2.73000002    2.78999996
   18.93861008  209.65699768    2.61999989    2.80999994
   18.94194412  191.72000122    2.59999990    2.78999996
   18.94499969  190.50000000    2.57999992    2.78999996
   18.94833183  194.06900024    2.50000000    2.78999996
   18.95361137  194.06900024    2.48000002    2.80999994
   18.95777893  210.95300293    2.39000010    2.78999996
   18.96111107  194.87300110    2.40000010    2.78999996
   18.96194458  190.89399719    2.44000006    2.78999996
   18.96472359  196.64999390    2.57999992    2.78999996
   18.96777916  202.16400146    2.84999990    2.78999996
   18.97111130  202.01899719    3.11999989    2.78999996
   18.97444534  193.95899963    3.48000002    2.76999998
   18.97750092  208.55200195    3.76999998    2.78999996
   18.98083305  191.96800232    3.73000002    2.78999996
   18.98416710  208.25100708    3.66000009    2.78999996
   18.98722267  197.69900513    3.46000004    2.78999996
   18.99055672  186.51800537    3.26999998    2.78999996
   18.99638939  186.51800537    3.21000004    2.76999998
   19.00055504  196.61900330    3.20000005    2.78999996
   19.00388908  197.21000671    3.20000005    2.78999996
   19.00694466  197.78500366    3.41000009    2.78999996
   19.01027870  191.63299561    3.45000005    2.78999996
   19.01361084  191.55000305    3.45000005    2.76999998
   19.01666641  183.46400452    3.48000002    2.76999998
   19.02000046  181.79899597    3.48000002    2.78999996
   19.02333260  198.11799622    4.07999992    2.78999996
   19.02638817  189.95199585    4.84999990    2.76999998
   19.02861023  201.24800110    4.90999985    2.73000002
   19.03027725  187.75500488    4.90999985    2.71000004
   19.03361130  179.71400452    4.90999985    2.75000000
   19.03944397  179.71400452    4.28999996    2.76999998
   19.04361153  172.70100403    3.82999992    2.76999998
   19.04666710  180.26400757    3.50000000    2.76999998
   19.04999924  180.47300720    3.32999992    2.78999996
   19.05305481  181.10800171    3.21000004    2.78999996
   19.05638885  175.05099487    2.89000010    2.78999996
   19.05972099  194.55900574    2.64000010    2.78999996
   19.06194305  194.00799561    2.55999994    2.76999998
   19.06333351  188.72300720    2.61999989    2.78999996
   19.06666756  183.49499512    3.05999994    2.78999996
   19.06972313  195.52200317    3.07999992    2.78999996
   19.07305717  181.95500183    2.40000010    2.78999996
   19.07611275  192.33399963    3.41000009    2.78999996
   19.08222389  192.33399963    3.61999989    2.76999998
   19.08638954  201.64399719    3.05999994    2.78999996
   19.08944511  204.36099243    3.14000010    2.78999996
   19.09277916  210.93800354    3.39000010    2.78999996
   19.09527779  193.65699768    3.36999989    2.78999996
   19.09638977  228.40800476    3.32999992    2.76999998
   19.09972191  231.84800720    3.36999989    2.76999998
   19.10277748  221.87199402    3.39000010    2.76999998
   19.10611153  234.79899597    3.28999996    2.76999998
   19.10916710  204.22999573    3.26999998    2.76999998
   19.11250114  226.38999939    3.30999994    2.76999998
   19.11583328  207.77799988    3.21000004    2.78999996
   19.11888885  197.85499573    3.07999992    2.78999996
   19.12500000  197.85499573    2.78999996    2.78999996
   19.12916756  192.43600464    2.82999992    2.76999998
   19.13249969  199.40600586    2.78999996    2.76999998
   19.13555527  195.55000305    2.73000002    2.76999998
   19.13888931  195.24600220    2.69000006    2.78999996
   19.14222145  213.60499573    2.67000008    2.76999998
   19.14527702  191.00900269    2.50000000    2.78999996
   19.14861107  208.93600464    2.46000004    2.76999998
   19.15166664  179.97500610    2.30999994    2.78999996
   19.15499878  240.12500000    2.19000006    2.78999996
   19.15833282  191.07600403    2.09999990    2.76999998
   19.16138840  194.64500427    2.05999994    2.78999996
   19.16194344  214.52000427    2.03999996    2.78999996
   19.16777802  214.52000427    1.83000004    2.78999996
   19.17194366  248.16700745    1.73000002    2.78999996
   19.17527771  182.63400269    1.73000002    2.78999996
   19.17860985  186.76300049    1.66999996    2.78999996
   19.18166542  184.48100281    1.58000004    2.78999996
   19.18499947  190.03599548    1.58000004    2.78999996
   19.18805504  206.20100403    1.53999996    2.78999996
   19.19138718  191.09399414    1.60000002    2.78999996
   19.19472122  242.48199463    1.58000004    2.78999996
   19.19527626  198.01400757    1.58000004    2.78999996
   19.19833183  195.17399597    1.44000006    2.78999996
   19.20166779  210.55200195    1.44000006    2.78999996
   19.20472336  184.50700378    1.51999998    2.78999996
   19.21083450  184.50700378    1.58000004    2.76999998
   19.21472359  206.58099365    1.88000000    2.78999996
   19.21805573  207.92900085    1.75000000    2.76999998
   19.22138977  231.41799927    1.71000004    2.78999996
   19.22444534  229.29899597    1.66999996    2.76999998
   19.22777748  215.98300171    1.44000006    2.78999996
   19.22861099  221.52499390    1.73000002    2.78999996
   19.23139000  235.84700012    2.11999989    2.76999998
   19.23472214  238.53399658    2.26999998    2.76999998
   19.23777771  234.25300598    2.39000010    2.76999998
   19.24111176  231.36999512    2.80999994    2.76999998
   19.24416733  240.38699341    3.39000010    2.75000000
   19.24749947  206.33799744    3.07999992    2.75000000
   19.25361061  206.33799744    4.78000021    2.75000000
   19.25777817  224.98800659    4.88999987    2.75000000
   19.26083374  243.36199951    4.76000023    2.75000000
   19.26194382  255.59800720    4.69999981    2.75000000
   19.26444435  242.47500610    4.67999983    2.75000000
   19.26777840  225.99099731    4.48999977    2.75000000
   19.27083397  202.89799500    4.07999992    2.75000000
   19.27416611  225.09800720    4.26999998    2.75000000
   19.27750015  239.58700562    4.26999998    2.75000000
   19.28055573  234.32899475    4.09999990    2.75000000
   19.28388786  229.71099854    3.75000000    2.76999998
   19.28694344  216.75999451    3.70000005    2.75000000
   19.29027748  226.38800049    4.90999985    2.73000002
   19.29638863  226.38800049    4.28999996    2.75000000
   19.30055428  211.92599487    4.01999998    2.75000000
   19.30360985  206.80900574    4.15999985    2.75000000
   19.30694389  176.86999512    3.97000003    2.75000000
   19.31027794  171.16299438    3.46000004    2.75000000
   19.31333351  184.88699341    3.11999989    2.75000000
   19.31666756  200.09700012    2.89000010    2.76999998
   19.32000160  202.44799805    2.50000000    2.76999998
   19.32305717  194.14100647    2.55999994    2.76999998
   19.32638931  206.28799438    2.71000004    2.76999998
   19.32861137  241.92900085    2.36999989    2.76999998
   19.33000183  226.48899841    2.30999994    2.76999998
   19.33333397  208.19799805    2.17000008    2.76999998
   19.33916664  208.19799805    1.96000004    2.76999998
   19.34333420  196.65199280    1.96000004    2.76999998
   19.34666824  183.01199341    2.01999998    2.75000000
   19.34972191  175.64399719    1.98000002    2.76999998
   19.35305595  205.20899963    2.03999996    2.76999998
   19.35639000  203.21299744    2.05999994    2.76999998
   19.35944557  173.44700623    2.05999994    2.75000000
   19.36194420  190.47500610    2.07999992    2.76999998
   19.36305618  189.91099548    2.09999990    2.76999998
   19.36638832  195.63000488    2.39000010    2.76999998
   19.36944389  163.44099426    2.53999996    2.76999998
   19.37277794  175.42500305    2.46000004    2.76999998
   19.37583351  183.86799622    2.57999992    2.75000000
   19.38222313  183.86799622    2.39000010    2.76999998
   19.38611031  174.02900696    2.39000010    2.76999998
   19.38944435  200.02499390    2.67000008    2.75000000
   19.39277840  196.44599915    2.86999989    2.75000000
   19.39527702  191.00900269    2.89000010    2.75000000
   19.39638901  175.11300659    2.78999996    2.75000000
   19.39972115  186.14799500    2.57999992    2.75000000
   19.40277672  176.88400269    2.36999989    2.76999998
   19.40611076  184.32000732    2.48000002    2.76999998
   19.40916634  195.83299255    2.64000010    2.75000000
   19.41250038  179.49400330    2.59999990    2.75000000
   19.41583252  184.43600464    2.51999998    2.75000000
   19.41888809  172.80200195    2.59999990    2.75000000
   19.42499924  172.80200195    2.44000006    2.75000000
   19.42916679  183.01100159    2.25000000    2.75000000
   19.43222237  174.23599243    2.13000011    2.75000000
   19.43555450  183.04100037    2.13000011    2.75000000
   19.43861008  181.83500671    2.09999990    2.76999998
   19.44194412  185.25199890    1.88000000    2.76999998
   19.44527626  184.81599426    1.78999996    2.76999998
   19.44833183  183.28100586    1.80999994    2.75000000
   19.45166779  184.49200439    1.80999994    2.75000000
   19.45499992  191.59700012    1.75000000    2.76999998
   19.45805550  196.67700195    1.75000000    2.75000000
   19.46138954  181.97399902    1.75000000    2.76999998
   19.46194458  184.89500427    1.75000000    2.76999998
   19.46777916  184.89500427    1.66999996    2.75000000
   19.47194481  191.71299744    1.66999996    2.76999998
   19.47500038  186.81100464    1.71000004    2.76999998
   19.47833443  187.16999817    1.75000000    2.75000000
   19.48166656  180.41600037    1.76999998    2.75000000
   19.48500061  185.80200195    1.78999996    2.76999998
   19.48805618  183.41900635    2.09999990    2.75000000
   19.49138832  182.05000305    2.21000004    2.75000000
   19.49472237  183.64799500    2.17000008    2.75000000
   19.49527740  183.63200378    2.17000008    2.75000000
   19.49833298  182.44900513    2.07999992    2.75000000
   19.50166702  184.76499939    2.23000002    2.75000000
   19.50472260  185.72300720    2.69000006    2.73000002
   19.51055527  185.72300720    4.07999992    2.73000002
   19.51472282  180.58399963    4.80000019    2.71000004
   19.51805496  185.02299500    4.90999985    2.73000002
   19.52111053  174.54200745    4.90999985    2.71000004
   19.52444458  177.71099854    4.57999992    2.73000002
   19.52777672  176.38200378    3.73000002    2.73000002
   19.52861023  180.34800720    3.64000010    2.73000002
   19.53138924  175.68699646    3.51999998    2.73000002
   19.53472137  170.22799683    3.53999996    2.73000002
   19.53777695  182.58900452    3.82999992    2.73000002
   19.54111099  179.05400085    4.42999983    2.73000002
   19.54444313  174.90899658    4.34999990    2.73000002
   19.54749870  177.23100281    4.38999987    2.73000002
   19.55360985  177.23100281    4.90999985    2.71000004
   19.55749893  177.68499756    4.90999985    2.73000002
   19.56083298  181.63800049    4.59999990    2.73000002
   19.56194305  176.68099976    4.48999977    2.73000002
   19.56444359  185.52000427    4.26000023    2.73000002
   19.56777954  181.21200562    4.03999996    2.75000000
   19.57111168  183.85200500    3.95000005    2.73000002
   19.57416725  180.26499939    4.15999985    2.75000000
   19.57750130  181.38499451    4.90999985    2.71000004
   19.58055687  176.78999329    4.78000021    2.71000004
   19.58388901  179.97399902    4.90999985    2.69000006
   19.58722305  182.49400330    4.90999985    2.67000008
   19.59027863  181.94200134    4.90999985    2.64000010
   19.59638977  181.94200134    4.90999985    2.69000006
   19.60055542  179.16000366    4.90999985    2.71000004
   19.60361099  173.65600586    4.76000023    2.73000002
   19.60694504  177.27499390    4.90999985    2.71000004
   19.61000061  176.90400696    4.67999983    2.73000002
   19.61333466  180.02200317    4.48999977    2.71000004
   19.61666679  169.92199707    4.63999987    2.73000002
   19.61972237  171.17100525    4.80000019    2.71000004
   19.62305641  175.85699463    4.80000019    2.71000004
   19.62638855  181.53100586    4.78000021    2.71000004
   19.62861061  172.82200623    4.42999983    2.71000004
   19.63000107  178.92300415    4.34999990    2.71000004
   19.63333321  173.25999451    4.42999983    2.71000004
   19.63916588  173.25999451    4.90999985    2.69000006
   19.64333344  178.78399658    4.90999985    2.71000004
   19.64638901  176.58999634    4.90999985    2.71000004
   19.64972115  180.76499939    4.90999985    2.71000004
   19.65305519  182.03799438    4.90999985    2.71000004
   19.65611076  176.94799805    4.90999985    2.71000004
   19.65944481  167.52200317    4.76000023    2.71000004
   19.66194344  172.38000488    4.57999992    2.71000004
   19.66305542  168.96499634    4.53000021    2.71000004
   19.66638756  173.45500183    4.51000023    2.71000004
   19.66944313  171.36399841    4.69999981    2.71000004
   19.67277718  170.34100342    4.86999989    2.71000004
   19.67611122  172.08900452    4.90999985    2.71000004
   19.68194389  172.08900452    4.90999985    2.71000004
   19.68610954  164.26899719    4.90999985    2.71000004
   19.68944359  172.76300049    4.73999977    2.71000004
   19.69249916  166.72500610    4.21999979    2.71000004
   19.69555473  162.28500366    4.26000023    2.71000004
   19.69610977  167.76400757    4.32999992    2.71000004
   19.69944382  165.71699524    4.38999987    2.71000004
   19.70250130  158.12199402    4.42999983    2.71000004
   19.70583344  176.02799988    3.97000003    2.71000004
   19.70916748  171.82600403    3.51999998    2.73000002
   19.71222305  173.30799866    3.43000007    2.73000002
   19.71555710  175.12399292    3.20000005    2.73000002
   19.71861076  168.19799805    3.09999990    2.71000004
   19.72472191  168.19799805    3.00000000    2.73000002
   19.72888947  169.94999695    2.98000002    2.73000002
   19.73222351  183.18400574    2.89000010    2.73000002
   19.73555565  172.60899353    2.82999992    2.71000004
   19.73861122  164.51300049    2.71000004    2.73000002
   19.74194527  163.85099792    2.61999989    2.73000002
   19.74500084  169.33099365    2.67000008    2.73000002
   19.74833298  172.29400635    2.76999998    2.73000002
   19.75166702  168.42599487    2.73000002    2.71000004
   19.75472260  169.50300598    2.75000000    2.71000004
   19.75805473  172.06300354    2.94000006    2.73000002
   19.76138878  167.41299438    3.11999989    2.71000004
   19.76222229  165.92500305    3.07999992    2.73000002
   19.76777840  165.92500305    3.00000000    2.71000004
   19.77194405  164.05099487    2.98000002    2.71000004
   19.77499962  158.68299866    2.91000009    2.71000004
   19.77833366  163.64999390    2.89000010    2.71000004
   19.78138924  158.44099426    2.78999996    2.71000004
   19.78472137  159.28599548    2.64000010    2.71000004
   19.78805542  161.67999268    2.67000008    2.73000002
   19.79111099  163.02900696    2.66000009    2.71000004
   19.79444313  164.54800415    2.75000000    2.71000004
   19.79555511  157.53700256    2.67000008    2.71000004
   19.79805565  161.94500732    2.48000002    2.71000004
   19.80138779  159.92799377    2.42000008    2.71000004
   19.80472183  165.58799744    2.36999989    2.71000004
   19.81055450  165.58799744    2.28999996    2.71000004
   19.81472206  164.38200378    2.25000000    2.71000004
   19.81805611  162.91700745    2.26999998    2.71000004
   19.82139015  167.07800293    2.48000002    2.71000004
   19.82444572  165.67799377    2.84999990    2.71000004
   19.82777786  176.38000488    2.94000006    2.71000004
   19.82888985  167.13999939    2.89000010    2.71000004
   19.83139038  162.58700562    2.57999992    2.71000004
   19.83472252  169.67599487    2.46000004    2.71000004
   19.83777809  162.79800415    2.44000006    2.73000002
   19.84111214  163.28900146    2.71000004    2.71000004
   19.84444427  166.75100708    2.53999996    2.71000004
   19.84749985  172.97700500    2.71000004    2.71000004
   19.85333443  172.97700500    2.75000000    2.71000004
   19.85750008  166.23300171    2.51999998    2.71000004
   19.86083412  162.19900513    3.03999996    2.71000004
   19.86222267  165.49499512    3.28999996    2.71000004
   19.86444473  171.85800171    3.66000009    2.71000004
   19.86777878  176.14900208    3.73000002    2.69000006
   19.87083435  162.62100220    4.00000000    2.69000006
   19.87416649  173.92700195    4.26999998    2.69000006
   19.87750053  171.08399963    4.61999989    2.69000006
   19.88055611  167.57099915    4.71999979    2.67000008
   19.88388824  185.22300720    4.53000021    2.69000006
   19.88722229  173.10200500    4.71999979    2.69000006
   19.89027786  162.24699402    4.59999990    2.67000008
   19.89611053  162.24699402    4.17999983    2.71000004
   19.90027809  164.18899536    3.73000002    2.69000006
   19.90361023  165.80000305    3.28999996    2.69000006
   19.90694427  176.00199890    3.32999992    2.69000006
   19.90999985  160.52099609    3.70000005    2.69000006
   19.91333389  159.50300598    3.43000007    2.69000006
   19.91638756  171.77000427    3.46000004    2.69000006
   19.91972160  173.31799316    3.11999989    2.71000004
   19.92305565  162.33500671    2.96000004    2.71000004
   19.92611122  174.85299683    2.76999998    2.71000004
   19.92888832  178.65199280    2.71000004    2.71000004
   19.94944382  178.65199280    2.23000002    2.69000006
   19.95361137  157.97999573    2.00000000    2.69000006
   19.95666695  157.34899902    2.03999996    2.71000004
   19.96000099  158.05000305    1.85000002    2.71000004
   19.96222305  158.19200134    1.85000002    2.71000004
   19.96361160  162.25999451    1.85000002    2.71000004
   19.96694565  153.60099792    2.03999996    2.69000006
   19.97000122  161.91999817    2.09999990    2.71000004
   19.97333336  165.92300415    2.23000002    2.69000006
   19.97666740  161.37300110    2.32999992    2.69000006
   19.97972298  170.51600647    2.32999992    2.69000006
   19.98305511  164.39300537    2.26999998    2.69000006
   19.98638916  156.45199585    2.17000008    2.69000006
   19.99222183  156.45199585    2.05999994    2.69000006
   19.99638939  164.95500183    2.03999996    2.69000006
   19.99944496  161.15100098    2.03999996    2.71000004
   20.00277710  157.68699646    2.05999994    2.69000006
   20.00611115  158.87300110    2.34999990    2.69000006
   20.00916672  163.00900269    2.71000004    2.69000006
   20.01250076  164.19700623    3.09999990    2.69000006
   20.01555634  164.75900269    3.32999992    2.69000006
   20.01888847  162.11900330    3.41000009    2.67000008
   20.02222252  171.17199707    3.50000000    2.69000006
   20.02527809  175.20700073    3.59999990    2.67000008
   20.02861023  171.57699585    3.75000000    2.69000006
   20.02916718  176.36399841    3.75000000    2.69000006
   20.03499985  176.36399841    3.30999994    2.69000006
   20.03916550  180.52400208    3.16000009    2.69000006
   20.04222107  174.08500671    3.11999989    2.67000008
   20.04555511  169.12399292    3.39000010    2.67000008
   20.04888916  168.99400330    3.39000010    2.67000008
   20.05194283  171.34899902    3.28999996    2.69000006
   20.05527687  168.27400208    3.11999989    2.67000008
   20.05861092  161.30299377    2.91000009    2.67000008
   20.06166649  166.99800110    2.80999994    2.69000006
   20.06250000  163.42100525    2.80999994    2.69000006
   20.06555557  176.81100464    2.73000002    2.69000006
   20.06861115  176.22500610    2.69000006    2.69000006
   20.07194519  168.23500061    2.57999992    2.69000006
   20.07777786  168.23500061    2.80999994    2.69000006
   20.08194542  174.78799438    2.80999994    2.67000008
   20.08527756  176.10400391    2.75000000    2.69000006
   20.08833313  167.82200623    2.89000010    2.67000008
   20.09166718  175.38900757    2.91000009    2.67000008
   20.09500122  178.84399414    2.82999992    2.67000008
   20.09583473  166.10099792    2.89000010    2.67000008
   20.09861183  179.33799744    3.14000010    2.67000008
   20.10166740  176.05799866    3.14000010    2.67000008
   20.10499954  176.46099854    3.05999994    2.67000008
   20.10805511  171.72599792    3.01999998    2.67000008
   20.11138916  175.42900085    2.94000006    2.67000008
   20.11472321  170.01100159    2.98000002    2.69000006
   20.12083435  170.01100159    2.98000002    2.69000006
   20.12472153  181.77299500    2.98000002    2.67000008
   20.12805557  176.23599243    3.11999989    2.66000009
   20.12916756  178.08500671    3.20000005    2.67000008
   20.13166618  178.10400391    3.43000007    2.66000009
   20.13472176  185.27999878    3.76999998    2.67000008
   20.13805580  170.87800598    3.89000010    2.67000008
   20.14111137  175.96699524    4.28999996    2.66000009
   20.14444351  171.50100708    4.28999996    2.66000009
   20.14777756  168.54400635    4.28999996    2.66000009
   20.15083313  177.29400635    4.28999996    2.66000009
   20.15416718  176.70399475    4.28999996    2.66000009
   20.15749931  168.70300293    4.32999992    2.66000009
   20.16361046  168.70300293    4.30999994    2.64000010
   20.16777802  177.19200134    4.05999994    2.66000009
   20.17083359  162.08700562    3.97000003    2.67000008
   20.17416573  171.44599915    3.72000003    2.67000008
   20.17722130  168.35600281    3.64000010    2.66000009
   20.18055534  173.33700562    3.66000009    2.66000009
   20.18388748  175.08000183    3.50000000    2.67000008
   20.18694305  166.13499451    3.43000007    2.66000009
   20.19027710  169.54800415    3.34999990    2.66000009
   20.19361115  170.42900085    3.23000002    2.66000009
   20.19583321  170.03599548    3.20000005    2.66000009
   20.19722176  169.94099426    3.18000007    2.66000009
   20.20027924  165.28199768    2.98000002    2.66000009
   20.20639038  165.28199768    3.00000000    2.67000008
   20.21055603  173.50000000    3.20000005    2.67000008
   20.21389008  162.30299377    3.25000000    2.67000008
   20.21694565  164.06300354    3.28999996    2.66000009
   20.22027779  159.50399780    3.16000009    2.66000009
   20.22333336  162.52000427    3.05999994    2.66000009
   20.22666740  161.22099304    3.07999992    2.66000009
   20.22916794  159.32899475    3.41000009    2.66000009
   20.23055649  171.02000427    3.51999998    2.66000009
   20.23361206  166.88999939    4.03999996    2.64000010
   20.23694420  161.79100037    4.13999987    2.64000010
   20.23999977  182.05200195    3.95000005    2.66000009
   20.24333382  176.19700623    3.39000010    2.66000009
   20.24916649  176.19700623    3.05999994    2.64000010
   20.25333405  169.72799683    2.78999996    2.66000009
   20.25666618  180.69099426    2.55999994    2.66000009
   20.25972176  191.85699463    2.40000010    2.66000009
   20.26250076  178.04800415    2.34999990    2.66000009
   20.26361084  180.71099854    2.32999992    2.66000009
   20.26666641  178.88200378    2.07999992    2.66000009
   20.27000046  170.47999573    2.03999996    2.66000009
   20.27305603  178.62699890    1.83000004    2.66000009
   20.27638817  170.61099243    1.80999994    2.66000009
   20.27972221  164.35000610    2.09999990    2.66000009
   20.28277779  167.30499268    2.34999990    2.67000008
   20.28610992  165.42799377    2.46000004    2.66000009
   20.29222107  165.42799377    2.76999998    2.66000009
   20.29611015  167.36700439    2.50000000    2.66000009
   20.29944420  175.38499451    2.75000000    2.66000009
   20.30277634  169.68299866    2.75000000    2.66000009
   20.30583191  168.73699951    2.75000000    2.66000009
   20.30916595  167.83500671    2.75000000    2.66000009
   20.31222153  168.20599365    2.75000000    2.66000009
   20.31555557  177.07299805    2.75000000    2.66000009
   20.31888962  162.31300354    3.14000010    2.66000009
   20.32194519  174.63800049    4.67999983    2.64000010
   20.32527924  179.05700684    4.90999985    2.61999989
   20.32861137  171.81700134    4.90999985    2.59999990
   20.32916832  178.85000610    4.90999985    2.59999990
   20.33500099  178.85000610    4.90999985    2.59999990
   20.33916664  189.02999878    4.90999985    2.57999992
   20.34222221  173.14500427    4.90999985    2.59999990
   20.34555626  178.59300232    4.90999985    2.61999989
   20.34889030  180.09100342    4.90999985    2.61999989
   20.35194397  177.75999451    4.90999985    2.59999990
   20.35527802  181.10400391    4.90999985    2.59999990
   20.35861206  188.05400085    4.90999985    2.59999990
   20.36166763  166.17599487    4.90999985    2.59999990
   20.36250114  163.53999329    4.90999985    2.59999990
   20.36555672  178.92700195    4.90999985    2.59999990
   20.36861038  169.64799500    4.90999985    2.59999990
   20.37194443  176.02200317    4.90999985    2.59999990
   20.37777710  176.02200317    4.90999985    2.59999990
   20.38194466  189.61999512    4.90999985    2.59999990
   20.38500023  179.14399719    4.90999985    2.59999990
   20.38833237  171.68899536    4.90999985    2.59999990
   20.39166641  190.68400574    4.90999985    2.57999992
   20.39472198  180.02200317    4.90999985    2.57999992
   20.39583397  187.54100037    4.90999985    2.57999992
   20.39861107  191.25199890    4.90999985    2.59999990
   20.40166664  177.84800720    4.90999985    2.59999990
   20.40499878  180.75700378    4.90999985    2.57999992
   20.40833282  187.85499573    4.90999985    2.57999992
   20.41138840  170.77099609    4.90999985    2.57999992
   20.41472244  201.23100281    4.90999985    2.57999992
   20.42055511  201.23100281    4.90999985    2.59999990
   20.42472076  181.16299438    4.90999985    2.59999990
   20.42805481  163.26699829    4.90999985    2.59999990
   20.42916679  180.82499695    4.90999985    2.59999990
   20.43166542  187.49400330    4.90999985    2.57999992
   20.43499947  191.85400391    4.90999985    2.57999992
   20.43805504  181.82699585    4.90999985    2.59999990
   20.44138718  173.61599731    4.90999985    2.57999992
   20.44444275  182.70300293    4.90999985    2.59999990
   20.44777679  181.16499329    4.90999985    2.59999990
   20.45111275  183.72099304    4.90999985    2.59999990
   20.45416832  182.20399475    4.90999985    2.59999990
   20.45750046  179.82299805    4.76000023    2.59999990
   20.46361160  179.82299805    4.73999977    2.59999990
   20.46750069  182.61700439    4.51000023    2.59999990
   20.47083473  179.99600220    4.13999987    2.59999990
   20.47416687  160.96600342    3.78999996    2.59999990
   20.47722244  166.13299561    3.75000000    2.59999990
   20.48055649  172.18800354    3.39000010    2.61999989
   20.48361206  174.28500366    3.21000004    2.61999989
   20.48694420  176.87699890    3.25000000    2.61999989
   20.49027824  172.49699402    3.14000010    2.61999989
   20.49333382  172.46899414    2.75000000    2.59999990
   20.49583435  177.99400330    2.57999992    2.61999989
   20.49722290  164.11500549    2.55999994    2.61999989
   20.50027847  168.30099487    2.61999989    2.59999990
   20.50638962  168.30099487    3.01999998    2.59999990
   20.51055527  167.41799927    3.09999990    2.59999990
   20.51361084  163.22300720    3.26999998    2.59999990
   20.51694489  158.08799744    3.75000000    2.59999990
   20.52000046  165.75700378    3.99000001    2.59999990
   20.52333260  170.97000122    4.01999998    2.59999990
   20.52666664  167.47700500    4.17999983    2.59999990
   20.52916718  158.76400757    4.13999987    2.59999990
   20.53027725  169.20500183    4.03999996    2.59999990
   20.53333282  160.68499756    3.78999996    2.57999992
   20.53666687  169.42199707    3.50000000    2.59999990
   20.53999901  162.98500061    3.34999990    2.59999990
   20.54305458  168.50500488    3.32999992    2.59999990
   20.54916573  168.50500488    3.41000009    2.57999992
   20.55333328  172.66900635    3.39000010    2.59999990
   20.55638885  171.72200012    3.39000010    2.59999990
   20.55972099  162.29200745    3.41000009    2.59999990
   20.56250000  166.22700500    3.41000009    2.59999990
   20.56333351  164.47099304    3.43000007    2.57999992
   20.56638718  174.85499573    3.45000005    2.57999992
   20.56972313  173.66499329    3.45000005    2.57999992
   20.57305717  164.75999451    3.50000000    2.57999992
   20.57611275  177.92999268    3.50000000    2.57999992
   20.57944489  174.12199402    3.50000000    2.57999992
   20.58250046  164.39500427    3.48000002    2.57999992
   20.58583450  169.39999390    3.51999998    2.57999992
   20.59194565  169.39999390    3.55999994    2.57999992
   20.59611130  170.55099487    3.57999992    2.57999992
   20.59944534  152.36500549    3.61999989    2.57999992
   20.60250092  167.96299744    3.70000005    2.57999992
   20.60583305  166.71200562    3.82999992    2.55999994
   20.60916710  168.50000000    3.95000005    2.57999992
   20.61222267  166.02900696    4.03999996    2.57999992
   20.61555672  167.84599304    4.32999992    2.57999992
   20.61888885  166.26800537    4.44999981    2.55999994
   20.62194443  173.04499817    4.44999981    2.55999994
   20.62527847  174.75000000    4.57999992    2.53999996
   20.62833405  175.49000549    4.73999977    2.55999994
   20.62916756  162.27499390    4.63999987    2.55999994
   20.63500023  162.27499390    4.19999981    2.55999994
   20.63888931  172.01300049    4.34999990    2.55999994
   20.64222145  163.81599426    4.38999987    2.55999994
   20.64555550  180.50300598    4.26999998    2.53999996
   20.64861107  171.86900330    4.55999994    2.55999994
   20.65194321  168.90499878    4.90999985    2.53999996
   20.65499878  161.72799683    4.90999985    2.55999994
   20.65833282  177.45700073    4.73999977    2.53999996
   20.66166687  178.63999939    4.90999985    2.50000000
   20.66250038  172.39900208    4.90999985    2.50000000
   20.66527748  173.98800659    4.90999985    2.55999994
   20.66833305  163.88099670    4.90999985    2.48000002
   20.67166519  155.07499695    4.90999985    2.55999994
   20.67777634  155.07499695    4.42999983    2.55999994
   20.68194389  174.76699829    4.86999989    2.55999994
   20.68499947  169.14599609    4.21999979    2.57999992
   20.68833160  160.62699890    4.67999983    2.55999994
   20.69138718  169.76100159    4.46999979    2.53999996
   20.69472122  162.18400574    4.65999985    2.53999996
   20.69583321  161.27099609    4.65999985    2.55999994
   20.69833183  161.34899902    4.21999979    2.55999994
   20.70138931  170.48899841    4.30999994    2.55999994
   20.70472336  169.80700684    4.90999985    2.55999994
   20.70805550  165.63299561    4.01999998    2.55999994
   20.71111107  165.12899780    4.53999996    2.55999994
   20.71444511  168.72000122    4.80000019    2.57999992
   20.72055626  168.72000122    4.90999985    2.44000006
   20.72472191  164.00599670    4.90999985    2.55999994
   20.72777748  169.46099854    4.90999985    2.51999998
   20.72916794  178.10800171    4.90999985    2.55999994
   20.73166656  193.00199890    4.90999985    2.59999990
   20.73472214  168.03999329    4.90999985    2.50000000
   20.73805618  170.95199585    4.90999985    2.46000004
   20.74138832  164.81300354    4.90999985    2.51999998
   20.74444389  174.35099792    4.90999985    2.53999996
   20.74777794  164.96499634    4.90999985    2.46000004
   20.75111198  159.37399292    4.90999985    2.51999998
   20.75416756  165.77200317    4.90999985    2.55999994
   20.75749969  202.41900635    4.90999985    2.55999994
   20.76333427  202.41900635    4.90999985    2.39000010
   20.76749992  176.22500610    4.90999985    2.46000004
   20.77083397  167.89300537    4.90999985    2.50000000
   20.77388954  166.69900513    4.90999985    2.50000000
   20.77722168  163.86799622    4.90999985    2.53999996
   20.78055573  179.94700623    4.90999985    2.55999994
   20.78361130  174.64700317    4.90999985    2.46000004
   20.78694344  364.00500488    4.90999985    2.34999990
   20.78999901  183.39199829    4.90999985    2.09999990
   20.79333305  184.24400330    4.90999985    2.48000002
   20.79583359  165.77999878    4.90999985    2.53999996
   20.79694366  172.74000549    4.90999985    2.53999996
   20.79999924  187.40600586    4.90999985    2.44000006
   20.80611038  187.40600586    4.90999985    2.50000000
   20.81027794  249.85800171    4.90999985    2.48000002
   20.81361008  180.62399292    4.90999985    2.23000002
   20.81694603  175.50199890    4.90999985    2.50000000
   20.82000160  167.78100586    4.90999985    2.51999998
   20.82333374  189.22300720    4.90999985    2.53999996
   20.82638931  201.96000671    4.90999985    2.34999990
   20.82916832  185.50399780    4.90999985    2.34999990
   20.83027840  188.38999939    4.90999985    2.34999990
   20.83361244  184.94099426    4.90999985    2.34999990
   20.83666801  271.93600464    4.90999985    2.34999990
   20.84000015  115.41200256    4.90999985    2.34999990
   20.84305573  256.39599609    4.90999985    2.25000000
   20.84916687  256.39599609    4.90999985    2.25000000
   20.85333443  257.78201294    4.90999985    2.25000000
   20.85639000   92.06800079    4.90999985    2.25000000
   20.85972214  121.98400116    4.90999985    2.05999994
   20.86250114  111.51100159    4.90999985    2.05999994
   20.86333466   -1.00000000    4.90999985    2.05999994
   20.86666679   -1.00000000    4.90999985    2.05999994
   20.86972237   -1.00000000    4.90999985    2.05999994
   20.87305641   -1.00000000    4.90999985    2.05999994
   20.87611198   -1.00000000    4.90999985    2.05999994
   20.87944412   -1.00000000    4.90999985    2.44000006
   20.88277817   -1.00000000    4.90999985    2.44000006
   20.88583374   -1.00000000    4.90999985    2.44000006
   20.89611053   -1.00000000    4.90999985    2.44000006
   20.89916611   -1.00000000    4.90999985    2.44000006
   20.90250015   -1.00000000    4.90999985    2.51999998
   20.90555573   -1.00000000    4.90999985    2.51999998
   20.90888786   -1.00000000    4.90999985    2.51999998
   20.91222191   -1.00000000    4.90999985    2.51999998
   20.91527748   -1.00000000    4.90999985    2.51999998
   20.91860962   -1.00000000    4.90999985    2.51999998
   20.92194366   -1.00000000    4.90999985    2.51999998
   20.92499924   -1.00000000    4.90999985    2.51999998
   20.92833328   -1.00000000    4.90999985    2.51999998
   20.93888855   -1.00000000    4.90999985    2.51999998
   20.94194412   -1.00000000    4.90999985    2.51999998
   20.94527626   -1.00000000    4.90999985    2.51999998
   20.96500015   -1.00000000    4.90999985    2.44000006
   20.96833420   -1.00000000    4.90999985    2.44000006
   20.97166634   -1.00000000    4.90999985    2.44000006
   20.98166656   -1.00000000    4.90999985    2.44000006
   20.98500061   -1.00000000    4.90999985    2.44000006
   20.98833275   -1.00000000    4.90999985    2.44000006
   20.99138832   -1.00000000    4.90999985    2.44000006
   20.99472237   -1.00000000    4.90999985    2.44000006
   20.99833298   -1.00000000    4.90999985    2.44000006
   21.00166702   -1.00000000    4.90999985    2.44000006
   21.00472260   -1.00000000    4.90999985    2.44000006
   21.00805473   -1.00000000    4.90999985    2.44000006
