    HOUR (UT)   FLARE FACTOR    SKY TESTER    SUN TESTER
   12.07722187   -1.00000000   -1.00000000   -1.00000000
   12.10055637  238.86300659    0.47999999    2.05999994
   12.10361195  134.83299255    0.47999999    2.03999996
   12.10694504  146.66999817    0.47999999    2.05999994
   12.11027813  149.74899292    0.47999999    2.05999994
   12.11333370  141.82600403    0.47999999    2.05999994
   12.11666679  146.20100403    0.47999999    2.05999994
   12.12083340  146.20100403    0.47999999    2.07999992
   12.12500000  120.14800262    0.47999999    2.07999992
   12.12805557  142.67399597    0.47999999    2.07999992
   12.13138866  136.96600342    0.47999999    2.07999992
   12.13361073  147.82099915    0.47999999    2.07999992
   12.13500023  134.60299683    0.47999999    2.07999992
   12.13833332  141.11399841    0.47999999    2.07999992
   12.14166641  114.43599701    0.46000001    2.07999992
   12.14472198  137.74600220    0.47999999    2.09999990
   12.14805508  123.09899902    0.46000001    2.09999990
   12.15138817  133.04600525    0.47999999    2.09999990
   12.15444374  131.52699280    0.46000001    2.09999990
   12.15777779  143.45700073    0.46000001    2.09999990
   12.16361046  143.45700073    0.46000001    2.09999990
   12.16777802  127.40100098    0.46000001    2.11999989
   12.17111111  126.57199860    0.46000001    2.11999989
   12.17444515  129.04699707    0.46000001    2.11999989
   12.17750072  137.49699402    0.44000000    2.11999989
   12.18083382  128.81700134    0.44000000    2.11999989
   12.18416691  119.82599640    0.44000000    2.11999989
   12.18750000   99.25839996    0.44000000    2.11999989
   12.19055557  126.93699646    0.44000000    2.13000011
   12.19388866  142.90400696    0.44000000    2.11999989
   12.19694424  136.06399536    0.44000000    2.13000011
   12.20027733  122.61799622    0.46000001    2.13000011
   12.20055580  135.93699646    0.46000001    2.13000011
   12.20638847  135.93699646    0.44000000    2.13000011
   12.21055508  104.13800049    0.44000000    2.13000011
   12.21388912  114.47599792    0.44000000    2.13000011
   12.21722221  120.05500031    0.44000000    2.13000011
   12.22027779  115.10700226    0.44000000    2.13000011
   12.22361088  131.94799805    0.44000000    2.15000010
   12.22666645  120.87999725    0.44000000    2.15000010
   12.22999954  131.04400635    0.44000000    2.13000011
   12.23333359  124.96499634    0.44000000    2.15000010
   12.23388958  124.62400055    0.44000000    2.15000010
   12.23694515  120.19599915    0.44000000    2.15000010
   12.24027824  125.61399841    0.44000000    2.15000010
   12.24361134  121.48300171    0.44000000    2.15000010
   12.24944496  121.48300171    0.44000000    2.17000008
   12.25333309  118.73200226    0.44000000    2.17000008
   12.25666714  117.95800018    0.44000000    2.17000008
   12.26000023  116.06300354    0.44000000    2.17000008
   12.26333332  137.93600464    0.44000000    2.17000008
   12.26638889  120.05599976    0.44000000    2.17000008
   12.26722240  117.72899628    0.44000000    2.17000008
   12.26999950  137.08900452    0.44000000    2.17000008
   12.27333355  129.81399536    0.44000000    2.17000008
   12.27638817  122.82099915    0.44000000    2.17000008
   12.27972221  116.84400177    0.41999999    2.17000008
   12.28305531  114.01200104    0.41999999    2.19000006
   12.28611183  103.23799896    0.44000000    2.19000006
   12.29222298  103.23799896    0.44000000    2.19000006
   12.29638958  124.16300201    0.41999999    2.19000006
   12.29944515  128.00100708    0.41999999    2.19000006
   12.30055618  123.86599731    0.44000000    2.19000006
   12.30305576  127.28500366    0.44000000    2.19000006
   12.30638885  118.90899658    0.41999999    2.19000006
   12.30972195  116.84300232    0.44000000    2.19000006
   12.31277752  112.05599976    0.41999999    2.19000006
   12.31611156  114.89199829    0.41999999    2.19000006
   12.31944466  119.36499786    0.41999999    2.21000004
   12.32250023  122.83799744    0.41999999    2.21000004
   12.32583332  103.98699951    0.41999999    2.21000004
   12.32888889  110.55500031    0.41999999    2.21000004
   12.33500004  110.55500031    0.41999999    2.21000004
   12.33916664  126.75900269    0.41999999    2.23000002
   12.34249973  112.61100006    0.41999999    2.23000002
   12.34555531  116.39199829    0.41999999    2.23000002
   12.34888840  117.65699768    0.41999999    2.23000002
   12.35194492  114.16899872    0.41999999    2.23000002
   12.35527802  109.36399841    0.41999999    2.23000002
   12.35861111  108.21600342    0.41999999    2.23000002
   12.36166668  125.87699890    0.40000001    2.23000002
   12.36500072  141.65400696    0.40000001    2.25000000
   12.36722279  104.46199799    0.41999999    2.23000002
   12.36861134  118.60500336    0.40000001    2.23000002
   12.37194443  124.86299896    0.40000001    2.23000002
   12.37777805  124.86299896    0.40000001    2.25000000
   12.38194466  103.02300262    0.40000001    2.25000000
   12.38527775  113.11499786    0.40000001    2.25000000
   12.38833332  120.91799927    0.40000001    2.25000000
   12.39166641  114.84799957    0.40000001    2.25000000
   12.39499950  115.93699646    0.40000001    2.25000000
   12.39805508  121.45800018    0.40000001    2.25000000
   12.40055561  106.47100067    0.40000001    2.25000000
   12.40166664  101.39700317    0.40000001    2.25000000
   12.40499973   96.62449646    0.40000001    2.25000000
   12.40833282  105.86100006    0.40000001    2.25000000
   12.41138840  102.82099915    0.40000001    2.25000000
   12.41472149   97.48819733    0.40000001    2.26999998
   12.42083359   97.48819733    0.40000001    2.26999998
   12.42472267  102.39800262    0.40000001    2.28999996
   12.42805576  102.03399658    0.40000001    2.28999996
   12.43138885  109.82700348    0.40000001    2.26999998
   12.43388939  108.83300018    0.40000001    2.28999996
   12.43472195  115.41100311    0.40000001    2.28999996
   12.43805599   96.83100128    0.38000000    2.28999996
   12.44138908   93.86869812    0.38000000    2.28999996
   12.44444466  109.83799744    0.38000000    2.28999996
   12.44777775  123.65499878    0.40000001    2.28999996
   12.45111084  104.81700134    0.38000000    2.28999996
   12.45416641  113.38500214    0.38000000    2.28999996
   12.45749950  110.20400238    0.38000000    2.30999994
   12.46361065  110.20400238    0.38000000    2.28999996
   12.46777725  104.69699860    0.38000000    2.28999996
   12.47083282  115.24800110    0.38000000    2.28999996
   12.47416592  108.00299835    0.38000000    2.30999994
   12.47749996  102.96199799    0.38000000    2.30999994
   12.48055553  102.26200104    0.38000000    2.30999994
   12.48388958  116.84100342    0.40000001    2.30999994
   12.48694515  112.04900360    0.38000000    2.30999994
   12.49027824  104.06900024    0.38000000    2.30999994
   12.49361134  111.23500061    0.40000001    2.30999994
   12.49666691  116.23899841    0.40000001    2.30999994
   12.50000000   99.29219818    0.38000000    2.30999994
   12.50055599  108.65299988    0.38000000    2.30999994
   12.50638866  108.65299988    0.38000000    2.30999994
   12.51055527  117.33100128    0.38000000    2.30999994
   12.51388931  106.18699646    0.38000000    2.30999994
   12.51694393  103.54499817    0.38000000    2.30999994
   12.52027798  103.51799774    0.38000000    2.30999994
   12.52361107  115.19699860    0.36000001    2.32999992
   12.52666664  114.56400299    0.36000001    2.32999992
   12.52999973  116.15499878    0.38000000    2.30999994
   12.53333378  110.66999817    0.38000000    2.32999992
   12.53388977  102.08999634    0.36000001    2.32999992
   12.53694534  101.39900208    0.36000001    2.32999992
   12.54000092   90.47360229    0.38000000    2.32999992
   12.54333401   99.48210144    0.36000001    2.32999992
   12.54916668   99.48210144    0.36000001    2.32999992
   12.55333328  105.71900177    0.38000000    2.32999992
   12.55666733  122.68699646    0.36000001    2.34999990
   12.55972195  121.12999725    0.36000001    2.34999990
   12.56305599  115.51799774    0.36000001    2.34999990
   12.56638908  105.30500031    0.36000001    2.34999990
   12.56722260   97.15110016    0.38000000    2.34999990
   12.56999969  106.46800232    0.36000001    2.34999990
   12.57305527  112.26799774    0.36000001    2.34999990
   12.57638836  110.21499634    0.38000000    2.34999990
   12.57944393  104.71499634    0.36000001    2.34999990
   12.58277798  115.75199890    0.36000001    2.34999990
   12.58611107  109.67299652    0.38000000    2.34999990
   12.59222221  109.67299652    0.36000001    2.34999990
   12.59611034  104.26399994    0.36000001    2.36999989
   12.59944439  107.62500000    0.36000001    2.36999989
   12.60055637  112.50099945    0.36000001    2.36999989
   12.60305595  112.88200378    0.36000001    2.36999989
   12.60611153  113.94300079    0.36000001    2.36999989
   12.60944462  113.16000366    0.38000000    2.36999989
   12.61250019  110.32199860    0.36000001    2.36999989
   12.61583328  104.21700287    0.36000001    2.36999989
   12.61916637  117.66999817    0.36000001    2.36999989
   12.62222195  105.47100067    0.36000001    2.36999989
   12.62555599  112.11399841    0.36000001    2.36999989
   12.62888908  109.37699890    0.36000001    2.36999989
   12.63500023  109.37699890    0.34000000    2.39000010
   12.63916683  108.61299896    0.34000000    2.36999989
   12.64222240  107.33000183    0.34000000    2.36999989
   12.64555550  110.17700195    0.36000001    2.39000010
   12.64888859  107.73000336    0.34000000    2.36999989
   12.65194416  101.60800171    0.36000001    2.39000010
   12.65527725  116.64700317    0.36000001    2.39000010
   12.65861034  107.71900177    0.36000001    2.36999989
   12.66166592  110.88300323    0.34000000    2.39000010
   12.66499996  112.07199860    0.34000000    2.39000010
   12.66722298  111.08200073    0.36000001    2.39000010
   12.66861153   91.79879761    0.36000001    2.39000010
   12.67166710  117.81700134    0.36000001    2.39000010
   12.67777824  117.81700134    0.36000001    2.40000010
   12.68194485  109.89800262    0.36000001    2.39000010
   12.68527794  111.79299927    0.34000000    2.39000010
   12.68833351  106.70999908    0.34000000    2.40000010
   12.69166660  107.95400238    0.34000000    2.40000010
   12.69472218  103.47799683    0.36000001    2.40000010
   12.69805527   98.66619873    0.34000000    2.39000010
   12.70055580  102.69899750    0.34000000    2.40000010
   12.70194435   97.04060364    0.34000000    2.40000010
   12.70499992  105.00299835    0.34000000    2.40000010
   12.70833302  103.91899872    0.34000000    2.40000010
   12.71138859  100.85299683    0.34000000    2.40000010
   12.71472168  106.36599731    0.34000000    2.40000010
   12.72055531  106.36599731    0.34000000    2.40000010
   12.72472191  106.73000336    0.34000000    2.40000010
   12.72805500  105.12699890    0.34000000    2.40000010
   12.73111057  105.51100159    0.34000000    2.40000010
   12.73388958  111.29299927    0.34000000    2.40000010
   12.73500061  107.23400116    0.34000000    2.40000010
   12.73805618  112.32599640    0.34000000    2.40000010
   12.74138927  103.12599945    0.34000000    2.42000008
   12.74444485   98.60430145    0.34000000    2.42000008
   12.74777794  110.80799866    0.34000000    2.42000008
   12.75111103  101.18099976    0.34000000    2.40000010
   12.75416660  103.10700226    0.34000000    2.42000008
   12.75749969   95.89510345    0.34000000    2.42000008
   12.76361084   95.89510345    0.34000000    2.42000008
   12.76749992  115.35800171    0.34000000    2.42000008
   12.77083302  115.30400085    0.31999999    2.44000006
   12.77416611   88.75330353    0.31999999    2.42000008
   12.77722168   87.68090057    0.31999999    2.42000008
   12.78055573  113.25099945    0.34000000    2.42000008
   12.78361130   96.88559723    0.31999999    2.42000008
   12.78694534  106.52500153    0.34000000    2.42000008
   12.79027843   94.36180115    0.34000000    2.42000008
   12.79333401  100.10099792    0.34000000    2.44000006
   12.79666710   99.00779724    0.34000000    2.44000006
   12.80000019   84.49369812    0.34000000    2.44000006
   12.80055618   90.05889893    0.34000000    2.44000006
   12.80638885   90.05889893    0.34000000    2.44000006
   12.81055546  105.13400269    0.34000000    2.44000006
   12.81361103   97.90699768    0.34000000    2.44000006
   12.81694412   99.31490326    0.31999999    2.44000006
   12.81999969  100.46600342    0.34000000    2.44000006
   12.82333374  105.01699829    0.31999999    2.44000006
   12.82666683   99.61109924    0.31999999    2.44000006
   12.82972240  105.00700378    0.31999999    2.44000006
   12.83305550  104.32299805    0.31999999    2.44000006
   12.83388901   93.20850372    0.31999999    2.44000006
   12.83666611  102.75199890    0.31999999    2.44000006
   12.83972168  101.34300232    0.34000000    2.46000004
   12.84305477  106.21199799    0.31999999    2.44000006
   12.84916592  106.21199799    0.34000000    2.44000006
   12.85333347  102.64700317    0.34000000    2.46000004
   12.85666752   99.36340332    0.31999999    2.46000004
   12.85972214   95.96890259    0.31999999    2.46000004
   12.86305618   96.48750305    0.31999999    2.46000004
   12.86638927  100.69599915    0.31999999    2.46000004
   12.86722279  100.89900208    0.31999999    2.46000004
   12.86999989  106.41300201    0.31999999    2.46000004
   12.87305546  105.65599823    0.31999999    2.46000004
   12.87638855   98.33080292    0.31999999    2.46000004
   12.87972260  102.18699646    0.31999999    2.46000004
   12.88277817   96.42870331    0.31999999    2.46000004
   12.88611126  105.29599762    0.31999999    2.46000004
   12.89194393  105.29599762    0.31999999    2.46000004
   12.89611053   97.32270050    0.31999999    2.46000004
   12.89944458  103.83100128    0.31999999    2.46000004
   12.90055561   88.50949860    0.31999999    2.46000004
   12.90305519  101.90399933    0.31999999    2.46000004
   12.90611076   99.31970215    0.31999999    2.46000004
   12.90944386  100.02700043    0.31999999    2.46000004
   12.91277695  108.12400055    0.31999999    2.48000002
   12.91583252  111.39800262    0.31999999    2.46000004
   12.91916656  113.72899628    0.31999999    2.46000004
   12.92222214  116.57199860    0.31999999    2.46000004
   12.92555618  101.25499725    0.31999999    2.48000002
   12.92888927  103.85500336    0.31999999    2.46000004
   12.93472195  103.85500336    0.31999999    2.48000002
   12.93888855  110.30200195    0.31999999    2.48000002
   12.94222260  103.56099701    0.31999999    2.48000002
   12.94555569  108.03600311    0.31999999    2.48000002
   12.94861126  104.41600037    0.31999999    2.48000002
   12.95194435  105.29399872    0.31999999    2.48000002
   12.95527744  109.00199890    0.31999999    2.48000002
   12.95833302  104.65200043    0.31999999    2.48000002
   12.96166611  105.54100037    0.31999999    2.48000002
   12.96500015  104.83300018    0.31999999    2.48000002
   12.96722221   97.79450226    0.31999999    2.48000002
   12.96861076   91.99490356    0.31999999    2.48000002
   12.97166634   98.80120087    0.31999999    2.48000002
   12.97777748   98.80120087    0.31999999    2.48000002
   12.98194408   97.31199646    0.31999999    2.50000000
   12.98500061  104.46600342    0.31999999    2.48000002
   12.98833370  102.02899933    0.31999999    2.50000000
   12.99138927  100.66999817    0.31999999    2.48000002
   12.99472237  100.66000366    0.31999999    2.50000000
   12.99805546  103.69599915    0.31999999    2.50000000
   13.00055599  102.62200165    0.31999999    2.50000000
   13.00166702   97.74449921    0.31999999    2.50000000
   13.00472260  107.44799805    0.31999999    2.50000000
   13.00805569  108.15499878    0.31999999    2.50000000
   13.01138878  112.88500214    0.31999999    2.50000000
   13.01444435  121.05899811    0.31999999    2.50000000
   13.02055550  121.05899811    0.30000001    2.50000000
   13.02472210  100.51100159    0.30000001    2.50000000
   13.02805519  103.96299744    0.31999999    2.50000000
   13.03111076  109.29499817    0.31999999    2.50000000
   13.03388977   99.66239929    0.30000001    2.50000000
   13.03500080   96.50689697    0.30000001    2.50000000
   13.03805637  107.81300354    0.30000001    2.51999998
   13.04138947  111.10600281    0.30000001    2.50000000
   13.04472256  106.20099640    0.30000001    2.50000000
   13.04777813  109.62200165    0.30000001    2.50000000
   13.05111122  110.50499725    0.30000001    2.50000000
   13.05444431  110.22399902    0.30000001    2.51999998
   13.05749989  109.16600037    0.31999999    2.51999998
   13.06333351  109.16600037    0.31999999    2.51999998
   13.06750011   96.20050049    0.31999999    2.51999998
   13.07083321  106.55100250    0.31999999    2.50000000
   13.07388878  122.10299683    0.30000001    2.50000000
   13.07722187  107.31700134    0.30000001    2.51999998
   13.08055592  103.35600281    0.30000001    2.51999998
   13.08361053  103.00700378    0.31999999    2.51999998
   13.08694458  100.35600281    0.31999999    2.51999998
   13.09027767  101.64900208    0.30000001    2.51999998
   13.09333324  112.38200378    0.31999999    2.51999998
   13.09666634  109.47699738    0.30000001    2.51999998
   13.09972191  111.24800110    0.30000001    2.51999998
   13.10055637  107.33999634    0.30000001    2.51999998
   13.12138939  107.33999634    0.31999999    2.51999998
   13.12555599  105.05400085    0.30000001    2.51999998
   13.12861156  104.73200226    0.30000001    2.53999996
   13.13194466   91.03970337    0.30000001    2.51999998
   13.13388920   97.55809784    0.31999999    2.51999998
   13.13555527   90.10340118    0.31999999    2.51999998
   13.13861084   83.75789642    0.30000001    2.53999996
   13.14194393   98.80339813    0.30000001    2.51999998
   13.14527798   95.45680237    0.30000001    2.51999998
   13.14833355  103.51399994    0.30000001    2.53999996
   13.15166664  102.94300079    0.30000001    2.53999996
   13.15499973   90.38269806    0.30000001    2.53999996
   13.15805531   96.34059906    0.31999999    2.53999996
   13.16416645   96.34059906    0.30000001    2.53999996
   13.16805553   99.16750336    0.30000001    2.53999996
   13.17138958   92.47810364    0.30000001    2.53999996
   13.17472267  105.05000305    0.30000001    2.53999996
   13.17777824  108.06900024    0.31999999    2.53999996
   13.18111134   96.17600250    0.30000001    2.53999996
   13.18444443   90.63899994    0.30000001    2.53999996
   13.18750000  109.58300018    0.31999999    2.53999996
   13.19083309  102.29399872    0.30000001    2.53999996
   13.19388866  104.94699860    0.31999999    2.55999994
   13.19722271  100.34200287    0.31999999    2.53999996
   13.20055580  104.58899689    0.30000001    2.53999996
   13.20111084   99.94589996    0.30000001    2.53999996
   13.20694447   99.94589996    0.30000001    2.53999996
   13.21111107  102.48799896    0.30000001    2.53999996
   13.21416664  104.09300232    0.30000001    2.55999994
   13.21749973   93.26699829    0.30000001    2.53999996
   13.22083282   92.55599976    0.30000001    2.53999996
   13.22388840  100.49099731    0.30000001    2.53999996
   13.22722149  102.16699982    0.30000001    2.55999994
   13.23027706   98.03119659    0.30000001    2.55999994
   13.23361111   94.89830017    0.30000001    2.55999994
   13.23444462   99.53610229    0.30000001    2.55999994
   13.23722267  104.09799957    0.30000001    2.55999994
   13.24055576  101.75900269    0.30000001    2.53999996
   13.24388885   98.70619965    0.30000001    2.55999994
   13.24972248   98.70619965    0.31999999    2.55999994
   13.25388908  109.59300232    0.31999999    2.55999994
   13.25722218  105.98699951    0.30000001    2.53999996
   13.26027775   94.14589691    0.30000001    2.53999996
   13.26361084   96.79280090    0.30000001    2.55999994
   13.26694393   97.78309631    0.30000001    2.55999994
   13.26777744  102.64099884    0.30000001    2.55999994
   13.27027798   98.40290070    0.30000001    2.55999994
   13.27361107  103.25299835    0.30000001    2.55999994
   13.27694416  116.01699829    0.30000001    2.55999994
   13.27999973   91.25240326    0.30000001    2.55999994
   13.28333378  104.86299896    0.30000001    2.55999994
   13.28638935   98.77760315    0.30000001    2.55999994
   13.29250050   98.77760315    0.30000001    2.55999994
   13.29666710  107.94599915    0.30000001    2.57999992
   13.30000019  101.22499847    0.28000000    2.55999994
   13.30111122  106.30699921    0.30000001    2.55999994
   13.30361176  104.19699860    0.28000000    2.55999994
   13.30694485  107.67900085    0.28000000    2.57999992
   13.31027794  105.94300079    0.28000000    2.55999994
   13.31333351   93.06999969    0.28000000    2.57999992
   13.31666660  101.71099854    0.30000001    2.55999994
   13.31972218  104.71399689    0.30000001    2.55999994
   13.32305527  102.14099884    0.28000000    2.55999994
   13.32638836  104.75599670    0.28000000    2.57999992
   13.32944393  105.56099701    0.28000000    2.57999992
   13.33555508  105.56099701    0.28000000    2.57999992
   13.33944416  106.90499878    0.28000000    2.57999992
   13.34277725  103.62300110    0.28000000    2.55999994
   13.34611034  102.23200226    0.30000001    2.57999992
   13.34916592  103.51100159    0.28000000    2.57999992
   13.35249996  101.06600189    0.28000000    2.57999992
   13.35555553  109.21199799    0.30000001    2.57999992
   13.35888958  104.51499939    0.30000001    2.57999992
   13.36222267  106.33200073    0.28000000    2.57999992
   13.36527824  107.19000244    0.30000001    2.57999992
   13.36777782   85.42530060    0.28000000    2.57999992
   13.36888885  103.10199738    0.28000000    2.57999992
   13.37222195  102.48100281    0.28000000    2.57999992
   13.37833309  102.48100281    0.28000000    2.57999992
   13.38249969  103.09999847    0.28000000    2.57999992
   13.38555527  106.27999878    0.28000000    2.57999992
   13.38888836  110.97899628    0.30000001    2.57999992
   13.39194393  103.36499786    0.30000001    2.57999992
   13.39527798  102.68800354    0.30000001    2.57999992
   13.39861107  101.02100372    0.28000000    2.59999990
   13.40111065  107.42500305    0.30000001    2.57999992
   13.40194416  107.28600311    0.30000001    2.57999992
   13.40527725   97.45230103    0.28000000    2.57999992
   13.40861034   98.73909760    0.28000000    2.59999990
   13.41166592  107.59500122    0.28000000    2.59999990
   13.41499996  100.76899719    0.28000000    2.59999990
   13.42111111  100.76899719    0.28000000    2.59999990
   13.42527771  107.78800201    0.28000000    2.59999990
   13.42833328   97.87110138    0.28000000    2.59999990
   13.43166733  105.88700104    0.28000000    2.59999990
   13.43444443  103.81199646    0.28000000    2.59999990
   13.43527794  100.66400146    0.28000000    2.59999990
   13.43888855  103.48500061    0.28000000    2.59999990
   13.44194412   98.43170166    0.28000000    2.59999990
   13.44527817   95.47879791    0.28000000    2.59999990
   13.44833374   98.33660126    0.28000000    2.59999990
   13.45166683  106.95099640    0.28000000    2.59999990
   13.45499992   99.74400330    0.28000000    2.59999990
   13.45833302  106.77600098    0.28000000    2.59999990
   13.46388912  106.77600098    0.28000000    2.59999990
   13.46805477   99.20929718    0.28000000    2.59999990
   13.47138882  114.35299683    0.28000000    2.59999990
   13.47444439  108.52200317    0.28000000    2.59999990
   13.47777748  105.16300201    0.28000000    2.59999990
   13.48111057  106.77200317    0.28000000    2.59999990
   13.48416710  109.38300323    0.28000000    2.59999990
   13.48750019  123.43099976    0.28000000    2.59999990
   13.49055576  111.65200043    0.28000000    2.61999989
   13.49388885  111.48799896    0.28000000    2.59999990
   13.49722290  106.52600098    0.28000000    2.61999989
   13.50027752  101.98999786    0.28000000    2.61999989
   13.50111103  105.50900269    0.28000000    2.61999989
   13.50666714  105.50900269    0.28000000    2.59999990
   13.51083374  102.30400085    0.28000000    2.61999989
   13.51416683   99.79119873    0.28000000    2.59999990
   13.51749992  100.26699829    0.28000000    2.61999989
   13.52055550   96.88050079    0.28000000    2.61999989
   13.52388859  103.40599823    0.28000000    2.61999989
   13.52694416  103.71199799    0.28000000    2.61999989
   13.53027725   99.50789642    0.28000000    2.59999990
   13.53361130   95.08419800    0.28000000    2.59999990
   13.53444481   91.54730225    0.28000000    2.59999990
   13.53694534  101.89299774    0.28000000    2.61999989
   13.54027843   98.07289886    0.28000000    2.61999989
   13.54361153   97.96540070    0.28000000    2.61999989
   13.54972267   97.96540070    0.28000000    2.61999989
   13.55388927   99.20529938    0.28000000    2.61999989
   13.55694485  102.89700317    0.28000000    2.61999989
   13.56027794  109.85399628    0.28000000    2.61999989
   13.56333351  105.52300262    0.28000000    2.61999989
   13.56666660  113.40399933    0.28000000    2.61999989
   13.56777763  103.02600098    0.28000000    2.61999989
   13.57027817   92.52020264    0.28000000    2.61999989
   13.57361126  105.63899994    0.28000000    2.64000010
   13.57694435   93.14119720    0.28000000    2.64000010
   13.57999992  100.70500183    0.28000000    2.61999989
   13.58333302   99.08309937    0.28000000    2.61999989
   13.58666611  105.76699829    0.28000000    2.61999989
   13.59249973  105.76699829    0.28000000    2.61999989
   13.59666634  107.08899689    0.28000000    2.61999989
   13.59972191  114.26599884    0.25999999    2.61999989
   13.60111141   97.78690338    0.25999999    2.64000010
   13.60333347  107.54599762    0.25999999    2.61999989
   13.60694504  101.99199677    0.25999999    2.64000010
   13.61000061   97.56659698    0.28000000    2.64000010
   13.61333370  103.83000183    0.25999999    2.61999989
   13.61638927   99.86930084    0.25999999    2.61999989
   13.61972237   98.49400330    0.25999999    2.61999989
   13.62305546  100.90499878    0.25999999    2.64000010
   13.62611103  100.17600250    0.28000000    2.64000010
   13.62944412  104.22200012    0.25999999    2.64000010
   13.63527775  104.22200012    0.28000000    2.61999989
   13.63944435  100.13300323    0.25999999    2.64000010
   13.64277744  100.76000214    0.25999999    2.61999989
   13.64583302  101.63200378    0.25999999    2.64000010
   13.64916611  102.48100281    0.25999999    2.64000010
   13.65249920   92.82710266    0.25999999    2.61999989
   13.65555477   96.48349762    0.28000000    2.61999989
   13.65888882  103.32700348    0.25999999    2.64000010
   13.66222191   92.98639679    0.25999999    2.64000010
   13.66527748   95.13110352    0.25999999    2.64000010
   13.66777802  110.97499847    0.28000000    2.64000010
   13.66916656  108.28700256    0.28000000    2.64000010
   13.67222214   99.49299622    0.28000000    2.64000010
   13.67805576   99.49299622    0.28000000    2.64000010
   13.68222237  107.31600189    0.25999999    2.64000010
   13.68555546  103.65699768    0.25999999    2.64000010
   13.68888855  102.43699646    0.25999999    2.64000010
   13.69194412   99.03029633    0.25999999    2.64000010
   13.69527817  104.47399902    0.28000000    2.64000010
   13.69833374  104.98699951    0.25999999    2.64000010
   13.70111084   99.04820251    0.28000000    2.64000010
   13.70194435   92.15170288    0.25999999    2.64000010
   13.70527744  100.80699921    0.28000000    2.64000010
   13.70861053  113.91300201    0.25999999    2.64000010
   13.71194458  118.01999664    0.25999999    2.64000010
   13.71500015  112.31600189    0.25999999    2.64000010
   13.72111034  112.31600189    0.25999999    2.64000010
   13.72527695  109.55300140    0.25999999    2.64000010
   13.72833252  100.94599915    0.25999999    2.64000010
   13.73166656  116.01000214    0.25999999    2.64000010
   13.73444462  103.65499878    0.25999999    2.64000010
   13.73555565  105.68699646    0.25999999    2.66000009
   13.73861122   95.90769958    0.25999999    2.66000009
   13.74194431  102.51899719    0.25999999    2.66000009
   13.74499989  101.72200012    0.25999999    2.66000009
   13.74833393   99.21389771    0.25999999    2.66000009
   13.75166702   96.78649902    0.25999999    2.66000009
   13.75472260  104.19699860    0.25999999    2.66000009
   13.75805569  101.65799713    0.25999999    2.66000009
   13.76388931  101.65799713    0.25999999    2.66000009
   13.76805496  105.36699677    0.25999999    2.66000009
   13.77111053  106.72399902    0.25999999    2.66000009
   13.77444458  106.30599976    0.25999999    2.66000009
   13.77777767   99.00099945    0.25999999    2.66000009
   13.78083324   98.86759949    0.25999999    2.66000009
   13.78416729   98.42600250    0.25999999    2.66000009
   13.78750038  103.38800049    0.25999999    2.66000009
   13.79055595  101.19000244    0.25000000    2.66000009
   13.79388905   93.47480011    0.25000000    2.66000009
   13.79694462   98.34269714    0.25000000    2.66000009
   13.80027771   97.03479767    0.25000000    2.66000009
   13.80111122   98.09809875    0.25000000    2.66000009
   13.80666733   98.09809875    0.25000000    2.66000009
   13.81083393   94.62290192    0.25000000    2.66000009
   13.81416702   91.65869904    0.25999999    2.67000008
   13.81722260   98.60669708    0.25999999    2.67000008
   13.82055569   97.32420349    0.25000000    2.66000009
   13.82388878   94.04229736    0.25999999    2.67000008
   13.82694435   92.59590149    0.25999999    2.66000009
   13.83027744   95.37480164    0.25999999    2.66000009
   13.83333302   94.57769775    0.25999999    2.66000009
   13.83444405   88.67759705    0.25999999    2.66000009
   13.83722210   92.31600189    0.25999999    2.66000009
   13.84027767   91.35800171    0.25999999    2.67000008
   13.84361076   91.45880127    0.25999999    2.66000009
   13.84944439   91.45880127    0.25000000    2.66000009
   13.85361195   97.15950012    0.25999999    2.66000009
   13.85694504   91.96430206    0.25999999    2.67000008
   13.86027813   91.63520050    0.25999999    2.67000008
   13.86333370   95.12249756    0.25999999    2.66000009
   13.86666679   97.43499756    0.25999999    2.67000008
   13.86777782  101.34300232    0.25999999    2.67000008
   13.87027836   93.67140198    0.25999999    2.67000008
   13.87333393   90.13819885    0.25999999    2.66000009
   13.87666702  103.95800018    0.25999999    2.66000009
   13.88000011   97.86650085    0.25000000    2.67000008
   13.88305569   96.75270081    0.25999999    2.67000008
   13.88638878   94.78340149    0.25000000    2.67000008
   13.89249992   94.78340149    0.25000000    2.67000008
   13.89666653   95.01319885    0.25000000    2.67000008
   13.89972210  100.58399963    0.25000000    2.67000008
   13.90111065   95.16680145    0.25000000    2.67000008
   13.90361118   96.54190063    0.25999999    2.67000008
   13.90666676  100.50700378    0.25000000    2.67000008
   13.90999985   94.68710327    0.25000000    2.67000008
   13.91305542  106.87000275    0.25000000    2.67000008
   13.91638851   99.38700104    0.25000000    2.67000008
   13.91972256   93.77700043    0.25000000    2.67000008
   13.92277813   94.64089966    0.25000000    2.67000008
   13.92611122   93.43659973    0.25000000    2.67000008
   13.92944431  101.71900177    0.25000000    2.67000008
   13.93527794  101.71900177    0.25000000    2.67000008
   13.93944454   98.06009674    0.25000000    2.67000008
   13.94250011  104.00900269    0.25000000    2.67000008
   13.94583321   91.42240143    0.25000000    2.67000008
   13.94916630   96.58309937    0.25000000    2.67000008
   13.95222187   99.10870361    0.25000000    2.67000008
   13.95555496   98.19960022    0.25999999    2.67000008
   13.95888901   94.77300262    0.25000000    2.67000008
   13.96194458  101.27500153    0.25999999    2.67000008
   13.96527767   96.58260345    0.25999999    2.67000008
   13.96777725   91.91310120    0.25000000    2.67000008
   13.96888828   90.59310150    0.25000000    2.67000008
   13.97194386   97.20600128    0.25000000    2.67000008
   13.97805500   97.20600128    0.25000000    2.67000008
   13.98222160   98.71620178    0.25000000    2.67000008
   13.98555565  101.23100281    0.25000000    2.67000008
   13.98861122   96.09410095    0.25999999    2.67000008
   13.99194431   94.69979858    0.25000000    2.69000006
   13.99527836   97.53939819    0.25000000    2.67000008
   13.99833393   97.37310028    0.25999999    2.67000008
   14.00111103   92.50930023    0.25999999    2.67000008
   14.00222206  102.07399750    0.25999999    2.67000008
   14.00527763   95.38310242    0.25999999    2.67000008
   14.00861073   97.97530365    0.25000000    2.67000008
   14.01194477   93.99610138    0.25999999    2.67000008
   14.01500034   95.56909943    0.25999999    2.67000008
   14.02083302   95.56909943    0.25000000    2.67000008
   14.02499962   94.65760040    0.25000000    2.69000006
   14.02833271   98.32859802    0.25000000    2.67000008
   14.03166676   95.69450378    0.25000000    2.69000006
   14.03444481   91.81559753    0.25000000    2.67000008
   14.03527832   90.50350189    0.25000000    2.69000006
   14.03833389  109.96600342    0.25000000    2.67000008
   14.04166698   86.51959991    0.25000000    2.69000006
   14.04500008  100.75399780    0.25000000    2.69000006
   14.04805565   91.49369812    0.25000000    2.69000006
   14.05138874   90.31919861    0.25000000    2.67000008
   14.05444431   88.06279755    0.25000000    2.67000008
   14.05777836   93.02989960    0.25000000    2.69000006
   14.06388950   93.02989960    0.25000000    2.67000008
   14.06805515   86.80429840    0.25000000    2.69000006
   14.07111073   92.11019897    0.25000000    2.67000008
   14.07444477   88.10839844    0.25000000    2.69000006
   14.07750034   83.92690277    0.25000000    2.69000006
   14.08083344   91.66190338    0.25000000    2.69000006
   14.08416653   88.46179962    0.25000000    2.69000006
   14.08722210   92.92389679    0.25999999    2.69000006
   14.09055519   90.71269989    0.25999999    2.69000006
   14.09388828   91.10639954    0.25000000    2.69000006
   14.09694386   94.94670105    0.25999999    2.69000006
   14.10027790   89.57659912    0.25999999    2.69000006
   14.10111141   94.09179688    0.25999999    2.69000006
   14.10666752   94.09179688    0.25999999    2.69000006
   14.11083412   88.12380219    0.25999999    2.69000006
   14.11388969   91.32119751    0.25999999    2.69000006
   14.11722279   89.61789703    0.25999999    2.69000006
   14.13472176   93.46520233    0.25999999    2.69000006
   14.13722229   92.39659882    0.25999999    2.69000006
   14.14055538   90.48449707    0.25000000    2.69000006
   14.14361095   90.58409882    0.25000000    2.69000006
   14.14972210   90.58409882    0.25000000    2.69000006
   14.15388870   96.60119629    0.25000000    2.69000006
   14.15694427   87.11229706    0.25000000    2.71000004
   14.16027737   93.50150299    0.25000000    2.71000004
   14.16361046   94.02559662    0.25000000    2.69000006
   14.16666698   91.78209686    0.25000000    2.71000004
   14.16805553   94.42230225    0.25000000    2.69000006
   14.17055607   99.11299896    0.25000000    2.69000006
   14.17361164   93.66429901    0.25000000    2.69000006
   14.17694473   87.85990143    0.25000000    2.69000006
   14.18027782   94.53790283    0.25000000    2.69000006
   14.18333340  100.93000031    0.25000000    2.69000006
   14.18666649  103.05200195    0.25000000    2.69000006
   14.19250011  103.05200195    0.25000000    2.71000004
   14.19666672   98.36129761    0.25000000    2.71000004
   14.19999981   96.12480164    0.25999999    2.71000004
   14.20138836   94.73069763    0.25999999    2.69000006
   14.20361137   99.66970062    0.25000000    2.69000006
   14.20666695   97.81950378    0.25000000    2.69000006
   14.21000004   93.70079803    0.25000000    2.69000006
   14.21333313   98.49349976    0.25999999    2.69000006
   14.21638870   93.64900208    0.25000000    2.71000004
   14.21972179   97.11550140    0.25000000    2.71000004
   14.22305489   99.08190155    0.25000000    2.69000006
   14.22611046   98.78340149    0.25000000    2.71000004
   14.22944355   96.09120178    0.25000000    2.71000004
   14.23527813   96.09120178    0.25999999    2.69000006
   14.23944473  104.86399841    0.25000000    2.69000006
   14.24277782  101.36699677    0.25000000    2.69000006
   14.24583340   99.96099854    0.25999999    2.71000004
   14.24916649   92.98909760    0.25000000    2.71000004
   14.25249958   99.34279633    0.25999999    2.71000004
   14.25555515   99.83999634    0.30000001    2.71000004
   14.25888920   99.45839691    0.36000001    2.71000004
   14.26222229   99.87689972    0.30000001    2.71000004
   14.26527786  106.83200073    0.31999999    2.71000004
   14.26805496   94.02290344    0.30000001    2.71000004
   14.26916599   93.87760162    0.31999999    2.71000004
   14.27222157  100.09999847    0.31999999    2.71000004
   14.27833271  100.09999847    0.36000001    2.71000004
   14.28222179   96.18160248    0.36000001    2.71000004
   14.28555584   99.69899750    0.31999999    2.71000004
   14.28888893  102.11000061    0.30000001    2.71000004
   14.29194450   94.00029755    0.28000000    2.71000004
   14.29527855  102.96499634    0.28000000    2.71000004
   14.29861164  101.97100067    0.28000000    2.71000004
   14.30138874  101.35399628    0.25999999    2.71000004
   14.30222225  107.10199738    0.25999999    2.71000004
   14.30527782   94.28070068    0.28000000    2.71000004
   14.30861092   96.12159729    0.28000000    2.71000004
   14.31194496   95.77230072    0.28000000    2.69000006
   14.31500053   95.49749756    0.28000000    2.71000004
   14.32111073   95.49749756    0.30000001    2.71000004
   14.32527733  101.71499634    0.28000000    2.71000004
   14.32833290   98.43779755    0.30000001    2.71000004
   14.33166695  117.11499786    0.30000001    2.73000002
   14.33472157  112.40599823    0.31999999    2.71000004
   14.33527756   84.75330353    0.31999999    2.71000004
   14.33833313  117.76200104    0.30000001    2.71000004
   14.34166622  127.91300201    0.28000000    2.71000004
   14.34499931  124.52700043    0.28000000    2.71000004
   14.34805489  129.55999756    0.28000000    2.71000004
   14.35138893  138.58999634    0.28000000    2.71000004
   14.35472298  122.56199646    0.28000000    2.71000004
   14.35777855  127.41799927    0.28000000    2.71000004
   14.36388969  127.41799927    0.30000001    2.71000004
   14.36805534  138.67999268    0.31999999    2.71000004
   14.36861134  139.81799316    0.31999999    2.71000004
   14.37166691  153.49499512    0.31999999    2.71000004
   14.37500000  153.33000183    0.30000001    2.71000004
   14.37833309  159.18299866    0.30000001    2.71000004
   14.38166714  155.44799805    0.30000001    2.71000004
   14.38472176  145.93899536    0.30000001    2.71000004
   14.38805580  148.44500732    0.28000000    2.71000004
   14.39138889  155.66700745    0.30000001    2.71000004
   14.39444447  138.99899292    0.30000001    2.71000004
   14.39777756  157.07099915    0.28000000    2.71000004
   14.40111065  156.08399963    0.25999999    2.71000004
   14.40138817  154.80000305    0.25999999    2.71000004
   14.40666676  154.80000305    0.25999999    2.73000002
   14.41083336  146.27999878    0.25999999    2.71000004
   14.41416645  131.52099609    0.25999999    2.71000004
   14.41722298  146.09899902    0.25999999    2.71000004
   14.42055607  145.52000427    0.25999999    2.71000004
   14.42388916  124.23899841    0.25999999    2.71000004
   14.42694473  128.87899780    0.30000001    2.71000004
   14.43027782  129.17900085    0.30000001    2.71000004
   14.43361092  118.86900330    0.30000001    2.71000004
   14.43472195  114.27899933    0.30000001    2.73000002
   14.43722248  120.93499756    0.28000000    2.71000004
   14.44055557  118.13400269    0.28000000    2.71000004
   14.44361115  139.03199768    0.25999999    2.71000004
   14.44944477  139.03199768    0.28000000    2.71000004
   14.45361137  124.67099762    0.25999999    2.73000002
   14.45694447  127.95200348    0.25000000    2.73000002
   14.46027756  117.27400208    0.25000000    2.71000004
   14.46333313  113.65599823    0.25000000    2.73000002
   14.46666622  111.45099640    0.25000000    2.73000002
   14.46833324  107.13700104    0.25000000    2.73000002
   14.47027779  111.05500031    0.25000000    2.73000002
   14.47361088  120.42900085    0.25000000    2.73000002
   14.47666645  116.65299988    0.25000000    2.73000002
   14.47999954  121.62799835    0.25000000    2.73000002
   14.48333359  121.44599915    0.25000000    2.73000002
   14.48638916  109.71199799    0.25000000    2.71000004
   14.49250031  109.71199799    0.25000000    2.73000002
   14.49666691  113.54399872    0.25000000    2.73000002
   14.49972248  111.25000000    0.25000000    2.73000002
   14.50138855  105.53399658    0.25000000    2.73000002
   14.50333309  105.68299866    0.25000000    2.73000002
   14.50666714  104.63800049    0.25999999    2.73000002
   14.50972176  101.68299866    0.25000000    2.73000002
   14.51305580  100.99199677    0.25000000    2.73000002
   14.51638889  110.51799774    0.25000000    2.73000002
   14.51944447  111.36599731    0.25000000    2.73000002
   14.52277756  109.58000183    0.25000000    2.73000002
   14.52611065   98.43119812    0.25000000    2.73000002
   14.52916622  112.06600189    0.25000000    2.73000002
   14.53527832  112.06600189    0.25999999    2.71000004
   14.53944492   99.10489655    0.28000000    2.73000002
   14.54250050   98.55239868    0.28000000    2.73000002
   14.54583359  102.05000305    0.28000000    2.73000002
   14.54916668   97.30660248    0.28000000    2.73000002
   14.55222225   99.22180176    0.28000000    2.73000002
   14.55555534   99.32969666    0.28000000    2.73000002
   14.55888939  104.04199982    0.28000000    2.73000002
   14.56194496  104.49600220    0.31999999    2.73000002
   14.56527805  105.93900299    0.36000001    2.73000002
   14.56833363  101.88300323    0.41999999    2.73000002
   14.56888866  102.22000122    0.41999999    2.73000002
   14.57222176  104.25499725    0.38000000    2.73000002
   14.57805538  104.25499725    0.34000000    2.75000000
   14.58222198  103.14399719    0.30000001    2.73000002
   14.58555508   96.27940369    0.28000000    2.73000002
   14.58861065   95.95770264    0.25999999    2.73000002
   14.59194374   93.25610352    0.25999999    2.73000002
   14.59527779   95.64440155    0.25999999    2.73000002
   14.59833336  102.56500244    0.25999999    2.73000002
   14.60166740  100.73400116    0.25000000    2.73000002
   14.60194492  103.56300354    0.25000000    2.73000002
   14.60527802   98.26840210    0.25000000    2.73000002
   14.60833359  103.16200256    0.25000000    2.73000002
   14.61166668   95.67410278    0.25000000    2.75000000
   14.61500072   93.08450317    0.25999999    2.75000000
   14.62083340   93.08450317    0.25000000    2.73000002
   14.62500000   92.47779846    0.25000000    2.75000000
   14.62833309   99.12180328    0.25000000    2.75000000
   14.63166714   97.62100220    0.25000000    2.73000002
   14.63472176   99.16929626    0.25000000    2.75000000
   14.63527775  100.31700134    0.25000000    2.75000000
   14.63861084  100.36299896    0.25000000    2.73000002
   14.64166641  103.25499725    0.25000000    2.73000002
   14.64499950   96.65149689    0.25000000    2.73000002
   14.64833355  100.23100281    0.25000000    2.73000002
   14.65138817   95.49680328    0.25000000    2.73000002
   14.65472221  106.95500183    0.25000000    2.73000002
   14.65805531   95.60310364    0.25000000    2.73000002
   14.66388893   95.60310364    0.25000000    2.75000000
   14.66805553   94.75550079    0.25000000    2.73000002
   14.66861153   91.61250305    0.25000000    2.73000002
   14.67166710   99.91609955    0.25000000    2.75000000
   14.67472267   99.09210205    0.25000000    2.75000000
   14.67805576  100.00399780    0.25000000    2.73000002
   14.68138885  101.27500153    0.25000000    2.75000000
   14.68444443  100.15499878    0.25000000    2.75000000
   14.68777752   99.25810242    0.23000000    2.73000002
   14.69111156   95.30970001    0.25000000    2.73000002
   14.69416714   97.58570099    0.23000000    2.75000000
   14.69750023   98.22149658    0.23000000    2.73000002
   14.70083332  104.07399750    0.25000000    2.73000002
   14.70194435   96.86170197    0.25000000    2.73000002
   14.70666695   96.86170197    0.25000000    2.75000000
   14.71083355  104.24800110    0.25000000    2.75000000
   14.71388912   97.42690277    0.25000000    2.73000002
   14.71722221   92.38580322    0.25999999    2.75000000
   14.72055531  100.63400269    0.25000000    2.75000000
   14.72388840  103.01000214    0.25000000    2.75000000
   14.72722149  105.13099670    0.25000000    2.75000000
   14.73027706   98.76730347    0.25999999    2.75000000
   14.73361111  106.62400055    0.25999999    2.75000000
   14.73527813   98.93489838    0.25999999    2.75000000
   14.73722267  109.51100159    0.25999999    2.75000000
   14.74055576   96.49530029    0.25999999    2.75000000
   14.74361134  100.65699768    0.25999999    2.75000000
   14.74944496  100.65699768    0.25000000    2.75000000
   14.75361156   97.03060150    0.25000000    2.75000000
   14.75694466  100.16000366    0.25000000    2.73000002
   14.76000023   93.64469910    0.25000000    2.75000000
   14.76333332   96.69409943    0.25000000    2.75000000
   14.76666641   95.50569916    0.25000000    2.75000000
   14.76861095   98.20120239    0.25000000    2.75000000
   14.77027798   93.34359741    0.25000000    2.73000002
   14.77333355   99.17050171    0.25000000    2.75000000
   14.77666664   96.58390045    0.25000000    2.75000000
   14.77999973   97.40139771    0.25000000    2.75000000
   14.78305531   97.93009949    0.25000000    2.75000000
   14.78638935   85.49379730    0.25000000    2.75000000
   14.79222298   85.49379730    0.25000000    2.75000000
   14.79638958   93.44190216    0.25000000    2.75000000
   14.79972267   97.32489777    0.25000000    2.75000000
   14.80194473  107.58499908    0.25000000    2.75000000
   14.80333328  104.23100281    0.25000000    2.75000000
   14.80666733   91.01989746    0.25000000    2.75000000
   14.80972195   97.04550171    0.25000000    2.75000000
   14.81305599   95.78559875    0.25000000    2.75000000
   14.81611156   96.76529694    0.25000000    2.75000000
   14.81944466   93.56069946    0.25000000    2.75000000
   14.82277775   96.14440155    0.25000000    2.75000000
   14.82583332   97.05059814    0.25000000    2.75000000
   14.82916641  100.93599701    0.25000000    2.75000000
   14.83527756  100.93599701    0.25000000    2.75000000
   14.83944416   95.41100311    0.25000000    2.75000000
   14.84249973   99.06860352    0.25000000    2.75000000
   14.84583282  103.73799896    0.25000000    2.75000000
   14.84888840   96.54599762    0.25999999    2.75000000
   14.85222244   96.08270264    0.25000000    2.75000000
   14.85555553   97.78720093    0.25000000    2.75000000
   14.85861111   93.25440216    0.25000000    2.76999998
   14.86194515   96.47250366    0.25000000    2.75000000
   14.86527824   95.67459869    0.25000000    2.75000000
   14.86833382  102.48600006    0.25999999    2.75000000
   14.87027836   97.54509735    0.25999999    2.75000000
   14.87194443   93.86160278    0.25000000    2.75000000
   14.87805557   93.86160278    0.25000000    2.75000000
   14.88222218  102.27700043    0.23000000    2.75000000
   14.88527775   94.71849823    0.23000000    2.75000000
   14.88861084   96.80519867    0.23000000    2.75000000
   14.89194393   91.00340271    0.34000000    2.75000000
   14.89499950   95.83869934    0.28000000    2.75000000
   14.89833355  102.90799713    0.30000001    2.75000000
   14.90166664   96.55039978    0.30000001    2.75000000
   14.90361118   97.81819916    0.31999999    2.75000000
   14.90499973   97.50740051    0.31999999    2.76999998
   14.90833282   95.70890045    0.34000000    2.75000000
   14.91166592   90.56069946    0.38000000    2.75000000
   14.91472149   98.75749969    0.38000000    2.75000000
   14.92083359   98.75749969    0.31999999    2.75000000
   14.92500019  104.51200104    0.25999999    2.75000000
   14.92833328   97.49919891    0.25999999    2.75000000
   14.93138885  101.92199707    0.28000000    2.75000000
   14.93472195  100.12899780    0.28000000    2.75000000
   14.93722248   93.30210114    0.28000000    2.75000000
   14.93833351   95.41649628    0.28000000    2.75000000
   14.94166660   93.93430328    0.28000000    2.75000000
   14.94472218  101.14099884    0.25999999    2.75000000
   14.94805527   90.34619904    0.30000001    2.75000000
   14.95138836   93.58159637    0.30000001    2.75000000
   14.95444393   89.15319824    0.31999999    2.75000000
   14.95777798   92.81330109    0.31999999    2.75000000
   14.96361065   92.81330109    0.28000000    2.76999998
   14.96777725   94.82270050    0.28000000    2.75000000
   14.97055531   93.23919678    0.25000000    2.75000000
   14.97138882   93.72090149    0.25000000    2.75000000
   14.97472191   89.10479736    0.25000000    2.76999998
   14.97777748   92.27590179    0.25000000    2.76999998
   14.98111057   92.37619781    0.25000000    2.76999998
   14.98444462   90.67800140    0.25999999    2.76999998
   14.98750019   88.03150177    0.25999999    2.75000000
   14.99083328   93.09089661    0.28000000    2.75000000
   14.99416733   89.22920227    0.25999999    2.75000000
   14.99722290   95.92769623    0.25999999    2.76999998
   15.00055599   92.35279846    0.25000000    2.75000000
   15.00666714   92.35279846    0.25000000    2.76999998
   15.01055527   93.29290009    0.25000000    2.76999998
   15.01388931   91.37319946    0.25000000    2.76999998
   15.01722240   95.16739655    0.25000000    2.76999998
   15.02027798   88.94999695    0.25000000    2.75000000
   15.02361107   95.41570282    0.25000000    2.75000000
   15.02694416   94.61910248    0.30000001    2.75000000
   15.02999973   92.58280182    0.34000000    2.76999998
   15.03333378   89.89939880    0.30000001    2.76999998
   15.03638935   88.27359772    0.31999999    2.76999998
   15.03750038   85.48970032    0.31999999    2.76999998
   15.04027843   91.86000061    0.31999999    2.76999998
   15.04333401   89.14830017    0.30000001    2.76999998
   15.04944515   89.14830017    0.30000001    2.76999998
   15.05361176   90.15139771    0.28000000    2.76999998
   15.05694485   88.30699921    0.25999999    2.76999998
   15.06000042   88.85109711    0.30000001    2.76999998
   15.06333351   92.61789703    0.25999999    2.75000000
   15.06638908   92.15160370    0.25999999    2.75000000
   15.06972218   87.28330231    0.25999999    2.76999998
   15.07083321   94.67790222    0.25999999    2.76999998
   15.07361126   92.86319733    0.25999999    2.75000000
   15.07666683   95.59770203    0.25000000    2.76999998
   15.07999992   91.09349823    0.25999999    2.76999998
   15.08305550   91.93419647    0.25000000    2.76999998
   15.08638859   94.56890106    0.25000000    2.76999998
   15.09222221   94.56890106    0.25000000    2.76999998
   15.09638882   89.11990356    0.25000000    2.76999998
   15.09972191   92.50830078    0.25000000    2.78999996
   15.10277843   85.73280334    0.25000000    2.76999998
   15.10444450   88.25650024    0.25000000    2.76999998
   15.10638905   83.43470001    0.25000000    2.76999998
   15.10972214   82.03140259    0.25000000    2.76999998
   15.11277771   90.68630219    0.25000000    2.75000000
   15.11611176   88.76309967    0.25000000    2.76999998
   15.11944485   92.14649963    0.25000000    2.76999998
   15.12250042   86.08699799    0.25000000    2.76999998
   15.12583351   85.11190033    0.25000000    2.75000000
   15.12916660   89.72689819    0.25999999    2.76999998
   15.13500023   89.72689819    0.25999999    2.76999998
   15.15361118   85.09420013    0.25000000    2.76999998
   15.15666676   83.56030273    0.25000000    2.76999998
   15.15999985   85.42620087    0.25999999    2.76999998
   15.16305542   86.69400024    0.25999999    2.76999998
   15.16638851   82.18869781    0.25999999    2.76999998
   15.16972256   84.75319672    0.25999999    2.76999998
   15.17277813   83.14679718    0.25999999    2.76999998
   15.17805576   83.14679718    0.25000000    2.76999998
   15.18222237   82.29630280    0.25000000    2.76999998
   15.18555546   86.00299835    0.25000000    2.76999998
   15.18638897   87.19950104    0.25000000    2.76999998
   15.18916702   80.67269897    0.25000000    2.76999998
   15.19250011   87.97949982    0.25000000    2.76999998
   15.19555569  102.61900330    0.25000000    2.76999998
   15.19888878   86.59249878    0.25000000    2.76999998
   15.20222187   95.60800171    0.25000000    2.76999998
   15.20527744   89.14890289    0.25000000    2.76999998
   15.20861053   87.89730072    0.25000000    2.76999998
   15.21194458   93.88500214    0.25000000    2.76999998
   15.21500015   86.68109894    0.25000000    2.76999998
   15.22111034   86.68109894    0.23000000    2.76999998
   15.22527695   92.65830231    0.25000000    2.76999998
   15.22833252   90.03949738    0.25000000    2.76999998
   15.23166656   88.93509674    0.25000000    2.76999998
   15.23500061   87.58319855    0.25000000    2.78999996
   15.23805618   85.49400330    0.25000000    2.76999998
   15.24138927   88.07920074    0.23000000    2.78999996
   15.24472237   93.39579773    0.23000000    2.76999998
   15.24777794   87.56469727    0.25000000    2.76999998
   15.25111103   86.90489960    0.25000000    2.76999998
   15.25333309   85.81430054    0.25000000    2.76999998
   15.25472260   85.78179932    0.25000000    2.76999998
   15.25805569   86.35099792    0.25000000    2.76999998
   15.26388931   86.35099792    0.25000000    2.76999998
   15.26805496   81.07849884    0.25000000    2.76999998
   15.27111053   81.35939789    0.25000000    2.78999996
   15.27444458   83.13220215    0.25000000    2.78999996
   15.27777767   82.36250305    0.25000000    2.78999996
   15.28083324   86.81950378    0.25000000    2.76999998
   15.28416729   82.90209961    0.25000000    2.78999996
   15.28666687   88.70709991    0.25999999    2.76999998
   15.28777790   83.08119965    0.25999999    2.76999998
   15.29111195   84.73320007    0.25999999    2.76999998
   15.29416752   85.21350098    0.25999999    2.76999998
   15.29750061   86.73349762    0.28000000    2.78999996
   15.30083370   81.30290222    0.36000001    2.76999998
   15.30666733   81.30290222    0.30000001    2.76999998
   15.31083393   84.24289703    0.34000000    2.76999998
   15.31416702   86.41729736    0.36000001    2.76999998
   15.31722260   79.67189789    0.31999999    2.76999998
   15.31999969   87.04340363    0.28000000    2.78999996
   15.32083321   88.80159760    0.25999999    2.76999998
   15.32416630   85.00070190    0.25000000    2.78999996
   15.32750034   83.74890137    0.25000000    2.76999998
   15.33055592   82.03479767    0.25000000    2.76999998
   15.33388901   83.07399750    0.25000000    2.76999998
   15.33694458   83.64230347    0.25000000    2.76999998
   15.34027767   80.64939880    0.25000000    2.78999996
   15.34361076   80.67250061    0.25000000    2.76999998
   15.34944439   80.67250061    0.25000000    2.76999998
   15.35361195   82.56289673    0.25000000    2.78999996
   15.35694504   80.44589996    0.25000000    2.76999998
   15.36027813   76.87349701    0.25000000    2.76999998
   15.36333370   80.12129974    0.25000000    2.76999998
   15.36666679   82.05020142    0.23000000    2.78999996
   15.36972237   81.66490173    0.23000000    2.78999996
   15.37305546   84.14469910    0.25000000    2.78999996
   15.37638855   84.23750305    0.23000000    2.76999998
   15.37944412   80.94930267    0.25000000    2.78999996
   15.38277817   77.64810181    0.25000000    2.76999998
   15.38611126   75.93340302    0.25000000    2.76999998
   15.38666630   83.70110321    0.25000000    2.76999998
   15.39249992   83.70110321    0.25000000    2.76999998
   15.39666653   79.52140045    0.25999999    2.78999996
   15.39972210   82.75000000    0.25000000    2.76999998
   15.40305519   81.52380371    0.25000000    2.76999998
   15.40638828   75.85279846    0.25999999    2.76999998
   15.40944386   79.50260162    0.25000000    2.78999996
   15.41277695   79.05079651    0.25000000    2.78999996
   15.41583252   76.72949982    0.25000000    2.78999996
   15.41916656   77.40160370    0.25000000    2.78999996
   15.42000008   83.49680328    0.25000000    2.78999996
   15.42277813   74.09140015    0.25000000    2.76999998
   15.42611122   80.08409882    0.25000000    2.76999998
   15.42944431   84.35279846    0.25000000    2.76999998
   15.43527794   84.35279846    0.25000000    2.78999996
   15.43944454   76.50170135    0.25000000    2.76999998
   15.44250011   80.42440033    0.25000000    2.78999996
   15.44583321   74.21209717    0.25000000    2.76999998
   15.44916630   82.29699707    0.25000000    2.76999998
   15.45222187   78.90160370    0.25000000    2.78999996
   15.45333290   76.71160126    0.25000000    2.78999996
   15.45583344   77.89379883    0.25000000    2.76999998
   15.45916653   77.09899902    0.25000000    2.78999996
   15.46249962   82.55319977    0.25000000    2.76999998
   15.46555519   79.30239868    0.25000000    2.76999998
   15.46888828   75.58129883    0.25000000    2.78999996
   15.47194386   79.20559692    0.25000000    2.78999996
   15.47805500   79.20559692    0.25000000    2.78999996
   15.48222160   77.02130127    0.25000000    2.78999996
   15.48555565   76.66929626    0.23000000    2.78999996
   15.48666668   80.95790100    0.23000000    2.78999996
   15.48888874   74.40889740    0.25000000    2.78999996
   15.49222279   74.55069733    0.25000000    2.78999996
   15.49555588   81.19740295    0.25000000    2.78999996
   15.49861145   78.73780060    0.25000000    2.78999996
   15.60277843   -1.00000000   -1.00000000   -1.00000000
   15.70222187   -1.00000000   -1.00000000   -1.00000000
   15.80583382   -1.00000000   -1.00000000   -1.00000000
   15.89722252   80.24379730    0.25999999    2.78999996
   15.90055561   78.73819733    0.25999999    2.78999996
   15.90361118   81.03450012    0.25999999    2.78999996
   15.90694427   83.28990173    0.25999999    2.80999994
   15.91027737   83.05290222    0.25999999    2.80999994
   15.91333294   81.85430145    0.25999999    2.78999996
   15.91750050   81.85430145    0.25999999    2.80999994
   15.92166710   80.67030334    0.25999999    2.78999996
   15.92500019   76.73670197    0.25000000    2.78999996
   15.92805576   76.95929718    0.25999999    2.78999996
   15.93055630   76.83860016    0.25999999    2.78999996
   15.93194485   76.14820099    0.25000000    2.80999994
   15.93500042   80.65059662    0.25000000    2.78999996
   15.93833351   81.06809998    0.25000000    2.78999996
   15.94138908   81.00640106    0.25999999    2.80999994
   15.94472218   75.64170074    0.25999999    2.80999994
   15.94805527   78.85669708    0.25000000    2.78999996
   15.95111084   80.08830261    0.25000000    2.80999994
   15.95444393   75.04759979    0.25999999    2.78999996
   15.96055508   75.04759979    0.25000000    2.80999994
   15.96444416   76.30000305    0.25000000    2.80999994
   15.96777725   73.11000061    0.25000000    2.78999996
   15.97111034   74.79209900    0.25000000    2.80999994
   15.97416592   77.78260040    0.25999999    2.78999996
   15.97749996   76.22039795    0.34000000    2.78999996
   15.98083305   75.66470337    0.34000000    2.78999996
   15.98388958   75.88089752    0.30000001    2.80999994
   15.98722267   72.03250122    0.30000001    2.80999994
   15.99027824   74.76889801    0.34000000    2.78999996
   15.99361134   74.24109650    0.31999999    2.80999994
   15.99694443   75.01920319    0.28000000    2.78999996
   15.99750042   72.66750336    0.28000000    2.78999996
   16.00333405   72.66750336    0.25999999    2.80999994
   16.00749969   76.57499695    0.31999999    2.78999996
   16.01055527   76.36039734    0.34000000    2.78999996
   16.01388931   76.07209778    0.28000000    2.78999996
   16.01722145   72.92410278    0.25999999    2.78999996
   16.02027702   73.08999634    0.28000000    2.78999996
   16.02361107   72.60769653    0.28000000    2.80999994
   16.02694511   72.46219635    0.28000000    2.78999996
   16.03000069   74.60870361    0.25999999    2.80999994
   16.03083229   76.71929932    0.25999999    2.80999994
   16.03361130   75.01930237    0.28000000    2.78999996
   16.03694344   75.92310333    0.28000000    2.78999996
   16.04027748   76.85310364    0.28000000    2.78999996
   16.04611015   76.85310364    0.28000000    2.78999996
   16.05027771   75.92539978    0.28000000    2.78999996
   16.05360985   76.12490082    0.28000000    2.78999996
   16.05666542   75.14820099    0.25999999    2.78999996
   16.05999947   73.71420288    0.28000000    2.78999996
   16.06333351   73.53359985    0.30000001    2.80999994
   16.06416512   73.24639893    0.31999999    2.80999994
   16.06666756   73.60520172    0.31999999    2.80999994
   16.07000160   74.19819641    0.28000000    2.78999996
   16.07333374   72.83489990    0.25999999    2.80999994
   16.07638931   74.08260345    0.25999999    2.78999996
   16.07972336   74.17849731    0.25999999    2.80999994
   16.08305550   75.03060150    0.25999999    2.80999994
   16.08889008   75.03060150    0.34000000    2.80999994
   16.09305573   72.12419891    0.44000000    2.80999994
   16.09638977   74.52649689    0.40000001    2.78999996
   16.09749985   74.99810028    0.40000001    2.78999996
   16.10000038   72.70970154    0.50000000    2.80999994
   16.10333443   73.78500366    0.55000001    2.78999996
   16.10666656   75.59380341    0.52999997    2.78999996
   16.10972214   76.89649963    0.50000000    2.80999994
   16.11305618   80.06240082    0.46000001    2.78999996
   16.11638832   73.56379700    0.41999999    2.80999994
   16.11944389   71.68470001    0.44000000    2.78999996
   16.12277794   71.89749908    0.44000000    2.78999996
   16.12583351   74.28790283    0.41999999    2.78999996
   16.13194466   74.28790283    0.38000000    2.80999994
   16.13583374   71.49720001    0.34000000    2.80999994
   16.13916588   70.10630035    0.31999999    2.80999994
   16.14249992   69.76909637    0.30000001    2.80999994
   16.14555550   72.84889984    0.31999999    2.80999994
   16.14888954   70.90149689    0.31999999    2.80999994
   16.15222168   70.74379730    0.30000001    2.80999994
   16.15527725   75.05549622    0.30000001    2.80999994
   16.15861130   70.17440033    0.30000001    2.80999994
   16.16194344   72.27819824    0.30000001    2.80999994
   16.16416550   74.65090179    0.31999999    2.78999996
   16.16527748   73.22170258    0.31999999    2.80999994
   16.16860962   70.59470367    0.30000001    2.80999994
   16.17472076   70.59470367    0.30000001    2.78999996
   16.17888832   69.72920227    0.30000001    2.80999994
   16.18194389   71.17680359    0.30000001    2.80999994
   16.18527603   69.34040070    0.30000001    2.80999994
   16.18861008   71.53099823    0.30000001    2.78999996
   16.19166565   72.96610260    0.28000000    2.80999994
   16.19499969   73.99900055    0.28000000    2.80999994
   16.19749832   70.36879730    0.28000000    2.78999996
   16.19861031   72.68890381    0.28000000    2.80999994
   16.20194435   70.11280060    0.28000000    2.80999994
   16.20527840   75.77629852    0.30000001    2.80999994
   16.20833397   72.10019684    0.28000000    2.80999994
   16.21166801   71.76329803    0.28000000    2.80999994
   16.21750069   71.76329803    0.28000000    2.80999994
   16.22166634   71.23529816    0.28000000    2.80999994
   16.22500038   70.65959930    0.28000000    2.80999994
   16.22805595   71.62580109    0.28000000    2.80999994
   16.23083305   71.60079956    0.28000000    2.80999994
   16.23166656   71.59870148    0.28000000    2.80999994
   16.23500061   73.24440002    0.28000000    2.80999994
   16.23833275   70.06569672    0.28000000    2.80999994
   16.24138832   71.20709991    0.28000000    2.80999994
   16.24472237   72.62259674    0.25999999    2.80999994
   16.24805641   72.16130066    0.25999999    2.80999994
   16.25111198   69.96869659    0.25999999    2.78999996
   16.25444412   71.92449951    0.28000000    2.80999994
   16.26027870   71.92449951    0.25999999    2.80999994
   16.26444435   72.35459900    0.28000000    2.80999994
   16.26777840   76.07140350    0.28000000    2.80999994
   16.27111053   71.40339661    0.28000000    2.80999994
   16.27416611   69.31809998    0.28000000    2.80999994
   16.27750015   71.68859863    0.25999999    2.80999994
   16.28055573   71.10710144    0.28000000    2.80999994
   16.28388786   70.56279755    0.25999999    2.80999994
   16.28722191   71.07199860    0.25999999    2.80999994
   16.29027748   71.49569702    0.25999999    2.80999994
   16.29361153   70.29119873    0.28000000    2.80999994
   16.29666710   71.99749756    0.25999999    2.80999994
   16.29749870   72.02259827    0.25999999    2.80999994
   16.30333328   72.02259827    0.25999999    2.82999992
   16.30722237   71.02159882    0.28000000    2.80999994
   16.31055450   73.58950043    0.28000000    2.80999994
   16.31388855   70.07779694    0.28000000    2.80999994
   16.31694603   69.07990265    0.28000000    2.80999994
   16.32027817   69.77510071    0.28000000    2.80999994
   16.32361221   68.21330261    0.28000000    2.80999994
   16.32666779   69.68199921    0.28000000    2.80999994
   16.33000183   70.09249878    0.28000000    2.80999994
   16.33083344   73.48780060    0.28000000    2.82999992
   16.33333397   71.64559937    0.28000000    2.80999994
   16.33666801   68.82990265    0.28000000    2.80999994
   16.34000015   71.57450104    0.28000000    2.82999992
   16.34611130   71.57450104    0.28000000    2.78999996
   16.35027885   70.45919800    0.28000000    2.80999994
   16.35333443   71.98619843    0.28000000    2.80999994
   16.35666656   71.18489838    0.28000000    2.80999994
   16.36000061   74.25650024    0.28000000    2.80999994
   16.36305618   69.78910065    0.28000000    2.80999994
   16.36416626   70.65930176    0.28000000    2.80999994
   16.36666679   70.57890320    0.28000000    2.80999994
   16.37000084   70.17549896    0.30000001    2.80999994
   16.37333298   69.87490082    0.28000000    2.80999994
   16.37638855   68.67050171    0.30000001    2.80999994
   16.37972260   68.40239716    0.28000000    2.80999994
   16.38305473   69.13890076    0.30000001    2.80999994
   16.38888931   69.13890076    0.28000000    2.80999994
   16.39305496   69.40570068    0.28000000    2.80999994
   16.39638901   68.62180328    0.28000000    2.80999994
   16.39749908   68.77449799    0.28000000    2.80999994
   16.39972115   70.68280029    0.25999999    2.80999994
   16.40305519   70.49590302    0.28000000    2.80999994
   16.40638924   71.57360077    0.25999999    2.82999992
   16.40944481   69.98130035    0.25999999    2.80999994
   16.41277695   70.31199646    0.25999999    2.82999992
   16.41611099   69.39440155    0.25999999    2.80999994
   16.41916656   71.08589935    0.25999999    2.80999994
   16.42249870   73.41560364    0.25999999    2.80999994
   16.42583275   71.68679810    0.25999999    2.80999994
   16.43166542   71.68679810    0.25999999    2.80999994
   16.43583298   71.75219727    0.30000001    2.80999994
   16.43916512   68.09480286    0.30000001    2.80999994
   16.44222069   70.20629883    0.28000000    2.80999994
   16.44555473   69.45179749    0.28000000    2.80999994
   16.44888878   71.58740234    0.28000000    2.82999992
   16.45194435   70.70760345    0.28000000    2.80999994
   16.45527840   70.28520203    0.28000000    2.80999994
   16.45861244   72.87000275    0.28000000    2.80999994
   16.46166801   72.36640167    0.28000000    2.80999994
   16.46416664   68.67710114    0.28000000    2.80999994
   16.46527863   69.67800140    0.28000000    2.80999994
   16.46861076   69.46820068    0.28000000    2.80999994
   16.47472191   69.46820068    0.28000000    2.80999994
   16.47861099   72.51719666    0.28000000    2.80999994
   16.48222351   70.99900055    0.28000000    2.80999994
   16.48527718   73.48680115    0.28000000    2.80999994
   16.48861122   71.25289917    0.28000000    2.80999994
   16.49194527   73.33429718    0.28000000    2.80999994
   16.49500084   69.95130157    0.28000000    2.80999994
   16.49749947   69.00180054    0.28000000    2.82999992
   16.49861145   69.68579865    0.28000000    2.80999994
   16.50194359   73.14939880    0.28000000    2.80999994
   16.50527763   69.74669647    0.28000000    2.80999994
   16.50833321   69.16120148    0.28000000    2.82999992
   16.51166725   70.44360352    0.28000000    2.80999994
   16.51749992   70.44360352    0.28000000    2.80999994
   16.52166557   70.63030243    0.28000000    2.80999994
   16.52472115   69.04029846    0.28000000    2.80999994
   16.52805519   68.93370056    0.28000000    2.80999994
   16.53083229   68.60040283    0.28000000    2.80999994
   16.53166580   70.36630249    0.28000000    2.80999994
   16.53499985   72.19239807    0.28000000    2.80999994
   16.53833199   69.48439789    0.28000000    2.80999994
   16.54138756   70.26599884    0.28000000    2.80999994
   16.54472160   69.81870270    0.30000001    2.80999994
   16.54805565   68.58010101    0.30000001    2.80999994
   16.55111122   70.20580292    0.30000001    2.80999994
   16.55444336   70.00740051    0.30000001    2.80999994
   16.56027794   70.00740051    0.30000001    2.80999994
   16.56444359   73.01020050    0.30000001    2.80999994
   16.56777954   69.05349731    0.30000001    2.80999994
   16.57083511   71.35089874    0.30000001    2.80999994
   16.57416725   69.34510040    0.30000001    2.82999992
   16.57722282   70.88130188    0.30000001    2.80999994
   16.58055687   70.59049988    0.30000001    2.82999992
   16.58388901   70.84970093    0.30000001    2.80999994
   16.58694458   70.57260132    0.30000001    2.80999994
   16.59027863   68.86160278    0.30000001    2.80999994
   16.59361267   69.88809967    0.30000001    2.80999994
   16.59666824   68.64969635    0.31999999    2.80999994
   16.59749985   72.73500061    0.34000000    2.80999994
   16.60305595   72.73500061    0.31999999    2.80999994
   16.60722351   73.30390167    0.31999999    2.80999994
   16.61055565   71.57769775    0.31999999    2.80999994
   16.61388969   70.24030304    0.31999999    2.80999994
   16.61722183   70.16159821    0.31999999    2.80999994
   16.62027740   73.11479950    0.31999999    2.80999994
   16.62361145   68.17009735    0.31999999    2.80999994
   16.62694550   71.30650330    0.31999999    2.80999994
   16.63000107   68.35939789    0.31999999    2.80999994
   16.63083267   70.57879639    0.31999999    2.80999994
   16.63388824   71.02980042    0.31999999    2.80999994
   16.63694382   71.41369629    0.30000001    2.82999992
   16.64027786   70.64450073    0.30000001    2.82999992
   16.64611053   70.64450073    0.30000001    2.80999994
   16.65027809   69.82929993    0.28000000    2.80999994
   16.65333366   71.54219818    0.28000000    2.80999994
   16.65666580   69.91709900    0.28000000    2.80999994
   16.65972137   67.75959778    0.28000000    2.80999994
   16.66305542   68.19570160    0.28000000    2.80999994
   16.66416550   70.49160004    0.28000000    2.80999994
   16.66666603   69.82289886    0.28000000    2.80999994
   16.66972160   70.71720123    0.30000001    2.80999994
   16.67305565   67.73560333    0.30000001    2.78999996
   16.67638779   68.23069763    0.30000001    2.80999994
   16.67944336   69.09120178    0.28000000    2.80999994
   16.68277740   69.84750366    0.28000000    2.80999994
   16.68888855   69.84750366    0.28000000    2.80999994
   16.69305420   70.58959961    0.28000000    2.80999994
   16.69610977   70.63369751    0.25999999    2.80999994
   16.69749832   70.75689697    0.25999999    2.80999994
   16.70000076   72.65619659    0.25999999    2.80999994
   16.70305634   72.18560028    0.25999999    2.80999994
   16.70639038   73.44429779    0.25999999    2.80999994
   16.70972252   70.39469910    0.25999999    2.80999994
   16.71277809   69.30619812    0.25999999    2.80999994
   16.71611214   70.05480194    0.25999999    2.80999994
   16.71916771   70.36750031    0.25999999    2.80999994
   16.72249985   70.95700073    0.25999999    2.80999994
   16.72583389   68.99089813    0.25999999    2.80999994
   16.73166656   68.99089813    0.28000000    2.80999994
   16.73583412   70.76660156    0.25999999    2.80999994
   16.73916626   73.03089905    0.25999999    2.80999994
   16.74222183   69.97019958    0.28000000    2.80999994
   16.74555588   70.19090271    0.25999999    2.80999994
   16.74861145   69.99639893    0.25999999    2.80999994
   16.75194359   69.88739777    0.28000000    2.80999994
   16.75527763   69.18419647    0.28000000    2.80999994
   16.75833321   69.63430023    0.28000000    2.80999994
   16.76166725   70.70310211    0.28000000    2.80999994
   16.76416588   70.82720184    0.28000000    2.80999994
   16.76555634   68.61150360    0.28000000    2.80999994
   16.76861000   70.68959808    0.25999999    2.80999994
   16.77444458   70.68959808    0.28000000    2.80999994
   16.77861023   69.34739685    0.28000000    2.80999994
   16.78194427   71.14800262    0.28000000    2.80999994
   16.78499985   69.40650177    0.28000000    2.80999994
   16.78833199   72.91580200    0.28000000    2.80999994
   16.79166603   70.66100311    0.28000000    2.80999994
   16.79472160   71.36869812    0.28000000    2.80999994
   16.79749870   73.43070221    0.30000001    2.80999994
   16.79861069   69.27960205    0.28000000    2.80999994
   16.80166626   69.10710144    0.28000000    2.80999994
   16.80499840   68.93129730    0.30000001    2.78999996
   16.80805397   72.16829681    0.30000001    2.80999994
   16.81138802   69.93930054    0.30000001    2.80999994
   16.81750107   69.93930054    0.30000001    2.80999994
   16.82166672   70.66719818    0.30000001    2.80999994
   16.82472229   69.18150330    0.30000001    2.80999994
   16.82805634   69.67829895    0.30000001    2.80999994
   16.83083344   71.29060364    0.30000001    2.80999994
   16.83166695   70.18229675    0.30000001    2.80999994
   16.83472252   70.47280121    0.30000001    2.78999996
   16.83805656   70.11380005    0.30000001    2.80999994
   16.84138870   68.15889740    0.30000001    2.80999994
   16.84444427   68.02709961    0.30000001    2.80999994
   16.84777832   70.05709839    0.30000001    2.80999994
   16.85111237   68.21240234    0.30000001    2.78999996
   16.85416794   68.07389832    0.28000000    2.80999994
   16.86027908   68.07389832    0.28000000    2.80999994
   16.86444473   69.83070374    0.28000000    2.80999994
   16.86750031   68.00039673    0.30000001    2.80999994
   16.87083435   68.38240051    0.28000000    2.80999994
   16.87416649   70.97470093    0.28000000    2.80999994
   16.87722206   68.55719757    0.28000000    2.80999994
   16.88055611   67.06999969    0.28000000    2.80999994
   16.88361168   70.91100311    0.28000000    2.80999994
   16.88694382   69.84829712    0.28000000    2.80999994
   16.89027786   69.19499969    0.28000000    2.80999994
   16.89333344   69.25659943    0.28000000    2.80999994
   16.89666748   67.97000122    0.28000000    2.80999994
   16.89749908   69.15670013    0.28000000    2.80999994
   16.91805458   69.15670013    0.30000001    2.80999994
   16.92222214  100.97100067    0.30000001    2.80999994
   16.92555428   96.31929779    0.30000001    2.80999994
   16.92860985   97.07710266    0.30000001    2.80999994
   16.93083191  103.39600372    0.30000001    2.80999994
   16.93249893   97.30740356    0.30000001    2.80999994
   16.93583298  108.65399933    0.30000001    2.80999994
   16.93888855   91.39589691    0.30000001    2.80999994
   16.94222069  101.49500275    0.28000000    2.80999994
   16.94527626   95.33000183    0.28000000    2.80999994
   16.94861031   96.04419708    0.28000000    2.80999994
   16.95194435   97.57340240    0.30000001    2.80999994
   16.95499992   95.68879700    0.28000000    2.78999996
   16.96083450   95.68879700    0.30000001    2.80999994
   16.96500015  103.54199982    0.30000001    2.82999992
   16.96833420   97.80660248    0.31999999    2.80999994
   16.97138977   98.87729645    0.31999999    2.80999994
   16.97472191   95.68689728    0.31999999    2.82999992
   16.97805595   94.50399780    0.31999999    2.80999994
   16.98111153   90.17859650    0.31999999    2.80999994
   16.98444557   93.74069977    0.31999999    2.80999994
   16.98750114   97.64459991    0.34000000    2.80999994
   16.99083328  105.37000275    0.34000000    2.80999994
   16.99416733   95.53700256    0.36000001    2.80999994
   16.99722290  103.01399994    0.36000001    2.80999994
   16.99777794  103.37699890    0.36000001    2.80999994
   17.00361061  103.37699890    0.34000000    2.80999994
   17.00777817   98.77610016    0.34000000    2.80999994
   17.01111031  103.78500366    0.34000000    2.80999994
   17.01444435  101.58399963    0.34000000    2.80999994
   17.01749992   90.83390045    0.34000000    2.80999994
   17.02083397   90.66819763    0.31999999    2.82999992
   17.02388954  100.87799835    0.30000001    2.80999994
   17.02722168  100.33399963    0.30000001    2.80999994
   17.03055573   91.55249786    0.31999999    2.80999994
   17.03111076   95.31060028    0.31999999    2.80999994
   17.03416634  100.24299622    0.31999999    2.80999994
   17.03750038   97.11199951    0.30000001    2.82999992
   17.04055595   97.70310211    0.30000001    2.80999994
   17.04666710   97.70310211    0.31999999    2.82999992
   17.05083275  105.13800049    0.30000001    2.80999994
   17.05388832   99.22480011    0.30000001    2.80999994
   17.05722237   99.08940125    0.30000001    2.80999994
   17.06055450  100.33000183    0.30000001    2.82999992
   17.06361008   96.17710114    0.30000001    2.80999994
   17.06444359   95.43650055    0.28000000    2.80999994
   17.06722260   94.44029999    0.28000000    2.80999994
   17.07055664   97.64360046    0.28000000    2.80999994
   17.07361221   99.14969635    0.28000000    2.80999994
   17.07694626   96.84950256    0.28000000    2.80999994
   17.08000183   96.61360168    0.28000000    2.80999994
   17.08333397  103.04900360    0.28000000    2.80999994
   17.08944511  103.04900360    0.28000000    2.80999994
   17.09361267   97.52559662    0.28000000    2.80999994
   17.09666824   96.77220154    0.28000000    2.80999994
   17.09777832   98.55860138    0.28000000    2.80999994
   17.10055542   85.50859833    0.28000000    2.78999996
   17.10388947   93.61509705    0.28000000    2.80999994
   17.10694504   92.10849762    0.28000000    2.80999994
   17.11027908   98.38710022    0.28000000    2.80999994
   17.11333466   95.83470154    0.28000000    2.80999994
   17.11666679   96.34790039    0.28000000    2.80999994
   17.12000084   96.90750122    0.28000000    2.80999994
   17.12305641   97.21140289    0.28000000    2.80999994
   17.12638855  104.08499908    0.30000001    2.80999994
   17.13222313  104.08499908    0.34000000    2.80999994
   17.13638878   97.93820190    0.34000000    2.78999996
   17.13972282   95.73829651    0.31999999    2.80999994
   17.14277840   93.98449707    0.31999999    2.80999994
   17.14611053   95.47399902    0.31999999    2.80999994
   17.14944458  100.82199860    0.34000000    2.80999994
   17.15250015   92.54440308    0.34000000    2.78999996
   17.15583229   93.90480042    0.36000001    2.80999994
   17.15888786   96.97019958    0.41999999    2.80999994
   17.16222191   90.97100067    0.46000001    2.80999994
   17.16444397   95.45580292    0.46000001    2.80999994
   17.16583252   95.11519623    0.46000001    2.80999994
   17.16916656  101.57800293    0.44000000    2.80999994
   17.17499924  101.57800293    0.41999999    2.80999994
   17.17916679   97.42130280    0.38000000    2.80999994
   17.18249893   96.39769745    0.38000000    2.80999994
   17.18583298   93.67040253    0.38000000    2.80999994
   17.18888855   96.06220245    0.36000001    2.80999994
   17.19222069   95.95469666    0.36000001    2.80999994
   17.19527626   94.77330017    0.36000001    2.80999994
   17.19777679   92.06770325    0.36000001    2.80999994
   17.19916534   97.87609863    0.36000001    2.80999994
   17.20250130   88.19519806    0.38000000    2.80999994
   17.20555687   97.38580322    0.36000001    2.80999994
   17.20888901   87.04640198    0.36000001    2.80999994
   17.21194458   99.86730194    0.34000000    2.80999994
   17.21805573   99.86730194    0.31999999    2.80999994
   17.22222328   99.81629944    0.31999999    2.80999994
   17.22527885  101.38999939    0.31999999    2.80999994
   17.22861099   94.18599701    0.31999999    2.80999994
   17.23111153   95.61720276    0.31999999    2.80999994
   17.23222351   87.18219757    0.31999999    2.82999992
   17.23555565   93.77390289    0.31999999    2.80999994
   17.23861122   95.93650055    0.31999999    2.80999994
   17.24194527   85.61650085    0.31999999    2.80999994
   17.24500084   96.92340088    0.34000000    2.80999994
   17.24833298  101.96399689    0.34000000    2.80999994
   17.25166702   97.27649689    0.34000000    2.80999994
   17.25472260   96.96469879    0.34000000    2.80999994
   17.26083374   96.96469879    0.34000000    2.80999994
   17.26499939   91.02429962    0.34000000    2.80999994
   17.26805496   92.15450287    0.34000000    2.80999994
   17.27138901   93.41380310    0.34000000    2.78999996
   17.27472115   90.86630249    0.34000000    2.78999996
   17.27777672   94.09159851    0.34000000    2.78999996
   17.28111076   91.96459961    0.34000000    2.80999994
   17.28416634   94.97070313    0.34000000    2.80999994
   17.28750038   89.25189972    0.34000000    2.80999994
   17.29083252   88.37819672    0.34000000    2.82999992
   17.29388809   96.20230103    0.34000000    2.80999994
   17.29722214   93.02690125    0.36000001    2.80999994
   17.29777718   90.14420319    0.36000001    2.80999994
   17.30360985   90.14420319    0.36000001    2.80999994
   17.30777740   91.80000305    0.36000001    2.78999996
   17.31110954  100.29199982    0.38000000    2.80999994
   17.31416512   99.88569641    0.38000000    2.82999992
   17.31750107   97.22619629    0.38000000    2.80999994
   17.32083511   94.22589874    0.38000000    2.80999994
   17.32389069   91.29660034    0.40000001    2.80999994
   17.32722282  100.96800232    0.40000001    2.80999994
   17.33027840   99.09549713    0.40000001    2.80999994
   17.33111191   93.12879944    0.40000001    2.80999994
   17.33388901  101.99800110    0.40000001    2.78999996
   17.33722305   94.93209839    0.40000001    2.78999996
   17.34027863   95.56549835    0.38000000    2.80999994
   17.34638977   95.56549835    0.40000001    2.80999994
   17.35055542   93.85990143    0.40000001    2.80999994
   17.35388947  100.03700256    0.40000001    2.80999994
   17.35694504   96.04479980    0.38000000    2.82999992
   17.36027908   97.44249725    0.38000000    2.82999992
   17.36361122   97.24310303    0.38000000    2.80999994
   17.36444473   91.42659760    0.38000000    2.80999994
   17.36722183   95.98809814    0.36000001    2.80999994
   17.37055588   88.04689789    0.38000000    2.78999996
   17.37361145   96.66480255    0.40000001    2.80999994
   17.37694550   93.74140167    0.40000001    2.78999996
   17.38027763   96.60040283    0.38000000    2.80999994
   17.38333321  104.15499878    0.40000001    2.78999996
   17.38944435  104.15499878    0.40000001    2.80999994
   17.39361191  104.79100037    0.40000001    2.80999994
   17.39666748   96.49539948    0.40000001    2.78999996
   17.39777756  102.51699829    0.40000001    2.78999996
   17.40027809   96.12609863    0.38000000    2.80999994
   17.40361023   99.39600372    0.40000001    2.78999996
   17.40666580  104.88300323    0.40000001    2.80999994
   17.40999985   94.34239960    0.40000001    2.80999994
   17.41333389  106.55400085    0.40000001    2.80999994
   17.41638756  104.11000061    0.40000001    2.78999996
   17.41972160  100.77200317    0.38000000    2.80999994
   17.42277718  100.80500031    0.38000000    2.80999994
   17.42611122  102.31800079    0.36000001    2.80999994
   17.43222237  102.31800079    0.36000001    2.80999994
   17.43638802   98.73850250    0.34000000    2.80999994
   17.43944359  100.10500336    0.34000000    2.80999994
   17.44277763   99.51490021    0.34000000    2.80999994
   17.44610977   97.19689941    0.34000000    2.80999994
   17.44916534  104.27300262    0.31999999    2.80999994
   17.45250130   94.48030090    0.31999999    2.80999994
   17.45555687   90.07769775    0.31999999    2.80999994
   17.45888901   99.29219818    0.31999999    2.80999994
   17.46222305  103.92199707    0.31999999    2.80999994
   17.46444511  100.89700317    0.34000000    2.78999996
   17.46583366   93.80490112    0.34000000    2.80999994
   17.46916771   96.61419678    0.31999999    2.80999994
   17.47500038   96.61419678    0.31999999    2.80999994
   17.47916794  103.64099884    0.31999999    2.80999994
   17.48250008  104.91200256    0.34000000    2.78999996
   17.48555565  103.82299805    0.34000000    2.80999994
   17.48888969   95.01589966    0.34000000    2.80999994
   17.49222183  104.59999847    0.34000000    2.80999994
   17.49527740  101.44899750    0.31999999    2.80999994
   17.49805641  102.42900085    0.34000000    2.80999994
   17.49888992  103.42199707    0.34000000    2.80999994
   17.50222206   95.55789948    0.31999999    2.78999996
   17.50527763  101.40899658    0.31999999    2.78999996
   17.50861168   86.72350311    0.31999999    2.78999996
   17.51194382   97.78220367    0.31999999    2.80999994
   17.51777840   97.78220367    0.34000000    2.80999994
   17.52194405   88.94770050    0.31999999    2.80999994
   17.52527809   94.66780090    0.31999999    2.80999994
   17.52861023   94.33350372    0.31999999    2.80999994
   17.53138924  102.26999664    0.31999999    2.80999994
   17.53222275  101.57800293    0.31999999    2.78999996
   17.53555489  100.72899628    0.31999999    2.78999996
   17.53888893   91.98799896    0.31999999    2.80999994
   17.54194450   84.89320374    0.34000000    2.80999994
   17.54527664   90.52239990    0.34000000    2.80999994
   17.54833221   93.90299988    0.34000000    2.80999994
   17.55166626   91.29579926    0.34000000    2.80999994
   17.55499840   94.47730255    0.34000000    2.78999996
   17.56083298   94.47730255    0.34000000    2.80999994
   17.56499863   97.01080322    0.34000000    2.78999996
   17.56805611   93.59380341    0.34000000    2.80999994
   17.57139015   92.70240021    0.34000000    2.78999996
   17.57444572   99.75879669    0.36000001    2.80999994
   17.57777786   86.85369873    0.36000001    2.80999994
   17.58111191   97.32839966    0.36000001    2.80999994
   17.58416748  100.75900269    0.36000001    2.78999996
   17.58750153   98.19539642    0.36000001    2.80999994
   17.59083366   98.34279633    0.36000001    2.80999994
   17.59388924   99.64800262    0.38000000    2.78999996
   17.59722328  104.01000214    0.38000000    2.80999994
   17.59805679  102.42500305    0.38000000    2.80999994
   17.60361099  102.42500305    0.38000000    2.80999994
   17.60777855   95.00820160    0.34000000    2.80999994
   17.61083412   93.09140015    0.34000000    2.80999994
   17.61416626   89.26699829    0.34000000    2.80999994
   17.61750031   89.59829712    0.31999999    2.80999994
   17.62055588   95.45899963    0.31999999    2.80999994
   17.62388992   95.95379639    0.31999999    2.80999994
   17.62722206   92.45749664    0.31999999    2.80999994
   17.63027763   85.81320190    0.31999999    2.80999994
   17.63138962   90.61620331    0.31999999    2.80999994
   17.63388824   86.94200134    0.31999999    2.80999994
   17.63722229   88.91649628    0.31999999    2.78999996
   17.64027786   88.52799988    0.30000001    2.80999994
   17.64638901   88.52799988    0.30000001    2.80999994
   17.65055466   87.21040344    0.30000001    2.80999994
   17.65388870  102.67299652    0.31999999    2.80999994
   17.65694427   96.98780060    0.31999999    2.80999994
   17.66027832  101.23200226    0.31999999    2.80999994
   17.66333389  103.63899994    0.31999999    2.80999994
   17.66472244  104.85600281    0.31999999    2.80999994
   17.66694450  100.49099731    0.31999999    2.80999994
   17.67027664  104.02700043    0.31999999    2.80999994
   17.67333221  104.16300201    0.30000001    2.80999994
   17.67666626   95.88619995    0.30000001    2.80999994
   17.68000031   99.24019623    0.30000001    2.78999996
   17.68305397  100.11100006    0.30000001    2.78999996
   17.68916512  100.11100006    0.31999999    2.80999994
   17.69333267   87.74669647    0.34000000    2.80999994
   17.69666672   86.34320068    0.34000000    2.78999996
   17.69805527   87.42169952    0.34000000    2.78999996
   17.70027924   92.75150299    0.34000000    2.78999996
   17.70361137   88.41580200    0.36000001    2.78999996
   17.70666695   86.35970306    0.38000000    2.78999996
   17.71000099  103.86499786    0.38000000    2.78999996
   17.71333504   91.92099762    0.36000001    2.80999994
   17.71638870   85.49269867    0.36000001    2.78999996
   17.71972275   89.03759766    0.36000001    2.80999994
   17.72305679   87.08229828    0.34000000    2.80999994
   17.72611237   92.19460297    0.34000000    2.80999994
   17.73222351   92.19460297    0.34000000    2.80999994
   17.73611069   90.94719696    0.34000000    2.78999996
   17.73944473   95.80210114    0.34000000    2.78999996
   17.74277878   92.19730377    0.34000000    2.80999994
   17.74583435   91.32949829    0.34000000    2.80999994
   17.74916649   83.34040070    0.34000000    2.78999996
   17.75250053   88.28299713    0.36000001    2.80999994
   17.75555611   96.96269989    0.31999999    2.80999994
   17.75888824   92.83070374    0.31999999    2.80999994
   17.76194382   88.62200165    0.31999999    2.80999994
   17.76472282   88.95790100    0.34000000    2.80999994
   17.76555634   88.19429779    0.34000000    2.80999994
   17.76888847   96.47810364    0.34000000    2.80999994
   17.77499962   96.47810364    0.34000000    2.78999996
   17.77916718   87.06590271    0.31999999    2.80999994
   17.78222275   85.51249695    0.30000001    2.78999996
   17.78555489   86.04789734    0.30000001    2.78999996
   17.78888893   89.44719696    0.30000001    2.78999996
   17.79194450   86.56539917    0.30000001    2.78999996
   17.79527664   91.71769714    0.30000001    2.78999996
   17.79805565   87.85790253    0.31999999    2.78999996
   17.79888916   85.69719696    0.31999999    2.78999996
   17.80222130   86.17880249    0.30000001    2.78999996
   17.80555534   86.44969940    0.31999999    2.78999996
   17.80861092   91.81999969    0.31999999    2.78999996
   17.81194305   86.96649933    0.31999999    2.78999996
   17.81777954   86.96649933    0.31999999    2.80999994
   17.82194519   86.28800201    0.31999999    2.78999996
   17.82527924   85.65440369    0.31999999    2.78999996
   17.82833481   88.33940125    0.34000000    2.80999994
   17.83139038   89.73079681    0.31999999    2.80999994
   17.83194542   79.88819885    0.31999999    2.80999994
   17.83527756   90.81400299    0.31999999    2.78999996
   17.83861160   92.35859680    0.31999999    2.78999996
   17.84166718   86.70040131    0.31999999    2.78999996
   17.84500122   93.62969971    0.31999999    2.78999996
   17.84805679   82.05780029    0.31999999    2.78999996
   17.85138893   86.93609619    0.31999999    2.78999996
   17.85472298   82.06079865    0.31999999    2.78999996
   17.86055565   82.06079865    0.31999999    2.80999994
   17.86472321   88.43139648    0.31999999    2.80999994
   17.86805534   85.16040039    0.31999999    2.80999994
   17.87111092   84.68630219    0.31999999    2.80999994
   17.87444496   90.30770111    0.31999999    2.78999996
   17.87777710   88.52100372    0.31999999    2.80999994
   17.88083267   84.27140045    0.31999999    2.80999994
   17.88416672   87.41960144    0.31999999    2.80999994
   17.88750076   90.02290344    0.31999999    2.80999994
   17.89055634   92.44730377    0.31999999    2.78999996
   17.89388847   84.25489807    0.31999999    2.78999996
   17.89722252   87.10019684    0.30000001    2.78999996
   17.89805603   94.07499695    0.30000001    2.78999996
   17.90361023   94.07499695    0.30000001    2.78999996
   17.90749931   91.07769775    0.31999999    2.78999996
   17.91083336   89.27870178    0.30000001    2.78999996
   17.91416550   90.97599792    0.30000001    2.80999994
   17.93166542  101.48699951    0.34000000    2.78999996
   17.93388748  111.81800079    0.34000000    2.78999996
   17.93722153  109.13200378    0.31999999    2.78999996
   17.94055557  105.74299622    0.31999999    2.78999996
   17.94638824  105.74299622    0.31999999    2.78999996
   17.95055580  109.12699890    0.31999999    2.78999996
   17.95388985  106.82700348    0.31999999    2.80999994
   17.95722389   98.36129761    0.31999999    2.78999996
   17.96027946   97.11160278    0.31999999    2.78999996
   17.96361160  104.36100006    0.31999999    2.78999996
   17.96472359   94.94699860    0.34000000    2.78999996
   17.96722221   99.65239716    0.34000000    2.78999996
   17.97055626  106.59600067    0.34000000    2.78999996
   17.97389030  104.10800171    0.34000000    2.78999996
   17.97694588  100.33999634    0.34000000    2.78999996
   17.98027802  101.63300323    0.34000000    2.78999996
   17.98333359   95.51709747    0.34000000    2.78999996
   17.98944473   95.51709747    0.36000001    2.78999996
   17.99361229  106.47399902    0.38000000    2.76999998
   17.99666786  106.15399933    0.40000001    2.78999996
   17.99805641   95.21849823    0.40000001    2.78999996
   18.00027847  105.16899872    0.38000000    2.78999996
   18.00361061  111.10500336    0.38000000    2.78999996
   18.00666618  106.51699829    0.38000000    2.78999996
   18.01000023  103.20099640    0.36000001    2.78999996
   18.01333427   98.16899872    0.38000000    2.78999996
   18.01638794   96.10359955    0.36000001    2.78999996
   18.01972198  105.10700226    0.38000000    2.78999996
   18.02277756   99.71749878    0.38000000    2.76999998
   18.02611160  105.20899963    0.38000000    2.78999996
   18.03222275  105.20899963    0.36000001    2.78999996
   18.03638840   96.32430267    0.41999999    2.78999996
   18.03944397   91.46579742    0.41999999    2.76999998
   18.04277802  101.24199677    0.36000001    2.78999996
   18.04611015  110.21900177    0.36000001    2.78999996
   18.04944420  106.48799896    0.36000001    2.78999996
   18.05249977  110.82599640    0.36000001    2.78999996
   18.05583191   99.46040344    0.41999999    2.78999996
   18.05888748   88.76820374    0.40000001    2.78999996
   18.06222153   88.53189850    0.40000001    2.78999996
   18.06499863   96.82530212    0.38000000    2.78999996
   18.06583214   96.18049622    0.38000000    2.78999996
   18.06916809   96.59329987    0.40000001    2.78999996
   18.07500076   96.59329987    0.36000001    2.78999996
   18.07916832  102.38500214    0.38000000    2.78999996
   18.08250046   98.03050232    0.38000000    2.78999996
   18.08555603   95.24430084    0.38000000    2.78999996
   18.08889008   92.11689758    0.36000001    2.78999996
   18.09222221   90.62609863    0.34000000    2.78999996
   18.09527779   92.53820038    0.36000001    2.78999996
   18.09833336   94.95600128    0.34000000    2.78999996
   18.09889030   89.54660034    0.36000001    2.78999996
   18.10222244   98.20670319    0.36000001    2.78999996
   18.10555649   96.82330322    0.38000000    2.78999996
   18.10861206  103.98300171    0.38000000    2.78999996
   18.11194420  104.16699982    0.38000000    2.78999996
   18.11777878  104.16699982    0.38000000    2.78999996
   18.12194443   95.98750305    0.38000000    2.78999996
   18.12527847  101.87300110    0.38000000    2.78999996
   18.12861061  103.15699768    0.36000001    2.78999996
   18.13166618   96.70089722    0.36000001    2.76999998
   18.13194466   98.28469849    0.36000001    2.76999998
   18.13527679  102.01200104    0.36000001    2.78999996
   18.13861084  103.44200134    0.38000000    2.80999994
   18.14166641   92.83219910    0.38000000    2.78999996
   18.14500046  107.17400360    0.38000000    2.78999996
   18.14833260  100.49199677    0.36000001    2.78999996
   18.15138817  105.40200043    0.36000001    2.78999996
   18.15472221   97.08329773    0.34000000    2.76999998
   18.16083336   97.08329773    0.34000000    2.78999996
   18.16499901  100.05699921    0.34000000    2.78999996
   18.16805458  109.10399628    0.34000000    2.78999996
   18.17138863   97.25360107    0.36000001    2.76999998
   18.17444420  100.11399841    0.34000000    2.78999996
   18.17777634   93.90139771    0.34000000    2.78999996
   18.18111038   99.92649841    0.34000000    2.78999996
   18.18416595   98.28540039    0.34000000    2.78999996
   18.18750000   95.15619659    0.34000000    2.76999998
   18.19083214   91.64749908    0.34000000    2.78999996
   18.19388771   97.94629669    0.34000000    2.78999996
   18.19722176   92.17079926    0.34000000    2.78999996
   18.19833183  102.50199890    0.34000000    2.78999996
   18.20361137  102.50199890    0.34000000    2.78999996
   18.20777893   99.28880310    0.34000000    2.76999998
   18.21083450   96.94899750    0.34000000    2.76999998
   18.21416664   95.09210205    0.34000000    2.78999996
   18.21750069  102.99500275    0.36000001    2.78999996
   18.22055626   92.14450073    0.36000001    2.78999996
   18.22389030   89.66500092    0.34000000    2.78999996
   18.22694588   92.64129639    0.36000001    2.78999996
   18.23027802   98.79280090    0.34000000    2.78999996
   18.23166656   95.11150360    0.34000000    2.76999998
   18.23388863   97.18569946    0.34000000    2.76999998
   18.23722267   93.74849701    0.34000000    2.78999996
   18.24027824  110.54599762    0.34000000    2.78999996
   18.24638939  110.54599762    0.36000001    2.76999998
   18.25055504   95.93720245    0.36000001    2.78999996
   18.25388908   97.75949860    0.40000001    2.78999996
   18.25694466   99.58609772    0.40000001    2.78999996
   18.26027870  100.34200287    0.44000000    2.76999998
   18.26333427   98.09500122    0.44000000    2.78999996
   18.26499939   90.36799622    0.44000000    2.78999996
   18.26694489   88.07920074    0.44000000    2.78999996
   18.27027702   90.90769958    0.44000000    2.78999996
   18.27333260   88.31939697    0.56999999    2.76999998
   18.27666664   82.60890198    0.56999999    2.76999998
   18.28000069   89.84429932    0.70999998    2.75000000
   18.28305435   98.40840149    0.88000000    2.76999998
   18.28916550   98.40840149    0.83999997    2.76999998
   18.29333305   94.52929688    0.75000000    2.76999998
   18.29666710   92.41320038    0.69000000    2.76999998
   18.29833221   88.02429962    0.69000000    2.76999998
   18.30027771   85.70619965    0.73000002    2.78999996
   18.30360985   96.56829834    0.81999999    2.76999998
   18.30666542   95.33509827    0.81999999    2.76999998
   18.30999947   99.15760040    0.79000002    2.76999998
   18.31333351   98.12429810    0.75000000    2.76999998
   18.31638718   94.54869843    0.75000000    2.76999998
   18.31972313  100.70200348    0.70999998    2.78999996
   18.32305717   99.07369995    0.69000000    2.78999996
   18.32611275   95.64230347    0.69000000    2.78999996
   18.33222389   95.64230347    0.75000000    2.76999998
   18.33638954   93.71980286    0.75000000    2.76999998
   18.33944511   89.89459991    0.80000001    2.76999998
   18.34277916  105.07099915    0.75000000    2.76999998
   18.34583473   95.32939911    0.75000000    2.76999998
   18.34916687  100.04000092    0.70999998    2.76999998
   18.35250092   96.04199982    0.64999998    2.76999998
   18.35555649  101.80699921    0.61000001    2.76999998
   18.35888863  103.95500183    0.58999997    2.76999998
   18.36194420   95.97229767    0.58999997    2.76999998
   18.36499977  103.30200195    0.58999997    2.78999996
   18.36555672   94.55750275    0.61000001    2.76999998
   18.36888885   95.04440308    0.58999997    2.76999998
   18.37500000   95.04440308    0.55000001    2.76999998
   18.37916756   99.70970154    0.55000001    2.76999998
   18.38222313  100.95300293    0.55000001    2.76999998
   18.38555527   94.98149872    0.56999999    2.76999998
   18.38888931   96.40039825    0.55000001    2.76999998
   18.39194489   97.79499817    0.55000001    2.76999998
   18.39527702   93.37930298    0.52999997    2.75000000
   18.39833260   90.94550323    0.52999997    2.75000000
   18.39888954   98.43340302    0.58999997    2.76999998
   18.40222168   96.26399994    0.58999997    2.76999998
   18.40555573   90.92769623    0.67000002    2.76999998
   18.40861130   85.42900085    0.98000002    2.78999996
   18.41194344   92.83139801    1.00000000    2.76999998
   18.41777802   92.83139801    1.05999994    2.76999998
   18.42194366   82.30059814    0.81999999    2.75000000
   18.42527771   95.54579926    0.80000001    2.76999998
   18.42860985   94.50270081    0.81999999    2.76999998
   18.43166542   92.73000336    0.80000001    2.76999998
   18.43194389   98.34359741    0.80000001    2.76999998
   18.43527603   92.08660126    0.80000001    2.75000000
   18.43861008   85.41979980    0.80000001    2.75000000
   18.44166565   88.32150269    0.81999999    2.76999998
   18.44499969   94.40689850    0.79000002    2.76999998
   18.44805527   96.32460022    0.79000002    2.76999998
   18.45138931   93.86710358    0.80000001    2.76999998
   18.45472336   98.62599945    0.83999997    2.76999998
   18.46055603   98.62599945    0.83999997    2.75000000
   18.46472359   89.27220154    0.80000001    2.76999998
   18.46527863   93.35530090    0.80000001    2.76999998
   18.46861076   91.80249786    0.76999998    2.76999998
   18.47194481  101.12599945    0.79000002    2.76999998
   18.47500038   99.29000092    0.79000002    2.76999998
   18.47833443   89.07360077    0.76999998    2.76999998
   18.48139000   94.84380341    0.81999999    2.76999998
   18.48472214   96.92019653    0.83999997    2.75000000
   18.48805618   97.64949799    0.86000001    2.75000000
   18.49111176   99.20999908    0.88000000    2.75000000
   18.49444389   91.41870117    0.89999998    2.75000000
   18.49777794   93.94850159    0.89999998    2.76999998
   18.49861145   82.70960236    0.89999998    2.76999998
   18.50361061   82.70960236    0.81999999    2.76999998
   18.50749969   95.71530151    0.81999999    2.75000000
   18.51083374  103.37200165    0.80000001    2.75000000
   18.51416588   97.72299957    0.79000002    2.76999998
   18.51722145   96.72589874    0.79000002    2.75000000
   18.52055550   89.90190125    0.79000002    2.76999998
   18.52388954   95.26580048    0.80000001    2.75000000
   18.52694511   95.71260071    0.80000001    2.75000000
   18.53027725   93.20839691    0.76999998    2.75000000
   18.53194427   91.75540161    0.76999998    2.75000000
   18.53388786   90.44139862    0.81999999    2.75000000
   18.53694344   97.59909821    0.81999999    2.75000000
   18.54027748   96.00520325    0.92000002    2.75000000
   18.54638863   96.00520325    0.83999997    2.75000000
   18.55055428   96.05699921    0.81999999    2.75000000
   18.55360985   85.41049957    0.80000001    2.76999998
   18.55694389   90.97509766    0.75000000    2.76999998
   18.56027794   89.27500153    0.75000000    2.76999998
   18.56333351   93.15950012    0.73000002    2.76999998
   18.56527710   96.12079620    0.70999998    2.75000000
   18.56694603   96.38320160    0.67000002    2.76999998
   18.57000160  101.59700012    0.69000000    2.75000000
   18.57333374   91.44969940    0.69000000    2.75000000
   18.57666779   96.04239655    0.75000000    2.75000000
   18.57972336   97.86779785    0.75000000    2.75000000
   18.58305550   97.81089783    0.75000000    2.75000000
   18.58916664   97.81089783    0.75000000    2.75000000
   18.59333420   95.83460236    0.76999998    2.75000000
   18.59666824   87.83070374    0.76999998    2.75000000
   18.59861183   95.87809753    0.76999998    2.75000000
   18.60027885   96.54219818    0.79000002    2.75000000
   18.60361099   88.59500122    0.79000002    2.75000000
   18.60666656  105.79199982    0.80000001    2.75000000
   18.61000061  103.91000366    0.80000001    2.75000000
   18.61305618   90.84339905    0.86000001    2.75000000
   18.61638832   92.20649719    0.92000002    2.75000000
   18.61972237   96.66719818    0.89999998    2.75000000
   18.62277794   96.76319885    0.88000000    2.75000000
   18.62611198  103.96199799    0.88000000    2.75000000
   18.63194466  103.96199799    0.70999998    2.75000000
   18.63611031  101.32599640    0.75000000    2.75000000
   18.63944435   93.56790161    0.75000000    2.75000000
   18.64249992   98.12729645    0.80000001    2.75000000
   18.64583397  109.70600128    0.76999998    2.75000000
   18.64916611  100.26300049    0.75000000    2.75000000
   18.65222168   98.31009674    0.76999998    2.75000000
   18.65555573  100.98100281    0.76999998    2.75000000
   18.65888786   96.87319946    0.70999998    2.75000000
   18.66194344  103.24700165    0.69000000    2.75000000
   18.66527748   95.26409912    0.73000002    2.75000000
   18.66583252  108.78800201    0.73000002    2.75000000
   18.66888809  104.69999695    0.73000002    2.75000000
   18.67499924  104.69999695    0.75000000    2.75000000
   18.67888832  101.80999756    0.75000000    2.75000000
   18.68222237   99.71269989    0.83999997    2.75000000
   18.68555450  108.05400085    0.89999998    2.75000000
   18.68861008  100.01399994    0.89999998    2.75000000
   18.69194412   91.72640228    0.89999998    2.75000000
   18.69527626  105.59700012    0.89999998    2.75000000
   18.69833183   95.69519806    0.88000000    2.75000000
   18.69916534  102.63800049    0.88000000    2.75000000
   18.70194435   96.12729645    0.80000001    2.75000000
   18.70527840  102.29499817    0.81999999    2.75000000
   18.70861244  103.69400024    0.69000000    2.75000000
   18.71166801  104.55200195    0.67000002    2.75000000
   18.71777916  104.55200195    0.64999998    2.75000000
   18.72194481   89.70749664    0.73000002    2.75000000
   18.72500038  100.02100372    0.73000002    2.75000000
   18.72833443  103.99700165    0.73000002    2.75000000
   18.73166656   99.84639740    0.73000002    2.73000002
   18.73250008   96.51159668    0.73000002    2.73000002
   18.73500061   88.15730286    0.76999998    2.73000002
   18.73833275   89.16290283    0.75000000    2.75000000
   18.74166679   91.97760010    0.73000002    2.73000002
   18.74472237   99.50710297    0.79000002    2.75000000
   18.74805641  103.29100037    0.79000002    2.75000000
   18.75138855   99.57180023    0.81999999    2.75000000
   18.75444412   92.06189728    0.95999998    2.75000000
   18.76055527   92.06189728    0.92000002    2.75000000
   18.76472282  100.36100006    0.86000001    2.75000000
   18.76583290   94.83319855    0.86000001    2.75000000
   18.76833344  102.56900024    0.86000001    2.75000000
   18.77166557   93.97200012    0.83999997    2.75000000
   18.77499962  101.35700226    0.83999997    2.75000000
   18.77805519   90.55490112    0.75000000    2.73000002
   18.78138924   96.71659851    0.75000000    2.73000002
   18.78472137  103.55100250    0.75000000    2.75000000
   18.78777695  100.42299652    0.75000000    2.75000000
   18.79111099  104.36100006    0.79000002    2.75000000
   18.79416656   95.15080261    0.83999997    2.75000000
   18.79749870  107.19899750    0.89999998    2.73000002
   18.79916573  102.37000275    0.88000000    2.73000002
   18.80333328  102.37000275    0.89999998    2.75000000
   18.80749893   98.33940125    0.94000000    2.73000002
   18.81083298  104.92800140    0.94000000    2.75000000
   18.81388855   95.24330139    1.13000000    2.73000002
   18.81722260  102.31700134    1.13000000    2.75000000
   18.82055664   94.37979889    1.03999996    2.75000000
   18.82389069   91.66989899    1.05999994    2.73000002
   18.82694626   95.83319855    1.05999994    2.75000000
   18.83027840   99.70490265    1.05999994    2.75000000
   18.83250046   95.95829773    1.07000005    2.73000002
   18.83361244   92.81970215    1.07000005    2.73000002
   18.83694458   94.96459961    1.14999998    2.73000002
   18.84027863   99.76820374    1.25000000    2.73000002
   18.84638977   99.76820374    1.19000006    2.73000002
   18.85055542   97.59529877    1.11000001    2.73000002
   18.85361099  105.64600372    1.11000001    2.73000002
   18.85694504   91.24530029    1.11000001    2.73000002
   18.86000061   93.33899689    1.26999998    2.75000000
   18.86333466   98.18499756    1.14999998    2.73000002
   18.86583328   93.79560089    1.01999998    2.73000002
   18.86694527   95.74079895    1.01999998    2.73000002
   18.87027740   86.44409943    0.86000001    2.75000000
   18.87361145   88.75610352    0.83999997    2.73000002
   18.87666702   92.82319641    0.81999999    2.73000002
   18.88000107   87.97669983    0.89999998    2.73000002
   18.88333321   88.16259766    0.92000002    2.75000000
   18.88916588   88.16259766    0.98000002    2.73000002
   18.89333344   91.12729645    1.01999998    2.73000002
   18.89638901   94.14230347    1.01999998    2.73000002
   18.89916611   89.83989716    1.05999994    2.73000002
   18.89999962   97.63249969    1.05999994    2.73000002
   18.90333366   85.23439789    1.03999996    2.73000002
   18.90666580   87.84570313    1.14999998    2.73000002
   18.90972137   94.88970184    1.13000000    2.71000004
   18.91305542   89.93479919    1.13000000    2.73000002
   18.91638756   92.27439880    1.11000001    2.73000002
   18.91944313   81.29060364    1.09000003    2.73000002
   18.92277718   82.37789917    1.11000001    2.73000002
   18.92583275   89.35389709    1.09000003    2.73000002
   18.93194389   89.35389709    1.05999994    2.75000000
   18.95027924   80.09690094    1.01999998    2.73000002
   18.95361137   87.00559998    1.14999998    2.73000002
   18.95694542   86.46269989    1.07000005    2.73000002
   18.96000099   93.36470032    1.07000005    2.73000002
   18.96333504   84.89330292    1.05999994    2.71000004
   18.96638870   81.87789917    1.05999994    2.73000002
   18.96972275   90.03669739    1.07000005    2.73000002
   18.97500038   90.03669739    1.00000000    2.73000002
   18.97916794   86.72409821    1.00000000    2.73000002
   18.98250008   94.83589935    1.01999998    2.71000004
   18.98333359   87.18650055    1.00000000    2.73000002
   18.98611069   88.59200287    0.95999998    2.73000002
   18.98944473   94.60079956    0.89999998    2.73000002
   18.99250031   89.32340240    0.92000002    2.73000002
   18.99583435   87.18090057    1.09000003    2.73000002
   18.99888992   88.16439819    1.28999996    2.73000002
   19.00222206   90.57689667    1.34000003    2.71000004
   19.00555611   82.69699860    1.51999998    2.71000004
   19.00861168   84.53420258    1.50000000    2.73000002
   19.01194382   82.25119781    1.50000000    2.73000002
   19.01805496   82.25119781    1.55999994    2.71000004
   19.02194405   85.45300293    1.60000002    2.69000006
   19.02527809   81.62220001    1.50000000    2.71000004
   19.02861023   83.54599762    1.36000001    2.71000004
   19.03166580   82.30339813    1.36000001    2.73000002
   19.03499985   81.75789642    1.60000002    2.71000004
   19.03833199   92.58730316    1.60000002    2.71000004
   19.04138756   91.23349762    1.39999998    2.71000004
   19.04472160   88.54039764    1.33000004    2.71000004
   19.04777718   94.40850067    1.30999994    2.73000002
   19.04999924   87.23999786    1.26999998    2.71000004
   19.05166626   83.27639771    1.30999994    2.71000004
   19.05499840   85.99629974    1.39999998    2.71000004
   19.06083298   85.99629974    1.39999998    2.71000004
   19.06499863   94.03980255    1.39999998    2.71000004
   19.06833458   84.71459961    1.39999998    2.71000004
   19.07139015   86.24299622    1.13000000    2.71000004
   19.07472229   87.37359619    1.21000004    2.71000004
   19.07805634   88.87120056    1.21000004    2.71000004
   19.08111191   87.77140045    1.25000000    2.71000004
   19.08333397   87.38939667    1.23000002    2.71000004
   19.08472252   83.47840118    1.23000002    2.71000004
   19.08805656   80.67780304    1.11000001    2.71000004
   19.09111214   96.78220367    1.11000001    2.71000004
   19.09444427   93.94809723    1.07000005    2.73000002
   19.09777832   87.22450256    1.13000000    2.71000004
   19.10361099   87.22450256    1.16999996    2.71000004
   19.10777855   86.69069672    1.19000006    2.71000004
   19.11111069   91.02120209    1.19000006    2.71000004
   19.11416626   89.79669952    1.21000004    2.71000004
   19.11666679   94.45339966    1.60000002    2.71000004
   19.11777878   89.67939758    1.60000002    2.71000004
   19.12111092   86.70020294    1.55999994    2.71000004
   19.12416649   90.16950226    1.48000002    2.71000004
   19.12750053   95.75119781    1.48000002    2.71000004
   19.13083267   87.88739777    1.50000000    2.71000004
   19.13388824   89.38819885    1.39999998    2.71000004
   19.13722229   91.98860168    1.38000000    2.71000004
   19.14027786   85.35690308    1.38000000    2.71000004
   19.14638901   85.35690308    1.33000004    2.71000004
   19.15055466   94.53589630    1.14999998    2.69000006
   19.15388870   88.33499908    1.21000004    2.71000004
   19.15694427   79.30190277    1.21000004    2.71000004
   19.16027832   83.97750092    1.23000002    2.71000004
   19.16361046   84.66690063    1.33000004    2.69000006
   19.16666603   86.58789825    1.33000004    2.69000006
   19.17000008   86.39089966    1.44000006    2.69000006
   19.17333221   92.50489807    1.46000004    2.69000006
   19.17638779   95.96080017    1.48000002    2.71000004
   19.17972183   89.70989990    1.51999998    2.69000006
   19.18305397   91.25309753    1.55999994    2.69000006
   19.18361092   91.75869751    1.55999994    2.69000006
   19.18944359   91.75869751    1.53999996    2.71000004
   19.19333267   94.46019745    1.33000004    2.69000006
   19.19666672   96.33070374    1.21000004    2.71000004
   19.20000076   84.91639709    1.23000002    2.71000004
   19.20305634   85.81970215    1.14999998    2.71000004
   19.20639038   86.34249878    1.13000000    2.69000006
   19.20972252   92.56960297    1.14999998    2.71000004
   19.21277809   87.45339966    1.13000000    2.69000006
   19.21611214   88.44329834    1.09000003    2.69000006
   19.21694565   90.10410309    1.07000005    2.69000006
   19.21972275   89.63749695    1.07000005    2.69000006
   19.22305679   96.35369873    1.00000000    2.71000004
   19.22638893   84.65730286    1.01999998    2.69000006
   19.23222351   84.65730286    0.86000001    2.71000004
   19.23638916   92.08580017    0.95999998    2.71000004
   19.23944473   99.56490326    0.95999998    2.71000004
   19.24277878   89.12169647    0.89999998    2.71000004
   19.24611092   87.17500305    0.92000002    2.71000004
   19.24916649   88.93969727    0.92000002    2.69000006
   19.25027847   89.46690369    0.92000002    2.69000006
   19.25277710   90.02690125    0.98000002    2.69000006
   19.25611115   92.64579773    1.03999996    2.71000004
   19.25944519   86.42890167    1.05999994    2.69000006
   19.26250076   89.26809692    1.05999994    2.69000006
   19.26583290   89.78949738    1.01999998    2.69000006
   19.26916695   95.35910034    1.05999994    2.69000006
   19.27499962   95.35910034    1.11000001    2.69000006
   19.27916718   82.62090302    1.14999998    2.71000004
   19.28222275   87.82230377    1.21000004    2.69000006
   19.28361130   86.18869781    1.25000000    2.69000006
   19.28583336   88.37550354    1.33000004    2.69000006
   19.28916550   90.77780151    1.11000001    2.69000006
   19.29249954   90.07440186    1.13000000    2.69000006
   19.29555511   91.87220001    1.01999998    2.69000006
   19.29888916   87.34470367    0.98000002    2.69000006
   19.30194283   91.46360016    0.95999998    2.69000006
   19.30527687   88.44529724    1.01999998    2.69000006
   19.30861092   94.56950378    1.01999998    2.69000006
   19.31166649   98.64569855    1.11000001    2.69000006
   19.31777954   98.64569855    1.09000003    2.69000006
   19.32194519   92.95490265    0.98000002    2.69000006
   19.32527924   88.43640137    0.98000002    2.69000006
   19.32833481   89.55960083    0.92000002    2.69000006
   19.33166695   84.84899902    0.86000001    2.69000006
   19.33500099   86.41419983    1.00000000    2.69000006
   19.33805656   86.76170349    1.00000000    2.69000006
   19.34138870   86.06539917    1.16999996    2.69000006
   19.34472275   84.81069946    1.11000001    2.69000006
   19.34777832   87.49539948    1.11000001    2.69000006
   19.35027885   80.31829834    1.13000000    2.69000006
   19.35138893   85.70880127    1.13000000    2.69000006
   19.35472298   86.36879730    1.30999994    2.69000006
   19.36055565   86.36879730    1.14999998    2.69000006
   19.36472321   87.49019623    1.21000004    2.69000006
   19.36805534   87.90260315    1.11000001    2.69000006
   19.37138939   91.53379822    1.05999994    2.69000006
   19.37444496   99.84110260    1.14999998    2.67000008
   19.37777710   99.70279694    1.14999998    2.69000006
   19.38083267   89.90859985    1.11000001    2.67000008
   19.38361168   91.01570129    1.13000000    2.67000008
   19.38444519   97.76519775    1.13000000    2.67000008
   19.38777733   87.82920074    1.11000001    2.69000006
   19.39111137   93.30120087    1.03999996    2.69000006
   19.39416695   93.48780060    1.05999994    2.69000006
   19.39749908   89.28450012    1.13000000    2.69000006
   19.40361023   89.28450012    1.07000005    2.67000008
   19.40777779   88.48370361    1.01999998    2.67000008
   19.41083336   89.10399628    0.92000002    2.69000006
   19.41416550   88.05590057    0.86000001    2.69000006
   19.41694450  104.59799957    0.81999999    2.69000006
   19.41777802   84.27829742    0.81999999    2.69000006
   19.42111015   87.61000061    0.81999999    2.69000006
   19.42444420   96.59040070    0.81999999    2.69000006
   19.42749977   90.17369843    0.88000000    2.69000006
   19.43083191   90.70290375    0.86000001    2.69000006
   19.43388748   90.30349731    0.83999997    2.67000008
   19.43722153   95.68460083    0.86000001    2.69000006
   19.44055557   88.28890228    0.86000001    2.69000006
   19.44638824   88.28890228    0.86000001    2.67000008
   19.45055580   88.95709991    0.88000000    2.67000008
   19.45361137   87.25009918    0.89999998    2.69000006
   19.45694542   89.25930023    0.89999998    2.69000006
   19.46027946   95.76609802    1.05999994    2.67000008
   19.46333504   90.13390350    1.00000000    2.67000008
   19.46666718   91.07440186    0.95999998    2.67000008
   19.47000122   94.76290131    0.94000000    2.67000008
   19.47305679   88.22589874    0.94000000    2.67000008
   19.47638893   89.12079620    0.94000000    2.67000008
   19.47972298   97.06600189    0.83999997    2.67000008
   19.48277855   96.80870056    0.86000001    2.67000008
   19.48361206  100.95999908    0.86000001    2.67000008
   19.48916626  100.95999908    1.03999996    2.67000008
   19.49333382   91.82279968    1.13000000    2.67000008
   19.49666786   89.03540039    1.13000000    2.67000008
   19.49972153   91.37329865    1.14999998    2.66000009
   19.50305557   90.11229706    1.16999996    2.66000009
   19.50638962   89.91210175    1.25000000    2.66000009
   19.50944519   82.56929779    1.25000000    2.67000008
   19.51277733   79.93060303    1.23000002    2.67000008
   19.51611137   88.43109894    1.33000004    2.67000008
   19.51694489   87.43810272    1.33000004    2.67000008
   19.51944351   91.39749908    1.19000006    2.67000008
   19.52277756   85.04309845    1.14999998    2.67000008
   19.52611160   91.07749939    1.14999998    2.67000008
   19.53194427   91.07749939    1.44000006    2.66000009
   19.53610992   89.01540375    1.48000002    2.67000008
   19.53944397   89.68409729    1.38000000    2.66000009
   19.54277802   84.38230133    1.33000004    2.67000008
   19.54583359   93.06169891    1.30999994    2.66000009
   19.54916573   83.67530060    1.25000000    2.66000009
   19.55027771   97.74189758    1.39999998    2.67000008
   19.55249977   95.82309723    1.36000001    2.67000008
   19.55583191   89.27459717    1.34000003    2.66000009
   19.55916595   98.93109894    1.07000005    2.66000009
   19.56222153   90.92919922    1.05999994    2.67000008
   19.56555557   93.90879822    1.03999996    2.67000008
   19.56888962  101.23600006    0.95999998    2.67000008
   19.57500076  101.23600006    0.89999998    2.67000008
   19.57916832   92.81659698    1.03999996    2.66000009
   19.58222389   89.49189758    1.07000005    2.66000009
   19.58361244   91.41480255    1.11000001    2.67000008
   19.58583450   95.97850037    1.23000002    2.66000009
   19.58916664   88.30970001    1.28999996    2.67000008
   19.59250069   98.10199738    1.28999996    2.67000008
   19.59555626   95.55249786    0.92000002    2.66000009
   19.59889030   93.54959869    0.95999998    2.66000009
   19.60222244  103.77600098    0.98000002    2.66000009
   19.60527802  106.27600098    1.01999998    2.66000009
   19.60861206   -1.00000000    1.01999998    2.66000009
   19.61166763   -1.00000000    1.07000005    2.66000009
   19.61777878   -1.00000000    1.13000000    2.67000008
   19.62194443   92.61830139    1.03999996    2.67000008
   19.62500000   96.57150269    1.00000000    2.66000009
   19.62833405   98.80789948    1.00000000    2.66000009
   19.63166618   84.50150299    1.00000000    2.67000008
   19.63472176   89.50460052    0.94000000    2.66000009
   19.63805580   83.00849915    1.05999994    2.67000008
   19.64138794   95.18440247    1.09000003    2.66000009
   19.64444351   89.61119843    1.01999998    2.67000008
   19.64777756   92.93730164    0.89999998    2.66000009
   19.65027809   96.90390015    0.89999998    2.66000009
   19.65111160   92.06449890    0.81999999    2.66000009
   19.65444374   96.37500000    0.81999999    2.66000009
   19.66055489   96.37500000    0.80000001    2.66000009
   19.66472244  100.67900085    1.00000000    2.67000008
   19.66805458   90.64579773    1.14999998    2.66000009
   19.67111015   88.64299774    1.16999996    2.64000010
   19.67444420   96.20330048    1.03999996    2.64000010
   19.67777634   89.93219757    1.03999996    2.66000009
   19.68083191   95.02980042    1.03999996    2.66000009
   19.68361092   95.94519806    0.95999998    2.66000009
   19.68444443   89.48529816    0.95999998    2.66000009
   19.68777657   92.06710052    0.94000000    2.66000009
   19.69111061   96.52519989    0.80000001    2.66000009
   19.69416618   86.90190125    0.86000001    2.66000009
   19.69749832   91.34719849    0.88000000    2.66000009
   19.70333481   91.34719849    0.83999997    2.66000009
   19.70750046  100.18800354    0.98000002    2.64000010
   19.71083450   84.96749878    0.98000002    2.64000010
   19.71416664   86.54810333    1.01999998    2.64000010
   19.71694565   96.36209869    1.01999998    2.64000010
   19.71750069  100.42400360    1.01999998    2.64000010
   19.72083473   89.18740082    0.94000000    2.64000010
   19.72416687   91.76650238    0.88000000    2.64000010
   19.72722244   90.03679657    0.92000002    2.66000009
   19.73055649   88.97350311    0.92000002    2.66000009
   19.73388863   94.68669891    1.05999994    2.66000009
   19.73694420   89.86920166    1.00000000    2.64000010
   19.74027824   90.50659943    0.94000000    2.66000009
   19.74638939   90.50659943    0.86000001    2.64000010
   19.75055504   93.54720306    0.88000000    2.64000010
   19.75361061   92.06520081    0.80000001    2.64000010
   19.75694466   93.17780304    0.79000002    2.66000009
   19.76000023   95.50710297    0.79000002    2.66000009
   19.76333427   89.70870209    0.70999998    2.64000010
   19.76666641   95.40370178    0.73000002    2.66000009
   19.76972198   92.38939667    0.64999998    2.66000009
   19.77305603   94.78849792    0.63000000    2.64000010
   19.77638817   87.26159668    0.64999998    2.64000010
   19.77944374   91.42189789    0.80000001    2.64000010
   19.78277779   96.32039642    0.80000001    2.64000010
   19.78361130   84.06420135    0.80000001    2.64000010
   19.78916550   84.06420135    0.80000001    2.64000010
   19.79333305   86.44159698    0.79000002    2.64000010
   19.79666710   82.78630066    0.83999997    2.64000010
   19.79972076   82.47889709    0.88000000    2.64000010
   19.80305481   87.07720184    0.88000000    2.64000010
   19.80611038   91.22540283    0.89999998    2.64000010
   19.80944443   85.15959930    0.95999998    2.64000010
   19.81277657   76.32360077    0.95999998    2.64000010
   19.81583214   80.61579895    0.86000001    2.64000010
   19.81694603   82.99179840    0.86000001    2.64000010
   19.81972313   84.82800293    0.89999998    2.64000010
   19.82277870   88.27420044    0.88000000    2.64000010
   19.82611275   82.28340149    0.80000001    2.61999989
   19.83194542   82.28340149    0.83999997    2.64000010
   19.83611107   92.78340149    0.79000002    2.64000010
   19.83944511   83.68550110    0.88000000    2.64000010
   19.84277916   97.92400360    0.88000000    2.64000010
   19.84583473   91.61609650    0.79000002    2.64000010
   19.84916687   89.06060028    0.75000000    2.61999989
   19.85027885   90.16310120    0.75000000    2.61999989
   19.85277748   85.28749847    0.80000001    2.64000010
   19.85583305   87.74079895    0.92000002    2.61999989
   19.85916710   85.30930328    0.83999997    2.64000010
   19.86222267   77.79840088    0.81999999    2.64000010
   19.86555672   86.34140015    0.81999999    2.61999989
   19.86888885   82.23490143    0.81999999    2.61999989
   19.87472153   82.23490143    0.80000001    2.64000010
   19.87888908   85.99140167    0.80000001    2.64000010
   19.88222313   86.90789795    0.86000001    2.61999989
   19.88361168   81.16079712    0.86000001    2.61999989
   19.88611031   83.90180206    0.95999998    2.61999989
   19.88916588   82.15190125    0.98000002    2.61999989
   19.89249992   80.23619843    1.05999994    2.61999989
   19.89555550   81.86100006    0.98000002    2.61999989
   19.89888954   76.88430023    0.95999998    2.64000010
   19.90222168   85.06300354    0.92000002    2.61999989
   19.90527725   80.68659973    0.95999998    2.64000010
   19.90861130   89.16819763    0.98000002    2.61999989
   19.91194344   87.79370117    0.95999998    2.61999989
   19.91777802   87.79370117    0.92000002    2.61999989
   19.92194366   98.27020264    0.89999998    2.61999989
   19.92499924  114.38400269    0.92000002    2.61999989
   19.92833328  134.72900391    0.89999998    2.61999989
   19.93138885  170.74499512    0.92000002    2.61999989
   19.93472099  213.82699585    0.98000002    2.61999989
   19.93805504  220.21699524    1.01999998    2.61999989
   19.94111061   98.26119995    1.14999998    2.61999989
   19.94444275   -1.00000000    1.25000000    2.61999989
   19.94777679   -1.00000000    1.16999996    2.59999990
   19.97472191   -1.00000000    0.98000002    2.59999990
   19.97805595   -1.00000000    0.98000002    2.59999990
   19.98139000   -1.00000000    1.05999994    2.61999989
   19.98472214   -1.00000000    1.11000001    2.61999989
   19.98805618   -1.00000000    1.11000001    2.61999989
   19.99138832   -1.00000000    1.05999994    2.61999989
   19.99444389   -1.00000000    1.05999994    2.61999989
   19.99777794   -1.00000000    1.16999996    2.59999990
   20.00083351   -1.00000000    1.30999994    2.59999990
   20.00416756   -1.00000000    1.25000000    2.59999990
   20.00749969   -1.00000000    1.21000004    2.59999990
   20.01749992   -1.00000000    1.34000003    2.59999990
   20.02083397   -1.00000000    1.48000002    2.57999992
   20.02416611   -1.00000000    1.39999998    2.59999990
   20.02722168   -1.00000000    1.63000000    2.57999992
   20.03055573   -1.00000000    2.25000000    2.57999992
   20.03388786   -1.00000000    3.00000000    2.57999992
   20.03694344   -1.00000000    2.78999996    2.57999992
   20.04027748   -1.00000000    2.42000008    2.57999992
   20.04333305   -1.00000000    2.50000000    2.57999992
   20.04666710   -1.00000000    2.48000002    2.57999992
   20.04999924   -1.00000000    2.15000010    2.57999992
   20.06055450   -1.00000000    1.69000006    2.57999992
   20.06361008   -1.00000000    1.48000002    2.57999992
   20.06694603   -1.00000000    1.48000002    2.57999992
   20.07027817   -1.00000000    1.50000000    2.57999992
   20.07333374   -1.00000000    1.46000004    2.57999992
   20.07666779   -1.00000000    1.48000002    2.57999992
   20.07972336   -1.00000000    1.50000000    2.59999990
   20.08305550   -1.00000000    1.48000002    2.57999992
   20.08666801   -1.00000000    1.46000004    2.59999990
   20.09000015   -1.00000000    1.48000002    2.57999992
   20.09305573   -1.00000000    1.48000002    2.57999992
   20.10333443   -1.00000000    1.51999998    2.57999992
   20.10666656   -1.00000000    1.60000002    2.57999992
   20.10972214   -1.00000000    1.60000002    2.57999992
   20.11305618   -1.00000000    1.58000004    2.57999992
   20.11611176   -1.00000000    1.53999996    2.57999992
   20.11972237   -1.00000000    1.55999994    2.55999994
   20.12305641   -1.00000000    1.66999996    2.57999992
   20.12611198   -1.00000000    1.48000002    2.57999992
   20.12944412   -1.00000000    1.41999996    2.57999992
   20.13249969   -1.00000000    1.44000006    2.55999994
   20.13583374   -1.00000000    1.44000006    2.57999992
   20.14611053   -1.00000000    1.41999996    2.55999994
   20.14944458   -1.00000000    1.30999994    2.57999992
   20.15305519   -1.00000000    1.39999998    2.55999994
   20.15638924   -1.00000000    1.41999996    2.57999992
   20.15944481   -1.00000000    1.33000004    2.55999994
   20.16277695   -1.00000000    1.11000001    2.57999992
   20.16583252   -1.00000000    1.11000001    2.57999992
   20.16916656   -1.00000000    1.07000005    2.57999992
   20.17249870   -1.00000000    1.09000003    2.57999992
   20.17555428   -1.00000000    1.21000004    2.57999992
   20.17888832   -1.00000000    1.28999996    2.55999994
   20.18888855   -1.00000000    1.36000001    2.55999994
   20.19222069   -1.00000000    1.33000004    2.55999994
   20.19555473   -1.00000000    1.26999998    2.55999994
   20.19861031   -1.00000000    1.16999996    2.55999994
   20.20194435   -1.00000000    1.11000001    2.55999994
   20.20499992   -1.00000000    1.16999996    2.55999994
   20.20833397   -1.00000000    1.07000005    2.55999994
   20.21166801   -1.00000000    1.07000005    2.55999994
   20.21472359   -1.00000000    1.07000005    2.55999994
   20.21833420   -1.00000000    0.86000001    2.55999994
   20.22166634   -1.00000000    0.80000001    2.55999994
   20.23194504   -1.00000000    0.86000001    2.55999994
   20.23500061   -1.00000000    0.92000002    2.53999996
   20.23833275   -1.00000000    0.95999998    2.55999994
   20.24166679   -1.00000000    0.94000000    2.53999996
   20.24472237   -1.00000000    0.92000002    2.55999994
   20.24805641   -1.00000000    0.88000000    2.55999994
   20.25166702   -1.00000000    0.89999998    2.55999994
   20.25499916   -1.00000000    0.89999998    2.55999994
   20.25805473   -1.00000000    0.89999998    2.55999994
   20.26138878   -1.00000000    0.92000002    2.55999994
   20.26472282   -1.00000000    0.95999998    2.55999994
   20.27472115   -1.00000000    0.86000001    2.55999994
   20.27777672   -1.00000000    0.89999998    2.53999996
   20.28111076   -1.00000000    0.92000002    2.53999996
   20.28472137   -1.00000000    0.86000001    2.53999996
   20.28805542   -1.00000000    0.86000001    2.55999994
   20.29111099   -1.00000000    0.89999998    2.53999996
   20.29444313   -1.00000000    0.81999999    2.55999994
   20.29777718   -1.00000000    0.83999997    2.53999996
   20.30083275   -1.00000000    0.88000000    2.53999996
   20.30416679   -1.00000000    0.88000000    2.53999996
   20.30722237   -1.00000000    0.89999998    2.53999996
   20.31750107   -1.00000000    0.89999998    2.53999996
   20.32083511   -1.00000000    0.89999998    2.53999996
   20.32389069   -1.00000000    0.98000002    2.53999996
   20.32722282   -1.00000000    0.98000002    2.53999996
   20.33055687   -1.00000000    0.94000000    2.53999996
   20.33361244   -1.00000000    0.94000000    2.53999996
   20.33694458   -1.00000000    0.98000002    2.51999998
   20.34027863   -1.00000000    0.98000002    2.51999998
   20.34333420   -1.00000000    0.98000002    2.51999998
   20.34666824   -1.00000000    0.94000000    2.51999998
   20.34972191   -1.00000000    1.01999998    2.51999998
   20.36027908   -1.00000000    0.89999998    2.53999996
   20.36361122   -1.00000000    0.89999998    2.53999996
   20.36694527   -1.00000000    0.81999999    2.51999998
