    HOUR (UT)   FLARE FACTOR    SKY TESTER    SUN TESTER
   13.31333351   -1.00000000   -1.00000000   -1.00000000
   13.34222221  310.62298584    4.90999985    2.55999994
   13.34555531  342.87799072    4.90999985    2.57999992
   13.34749985  335.50500488    4.90999985    2.57999992
   13.34888840  319.41101074    4.90999985    2.57999992
   13.35027790  317.72399902    4.90999985    2.57999992
   13.35166740  314.92199707    4.90999985    2.57999992
   13.35305595  324.42999268    4.90999985    2.59999990
   13.35444450  329.59698486    4.90999985    2.55999994
   13.35583401  316.79199219    4.90999985    2.57999992
   13.35722256  294.76199341    4.90999985    2.55999994
   13.35861111  319.05999756    4.90999985    2.57999992
   13.36000061  289.00201416    4.90999985    2.57999992
   13.36138916  307.41799927    4.90999985    2.57999992
   13.36277771  343.02499390    4.90999985    2.57999992
   13.36416721  327.06100464    4.90999985    2.55999994
   13.36555576  295.86300659    4.90999985    2.57999992
   13.36694431  283.20498657    4.90999985    2.55999994
   13.36833382  281.22399902    4.90999985    2.55999994
   13.36972237  320.95300293    4.90999985    2.55999994
   13.37111092  320.22799683    4.90999985    2.57999992
   13.37250042  296.54598999    4.90999985    2.55999994
   13.37388897  338.54000854    4.90999985    2.57999992
   13.37527752  312.66000366    4.90999985    2.55999994
   13.37666702  317.13000488    4.90999985    2.55999994
   13.37805557  341.75500488    4.90999985    2.55999994
   13.37944412  318.69100952    4.90999985    2.55999994
   13.38083363  322.67300415    4.90999985    2.55999994
   13.38222218  325.11199951    4.90999985    2.55999994
   13.38361073  317.99798584    4.90999985    2.55999994
   13.38500023  302.98800659    4.90999985    2.55999994
   13.38638878  319.84500122    4.90999985    2.55999994
   13.38777733  312.39001465    4.90999985    2.57999992
   13.38916683  301.79901123    4.90999985    2.57999992
   13.39055538  295.59698486    4.90999985    2.55999994
   13.39194393  319.34600830    4.90999985    2.57999992
   13.39333344  318.08099365    4.90999985    2.57999992
   13.39472198  295.22000122    4.90999985    2.57999992
   13.39611053  279.79199219    4.90999985    2.57999992
   13.39750004  260.69699097    4.90999985    2.59999990
   13.39888859  257.28201294    4.90999985    2.57999992
   13.40083313  277.44900513    4.90999985    2.57999992
   13.40222168  323.99398804    4.90999985    2.59999990
   13.40361118  300.44500732    4.90999985    2.57999992
   13.40499973  268.31900024    4.90999985    2.57999992
   13.40638828  263.93499756    4.90999985    2.59999990
   13.40777779  287.09899902    4.90999985    2.59999990
   13.40916634  294.67800903    4.90999985    2.53999996
   13.41055489  298.77600098    4.90999985    2.44000006
   13.41194439  264.45001221    4.90999985    2.46000004
   13.41333294  263.76699829    4.90999985    2.46000004
   13.41472149  204.29600525    4.90999985    2.46000004
   13.41472149  342.87799072    4.90999985    2.57999992
   13.41527748  381.96301270    4.90999985    2.46000004
   13.41750050  323.96301270    4.90999985    2.07999992
   13.41861153  329.82998657    4.90999985    2.13000011
   13.42000008  293.51000977    4.90999985    2.39000010
   13.42138958  295.86099243    4.90999985    2.30999994
   13.42277813  277.52099609    4.90999985    2.46000004
   13.42416668  269.19601440    4.90999985    2.46000004
   13.42555618  268.07000732    4.90999985    2.51999998
   13.42694473  269.38299561    4.36999989    2.53999996
   13.42833328  264.35598755    1.28999996    2.51999998
   13.42972279  289.97198486    1.16999996    2.51999998
   13.43111134  267.32199097    1.13000000    2.53999996
   13.43249989  273.22198486    1.11000001    2.51999998
   13.43388939  233.66999817    1.11000001    2.51999998
   13.43416691  381.96301270    4.90999985    2.46000004
   13.43472195  244.66200256    1.11000001    2.51999998
   13.43777752  229.08500671    1.11000001    2.51999998
   13.44111156  250.01300049    1.11000001    2.51999998
   13.44444466  227.40400696    1.11000001    2.51999998
   13.44750023  235.13999939    1.09000003    2.51999998
   13.45083332  253.28900146    1.09000003    2.51999998
   13.45499992  253.28900146    1.09000003    2.51999998
   13.45944405  244.88699341    1.09000003    2.51999998
   13.46249962  230.46000671    1.09000003    2.53999996
   13.46583271  236.78599548    1.09000003    2.51999998
   13.46777725  240.15199280    1.09000003    2.50000000
   13.46944427  248.19099426    1.09000003    2.51999998
   13.47249985  244.87800598    1.13000000    2.51999998
   13.47583294  237.95199585    1.13000000    2.51999998
   13.47916603  234.71400452    1.13000000    2.51999998
   13.48222160  237.24499512    1.13000000    2.51999998
   13.48583317  263.90100098    1.13000000    2.51999998
   13.48916721  255.03300476    1.13000000    2.51999998
   13.49250031  227.82099915    1.13000000    2.51999998
   13.49805546  227.82099915    1.13000000    2.51999998
   13.50222206  215.54899597    1.13000000    2.51999998
   13.50555515  233.94200134    1.13000000    2.51999998
   13.50861073  195.91200256    1.13000000    2.51999998
   13.51194477  231.28100586    1.13000000    2.51999998
   13.51527786  229.24099731    1.13000000    2.51999998
   13.51833344  221.95500183    1.13000000    2.51999998
   13.52166653  223.84100342    1.13000000    2.51999998
   13.52499962  214.90699768    1.13000000    2.51999998
   13.52805519  188.86000061    1.13000000    2.51999998
   13.53138828  248.21200562    1.13000000    2.51999998
   13.53472233  227.18899536    1.13000000    2.51999998
   13.53527832  222.21699524    1.13000000    2.51999998
   13.54111195  222.21699524    1.13000000    2.51999998
   13.54500008  215.64900208    1.13000000    2.51999998
   13.54833412  174.76899719    1.13000000    2.51999998
   13.55166721  192.29899597    1.13000000    2.51999998
   13.55472279  213.48100281    1.13000000    2.51999998
   13.55805588  202.27299500    1.13000000    2.51999998
   13.56138897  205.36799622    1.13000000    2.51999998
   13.56444454  188.40299988    1.13000000    2.51999998
   13.56805515  197.32000732    1.13000000    2.51999998
   13.56888866  181.40899658    1.13000000    2.51999998
   13.57194424  194.06300354    1.13000000    2.51999998
   13.57499981  209.96299744    1.13000000    2.51999998
   13.57833290  207.43600464    1.13000000    2.51999998
   13.58416653  207.43600464    1.13000000    2.51999998
   13.58833313  193.20500183    1.13000000    2.51999998
   13.59166622  188.09399414    1.13000000    2.51999998
   13.59499931  189.21200562    1.13000000    2.51999998
   13.59805489  175.33299255    1.13000000    2.51999998
   13.60138893  186.19299316    1.13000000    2.51999998
   13.60222244  184.08399963    1.13000000    2.51999998
   13.60500050  179.61700439    1.13000000    2.51999998
   13.60805607  184.72000122    1.13000000    2.51999998
   13.61138916  175.02699280    1.14999998    2.50000000
   13.61472225  187.95199585    4.90999985    2.61999989
   13.61777782  156.08000183    4.90999985    2.53999996
   13.62111092  138.45199585    4.90999985    2.61999989
   13.62722206  138.45199585    4.90999985    2.57999992
   13.63111115   -1.00000000    4.90999985    2.66000009
   13.63444424   -1.00000000    4.90999985    0.34000000
   13.63777733   -1.00000000    4.90999985    0.25000000
   13.64111137   -1.00000000    4.90999985    1.01999998
   13.64444447  253.58099365    4.90999985    0.75000000
   13.64750004   99.51210022    4.90999985    2.66000009
   13.65083313   -1.00000000    4.90999985    1.09000003
   13.65444374   -1.00000000    4.90999985    0.76999998
   13.65777779   -1.00000000    4.90999985    0.56999999
   13.66083336   -1.00000000    4.90999985    1.16999996
   13.66416645   -1.00000000    4.90999985    1.11000001
   13.67444515  331.77301025    4.90999985    1.00000000
   13.67638874  339.24899292    4.90999985    1.69000006
   13.67805576  194.91700745    4.90999985    1.75000000
   13.67805576  253.58099365    4.90999985    0.75000000
   13.67833328   99.51210022    4.90999985    2.66000009
   13.67833328   -1.00000000    4.90999985    1.09000003
   13.67833328   -1.00000000    4.90999985    0.76999998
   13.67861176   -1.00000000    4.90999985    0.56999999
   13.67861176   -1.00000000    4.90999985    1.16999996
   13.67861176   -1.00000000    4.90999985    1.11000001
   13.67888927  331.77301025    4.90999985    1.00000000
   13.67888927   -1.00000000    4.90999985    1.01999998
   13.68000031  179.22399902    4.90999985    2.48000002
   13.68333340  195.16400146    3.25000000    2.53999996
   13.68638897  183.21699524    1.13000000    2.53999996
   13.68972206  203.76300049    1.14999998    2.53999996
   13.69305515  186.01300049    1.13000000    2.53999996
   13.69888878  186.01300049    1.14999998    2.51999998
   13.70305538  213.94299316    1.14999998    2.51999998
   13.70611095  261.16198730    1.14999998    2.51999998
   13.70944405  240.44700623    1.14999998    2.51999998
   13.71194458  237.70300293    1.14999998    2.51999998
   13.71333313  219.51499939    1.14999998    2.51999998
   13.71638870  242.31399536    1.13000000    2.53999996
   13.71972179  255.61000061    1.13000000    2.53999996
   13.72277737  220.19999695    1.11000001    2.53999996
   13.72611046  250.57200623    1.11000001    2.53999996
   13.72944355  229.21200562    1.09000003    2.55999994
   13.73249912  210.55999756    1.07000005    2.55999994
   13.73611164  241.51100159    1.09000003    2.57999992
   13.74222279  241.51100159    1.13000000    2.57999992
   13.74638939  199.21800232    1.13000000    2.57999992
   13.74944496  244.13200378    1.01999998    2.57999992
   13.75277805  208.80099487    1.00000000    2.57999992
   13.75611115  195.59700012    1.01999998    2.59999990
   13.75916672  206.32800293    1.00000000    2.57999992
   13.76249981  211.82299805    1.00000000    2.59999990
   13.76555538  210.16000366    1.01999998    2.59999990
   13.76888847  199.95300293    1.01999998    2.59999990
   13.77222157  222.23800659    1.03999996    2.57999992
   13.77527714  212.98699951    1.03999996    2.57999992
   13.77861118  224.12300110    1.13000000    2.57999992
   13.77916622  241.85699463    1.26999998    2.57999992
   13.78500080  241.85699463    1.09000003    2.59999990
   13.78916740  210.16200256    1.01999998    2.57999992
   13.79222298  237.06500244    1.01999998    2.57999992
   13.79555607  217.88900757    1.01999998    2.57999992
   13.79888916  222.76400757    1.01999998    2.57999992
   13.80194473  256.48901367    1.03999996    2.57999992
   13.80527782  220.33700562    1.03999996    2.57999992
   13.80861092  238.99699402    1.03999996    2.57999992
   13.81166649  235.23300171    1.03999996    2.57999992
   13.81250000  224.44799805    1.03999996    2.57999992
   13.81555557  218.26400757    1.01999998    2.57999992
   13.81861115  227.11300659    1.01999998    2.57999992
   13.82222176  237.84500122    1.00000000    2.57999992
   13.82833290  237.84500122    1.01999998    2.57999992
   13.83222198  183.74299622    1.00000000    2.57999992
   13.83555508  200.56900024    1.00000000    2.59999990
   13.83888817  233.56100464    0.98000002    2.59999990
   13.84222221  237.95700073    0.98000002    2.59999990
   13.84527779  183.12199402    0.95999998    2.59999990
   13.84611034  214.57299805    0.95999998    2.59999990
   13.84888840  227.65699768    0.94000000    2.59999990
   13.85222244  187.64999390    0.94000000    2.59999990
   13.85527802  229.22099304    0.92000002    2.61999989
   13.85861111  190.75500488    0.92000002    2.61999989
   13.86194515  221.40899658    0.92000002    2.61999989
   13.86500072  215.82400513    0.89999998    2.61999989
   13.87111092  215.82400513    0.89999998    2.61999989
   13.87527752  224.85899353    0.89999998    2.61999989
   13.87833309  216.71299744    0.89999998    2.61999989
   13.87944412  242.33900452    0.89999998    2.61999989
   13.88194466  208.49200439    0.89999998    2.61999989
   13.88555527  237.91299438    0.89999998    2.64000010
   13.88861084  198.07699585    0.89999998    2.64000010
   13.89194393  211.91099548    0.92000002    2.61999989
   13.89527798  164.28500366    0.89999998    2.61999989
   13.89833355  244.64999390    0.89999998    2.61999989
   13.90166664  210.61500549    0.89999998    2.59999990
   13.90527725  218.48199463    0.89999998    2.61999989
   13.90861034  242.52400208    0.89999998    2.61999989
   13.91416645  242.52400208    0.89999998    2.61999989
   13.91833401  213.72200012    0.88000000    2.61999989
   13.92166710  231.13800049    0.88000000    2.61999989
   13.92500019  196.26199341    0.88000000    2.61999989
   13.92805576  208.12500000    0.88000000    2.61999989
   13.93138885  233.95300293    0.89999998    2.61999989
   13.93472195  222.91299438    0.89999998    2.61999989
   13.93777752  232.09899902    0.89999998    2.61999989
   13.94111156  233.84199524    0.89999998    2.61999989
   13.94444466  216.50000000    0.89999998    2.61999989
   13.94666672  224.75500488    0.92000002    2.61999989
   13.94777775  238.94299316    0.92000002    2.61999989
   13.95111084  229.77999878    1.44000006    2.61999989
   13.95722198  229.77999878    1.44000006    2.59999990
   13.96138859  210.80400085    1.23000002    2.59999990
   13.96444416  228.78100586    0.98000002    2.59999990
   13.96777725  224.28100586    0.95999998    2.59999990
   13.97083282  222.07400513    0.95999998    2.59999990
   13.97416592  242.34500122    0.98000002    2.59999990
   13.97749996  226.50799561    0.95999998    2.59999990
   13.97999954  208.56900024    0.95999998    2.57999992
   13.98083305  238.33399963    0.94000000    2.61999989
   13.98416710  223.14399719    0.94000000    2.61999989
   13.98777771  218.42100525    0.94000000    2.61999989
   13.99111176  217.97200012    0.94000000    2.59999990
   13.99416733  203.17100525    0.94000000    2.59999990
   14.00027752  203.17100525    0.94000000    2.61999989
   14.00444412  221.49299622    0.94000000    2.61999989
   14.00777817  205.27799988    0.94000000    2.61999989
   14.01111126  212.93899536    0.95999998    2.59999990
   14.01361084  210.15100098    0.95999998    2.59999990
   14.01472187  217.50599670    0.95999998    2.59999990
   14.01777744  240.17300415    0.95999998    2.59999990
   14.02111053  219.37399292    0.95999998    2.61999989
   14.02444458  239.54400635    1.00000000    2.61999989
   14.02750015  229.34899902    4.90999985    2.61999989
   14.03083324  312.76098633    4.90999985    2.11999989
   14.03277779  123.53099823    4.90999985    2.09999990
   14.03305531  221.49299622    0.94000000    2.61999989
   14.03305531  205.27799988    0.94000000    2.61999989
   14.03305531  212.93899536    0.95999998    2.59999990
   14.03333378  217.50599670    0.95999998    2.59999990
   14.03333378  240.17300415    0.95999998    2.59999990
   14.03333378  219.37399292    0.95999998    2.61999989
   14.03361130  239.54400635    1.00000000    2.61999989
   14.03361130  229.34899902    4.90999985    2.61999989
   14.03555584  208.57899475    4.90999985    1.94000006
   14.03888893  226.07499695    4.90999985    2.34999990
   14.04194450   -1.00000000    4.90999985    2.59999990
   14.04527855   -1.00000000    4.90999985    0.25000000
   14.04861164   -1.00000000    4.90999985    0.40000001
   14.05361176   -1.00000000    4.90999985    2.61999989
   14.05777836  179.35499573    4.90999985    2.57999992
   14.06111145  218.78599548    4.90999985    2.69000006
   14.06416702  207.60899353    4.90999985    2.69000006
   14.06666660  201.92300415    4.90999985    2.67000008
   14.06805515  196.05599976    4.90999985    2.66000009
   14.07166672  195.01800537    2.57999992    2.66000009
   14.07499981  193.26899719    1.28999996    2.64000010
   14.07805538  174.68200684    1.98000002    2.61999989
   14.08138847  191.92199707    2.42000008    2.61999989
   14.08444405  265.33801270    3.03999996    2.59999990
   14.08777714  188.94999695    1.33000004    2.53999996
   14.09111118  207.60099792    1.51999998    2.61999989
   14.09694386  207.60099792    0.89999998    2.64000010
   14.10111141  208.37300110    0.88000000    2.64000010
   14.10416698  220.02900696    0.86000001    2.64000010
   14.10750008  189.66400146    0.88000000    2.64000010
   14.11083412  179.11000061    0.92000002    2.66000009
   14.11388969  202.19200134    1.39999998    2.66000009
   14.11722279  214.11399841    2.94000006    2.66000009
   14.12055588  196.28500366    4.90999985    2.67000008
   14.12361145  170.07299805    4.90999985    2.66000009
   14.12694454  209.84100342    4.90999985    2.66000009
   14.13027763  243.91700745    4.07999992    2.66000009
   14.13333321  216.36599731    2.82999992    2.44000006
   14.13388920  197.63800049    2.82999992    2.44000006
   14.13972187  197.63800049    3.03999996    2.64000010
   14.14388847  177.51600647    2.66000009    2.61999989
   14.14722252  163.32899475    1.01999998    2.61999989
   14.15027714  160.36799622    0.92000002    2.64000010
   14.15361118  208.68600464    0.89999998    2.61999989
   14.15722179  186.01300049    0.88000000    2.61999989
   14.16055489  184.44299316    0.88000000    2.64000010
   14.16361046  169.48300171    0.88000000    2.64000010
   14.16694450  185.02000427    0.88000000    2.64000010
   14.16777802  180.67799377    0.88000000    2.64000010
   14.17055607  186.14100647    0.88000000    2.64000010
   14.17388916  184.74400330    0.88000000    2.64000010
   14.17722225  194.76600647    0.88000000    2.64000010
   14.18305588  194.76600647    0.92000002    2.64000010
   14.18722248  146.81399536    0.98000002    2.64000010
   14.19055557  161.74899292    1.05999994    2.64000010
   14.19361115  168.13000488    1.05999994    2.64000010
   14.19694424  178.05900574    0.98000002    2.64000010
   14.19999981  188.62300110    0.98000002    2.64000010
   14.20111084  177.71400452    0.95999998    2.64000010
   14.20361137  174.60400391    0.92000002    2.61999989
   14.20694447  190.53999329    1.14999998    2.61999989
   14.21027756  210.79499817    1.07000005    2.61999989
   14.21333313  182.87100220    1.23000002    2.64000010
   14.21666622  207.72099304    2.28999996    2.64000010
   14.21972179  216.88999939    4.05999994    2.66000009
   14.22583294  216.88999939    3.32999992    2.64000010
   14.22999954  179.74800110    4.90999985    2.69000006
   14.23333359  152.99200439    4.90999985    2.36999989
   14.23444462  296.08898926    4.90999985    2.64000010
   14.23666668  215.88400269    4.90999985    2.57999992
   14.24027824  149.57099915    4.90999985    2.73000002
   14.24361134  176.42500305    1.76999998    2.67000008
   14.24694443  226.85299683    4.90999985    2.67000008
   14.25000000  232.30700684    4.90999985    2.69000006
   14.25333309  221.97000122    4.90999985    2.69000006
   14.25666714  213.22700500    4.90999985    2.67000008
   14.25972176  156.40600586    0.89999998    2.66000009
   14.26305580  219.39100647    0.86000001    2.66000009
   14.26916599  219.39100647    2.39000010    2.67000008
   14.27333355  208.90600586    1.23000002    2.67000008
   14.27638817  201.95399475    0.86000001    2.67000008
   14.27972221  192.12899780    0.88000000    2.67000008
   14.28305531  179.44000244    1.66999996    2.67000008
   14.28611183  189.99099731    4.15999985    2.67000008
   14.28944492  316.69000244    3.01999998    2.67000008
   14.29138947  333.45401001    2.55999994    2.21000004
   14.29277802  230.35699463    3.45000005    2.36999989
   14.29277802  179.44000244    1.66999996    2.67000008
   14.29305553  189.99099731    4.15999985    2.67000008
   14.29305553  316.69000244    3.01999998    2.67000008
   14.29305553  213.22700500    4.90999985    2.67000008
   14.29333401  156.40600586    0.89999998    2.66000009
   14.29333401  219.39100647    0.86000001    2.66000009
   14.29333401  208.90600586    1.23000002    2.67000008
   14.29361153  201.95399475    0.86000001    2.67000008
   14.29361153  192.12899780    0.88000000    2.67000008
   14.29472256  242.11799622    4.88999987    2.53999996
   14.29805565  179.81500244    2.94000006    2.66000009
   14.30111122  186.98599243    4.65999985    2.66000009
   14.30444431  200.68699646    2.40000010    2.66000009
   14.30749989  196.16900635    0.83999997    2.66000009
   14.31361103  196.16900635    0.83999997    2.66000009
   14.31777763  186.97300720    0.83999997    2.64000010
   14.32083321  163.69700623    0.86000001    2.66000009
   14.32444477  179.27699280    0.86000001    2.67000008
   14.32694435  159.41299438    0.86000001    2.66000009
   14.32833290  196.52000427    0.83999997    2.66000009
   14.33166695  186.32800293    0.86000001    2.67000008
   14.33472157  185.05200195    0.86000001    2.67000008
   14.33805561  175.46800232    0.98000002    2.67000008
   14.34111118  201.79299927    1.36000001    2.67000008
   14.34444427  190.62899780    1.03999996    2.67000008
   14.34777737  207.43600464    0.94000000    2.69000006
   14.36833382  207.43600464    4.90999985    2.17000008
   14.37250042  120.45999908    4.90999985    2.84999990
   14.37555599   -1.00000000    4.90999985    2.25000000
   14.37888908   -1.00000000    4.90999985    1.55999994
   14.38222218   -1.00000000    4.90999985    0.55000001
   14.38527775   -1.00000000    4.90999985    0.79000002
   14.38861084   -1.00000000    4.90999985    0.40000001
   14.39166641   -1.00000000    4.90999985    0.41999999
   14.39499950   -1.00000000    4.90999985    0.73000002
   14.39833355  144.80499268    4.90999985    0.79000002
   14.39916611  185.00300598    4.90999985    1.14999998
   14.40166664   -1.00000000    4.90999985    1.36000001
   14.40527725   -1.00000000    4.90999985    0.36000001
   14.41138840   -1.00000000    4.90999985    1.33000004
   14.41555500  266.13101196    4.90999985    2.75000000
   14.41888905  317.21499634    4.90999985    2.71000004
   14.42083359  303.99798584    2.75000000    2.69000006
   14.42222214  362.53100586    1.21000004    2.67000008
   14.42361164  265.13101196    1.26999998    2.67000008
   14.42500019  325.65100098    1.03999996    2.67000008
   14.42638874  289.66198730    1.73000002    2.67000008
   14.42777824  326.62298584    1.75000000    2.67000008
   14.42916679  312.84201050    1.89999998    2.67000008
   14.43055630  271.91598511    2.51999998    2.67000008
   14.43194485  327.22100830    2.57999992    2.66000009
   14.43333340  272.25698853    2.36999989    2.66000009
   14.43472195  258.47198486    2.36999989    2.66000009
   14.43611145  265.71398926    0.98000002    2.66000009
   14.43750000  280.52499390    0.88000000    2.66000009
   14.43888855  255.72000122    0.88000000    2.66000009
   14.44027805  282.97500610    0.88000000    2.66000009
   14.44166660  259.70300293    0.86000001    2.66000009
   14.44305515  287.44601440    0.86000001    2.66000009
   14.44444466  312.46600342    0.86000001    2.66000009
   14.44583321  317.34500122    0.86000001    2.66000009
   14.44722271  232.00199890    0.86000001    2.66000009
   14.44722271  317.21499634    4.90999985    2.71000004
   14.44750023   -1.00000000    4.90999985    0.79000002
   14.44750023   -1.00000000    4.90999985    0.40000001
   14.44750023   -1.00000000    4.90999985    0.41999999
   14.44777775   -1.00000000    4.90999985    0.73000002
   14.44777775  144.80499268    4.90999985    0.79000002
   14.44777775   -1.00000000    4.90999985    1.36000001
   14.44805527   -1.00000000    4.90999985    0.36000001
   14.44805527  266.13101196    4.90999985    2.75000000
   14.44861126  301.40100098    0.86000001    2.66000009
   14.45055580  310.84899902    0.86000001    2.66000009
   14.45194435  242.54699707    0.86000001    2.66000009
   14.45194435  301.40100098    0.86000001    2.66000009
   14.45277786  206.28199768    0.86000001    2.66000009
   14.45611095  274.07699585    0.86000001    2.67000008
   14.45944405  250.60099792    0.88000000    2.67000008
   14.46249962  222.60200500    0.88000000    2.67000008
   14.46583271  178.39100647    4.90999985    2.51999998
   14.46916580   -1.00000000    4.90999985    2.30999994
   14.47722149   -1.00000000    4.90999985    1.01999998
   14.48055553  288.80200195    4.90999985    1.51999998
   14.48361111  299.15399170    4.90999985    2.71000004
   14.48583317  319.00799561    3.72000003    2.67000008
   14.48750019  317.87298584    0.83999997    2.67000008
   14.49000072  280.60998535    0.81999999    2.67000008
   14.49111176  309.26599121    0.83999997    2.66000009
   14.49250031  303.20498657    0.83999997    2.66000009
   14.49388885  317.44000244    0.83999997    2.66000009
   14.49527836  304.03601074    0.83999997    2.66000009
   14.49666691  308.92001343    0.83999997    2.66000009
   14.49805546  315.16900635    0.83999997    2.66000009
   14.49944496  311.45999146    0.83999997    2.66000009
   14.50083351  276.16598511    0.83999997    2.66000009
   14.50222206  316.98999023    0.83999997    2.66000009
   14.50361156  274.70098877    0.83999997    2.66000009
   14.50500011  318.95700073    0.83999997    2.67000008
   14.50638866  278.02398682    0.83999997    2.67000008
   14.50777817  298.89199829    0.83999997    2.66000009
   14.50916672  297.99499512    0.83999997    2.67000008
   14.51055527  306.76800537    0.86000001    2.66000009
   14.51194477  357.44699097    0.83999997    2.66000009
   14.51333332  288.50900269    0.86000001    2.66000009
   14.51472187  314.66500854    0.83999997    2.67000008
   14.51611137  295.31500244    0.86000001    2.66000009
   14.51749992  336.22601318    0.86000001    2.66000009
   14.51888847  265.06799316    0.83999997    2.67000008
   14.52027798  351.18099976    0.83999997    2.67000008
   14.52166653  265.31399536    0.83999997    2.67000008
   14.52305508  262.93099976    0.83999997    2.67000008
   14.52444458  251.41499329    0.86000001    2.66000009
   14.52583313  284.08801270    0.86000001    2.67000008
   14.52722168  293.58499146    0.86000001    2.66000009
   14.52861118  285.56399536    0.86000001    2.66000009
   14.52999973  302.09201050    0.86000001    2.67000008
   14.53138828  344.72500610    0.86000001    2.66000009
   14.53277779  326.83700562    0.86000001    2.66000009
   14.53416729  267.16699219    0.86000001    2.66000009
   14.53555584  304.23901367    0.86000001    2.66000009
   14.53694534  274.51300049    0.86000001    2.66000009
   14.53833389  217.23599243    0.86000001    2.66000009
   14.53861141  317.87298584    0.83999997    2.67000008
   14.53861141  274.07699585    0.86000001    2.67000008
   14.53861141  250.60099792    0.88000000    2.67000008
   14.53888893  222.60200500    0.88000000    2.67000008
   14.53888893  178.39100647    4.90999985    2.51999998
   14.53888893   -1.00000000    4.90999985    2.30999994
   14.53916740   -1.00000000    4.90999985    1.01999998
   14.53916740  288.80200195    4.90999985    1.51999998
   14.53916740  299.15399170    4.90999985    2.71000004
   14.53972244  288.21099854    0.86000001    2.66000009
   14.54305553  300.18600464    0.86000001    2.67000008
   14.54500008  307.27200317    0.86000001    2.66000009
   14.54638958  305.88500977    0.86000001    2.67000008
   14.54777813  308.35800171    0.86000001    2.67000008
   14.54916668  337.31900024    0.86000001    2.67000008
   14.55055618  275.35000610    0.86000001    2.67000008
   14.55194473  293.86801147    0.86000001    2.66000009
   14.55333328  320.12399292    0.86000001    2.66000009
   14.55472279  319.97799683    0.86000001    2.66000009
   14.55611134  275.69000244    0.86000001    2.67000008
   14.55749989  280.77099609    0.86000001    2.67000008
   14.55888939  293.86801147    0.86000001    2.67000008
   14.56027794  325.75299072    0.86000001    2.67000008
   14.57222176  302.15899658    0.83999997    2.67000008
   14.57305527  325.34298706    0.83999997    2.66000009
   14.57444477  317.88000488    0.83999997    2.67000008
   14.57583332  264.74499512    0.81999999    2.67000008
   14.57722187  294.20999146    0.83999997    2.67000008
   14.57861137  221.11000061    0.83999997    2.67000008
   14.57888889  288.21099854    0.86000001    2.66000009
   14.57888889  300.18600464    0.86000001    2.67000008
   14.57944393  253.86700439    0.81999999    2.69000006
   15.59277725  209.10000610    0.70999998    2.75000000
   15.59611034  202.05900574    0.70999998    2.75000000
   15.59916592  186.03500366    0.70999998    2.75000000
   15.60249996  188.63299561    0.70999998    2.75000000
   15.60583401  188.16799927    0.70999998    2.75000000
   15.60888958  169.37500000    0.69000000    2.75000000
   15.61305618  169.37500000    0.70999998    2.75000000
   15.61722279  150.04499817    0.70999998    2.75000000
   15.62055588  154.64999390    0.69000000    2.75000000
   15.62361145  155.97799683    0.70999998    2.75000000
   15.62611103  156.71099854    0.70999998    2.75000000
   15.62722206  150.29299927    0.70999998    2.75000000
   15.63027763  145.29499817    0.70999998    2.75000000
   15.63361073  152.92199707    0.70999998    2.75000000
   15.63694477  145.43200684    0.69000000    2.75000000
   15.64000034  141.90299988    0.69000000    2.75000000
   15.74499989   -1.00000000   -1.00000000   -1.00000000
   15.92083359   -1.00000000   -1.00000000   -1.00000000
   16.03138924   -1.00000000   -1.00000000   -1.00000000
   16.07944489  114.97200012    0.55000001    1.58000004
   16.08277893  265.71499634    1.11000001    2.76999998
   16.08611107  241.43200684    1.98000002    2.78999996
   16.08916664  199.32000732    1.85000002    2.78999996
   16.09250069  230.28500366    1.85000002    2.78999996
   16.09583473  219.00999451    1.85000002    2.78999996
   16.09972191  219.00999451    0.89999998    2.76999998
   16.10388947  219.96000671    0.67000002    2.76999998
   16.10722351  235.91200256    0.67000002    2.76999998
   16.11055565  234.97999573    0.67000002    2.76999998
   16.11277771  240.76199341    0.67000002    2.76999998
   16.11416626  245.00500488    0.67000002    2.76999998
   16.11750031  219.43800354    0.64999998    2.76999998
   16.12055588  209.85400391    0.64999998    2.76999998
   16.12388992  251.29699707    0.64999998    2.78999996
   16.12694550  235.62800598    0.64999998    2.78999996
   16.13027763  248.32000732    0.64999998    2.78999996
   16.13361168  301.80099487    0.64999998    2.76999998
   16.13555527  288.91000366    0.64999998    2.76999998
   16.13694382  343.53100586    0.63000000    2.76999998
   16.13833237  235.02699280    0.64999998    2.76999998
   16.13833237  219.43800354    0.64999998    2.76999998
   16.13833237  209.85400391    0.64999998    2.76999998
   16.13861084  251.29699707    0.64999998    2.78999996
   16.13861084  235.62800598    0.64999998    2.78999996
   16.13861084  248.32000732    0.64999998    2.78999996
   16.13888931  301.80099487    0.64999998    2.76999998
   16.13888931  235.91200256    0.67000002    2.76999998
   16.13888931  234.97999573    0.67000002    2.76999998
   16.13916588  245.00500488    0.67000002    2.76999998
   16.13972282  336.69299316    0.64999998    2.76999998
   16.14166641  322.10400391    0.63000000    2.78999996
   16.14305496  266.59100342    0.63000000    2.78999996
   16.14444351  260.50601196    0.63000000    2.78999996
   16.14583397  338.80999756    0.63000000    2.78999996
   16.14722252  350.76300049    0.64999998    2.78999996
   16.14861107  275.20098877    0.63000000    2.76999998
   16.14999962  339.50299072    0.63000000    2.76999998
   16.15138817  308.18099976    0.70999998    2.75000000
   16.15277672  391.46499634    0.64999998    2.76999998
   16.15416718  338.83801270    0.64999998    2.78999996
   16.15555573  313.61801147    0.63000000    2.78999996
   16.15694427  340.55801392    0.64999998    2.78999996
   16.15833282  298.94601440    0.64999998    2.78999996
   16.15972137  326.29800415    0.64999998    2.78999996
   16.16110992  319.98098755    0.64999998    2.78999996
   16.16250038  345.85400391    0.64999998    2.78999996
   16.16388893  333.03601074    0.64999998    2.78999996
   16.16527748  339.26699829    0.64999998    2.78999996
   16.16666603  347.47698975    0.63000000    2.76999998
   16.16805458  314.73400879    0.73000002    2.75000000
   16.16944313  243.35499573    0.75000000    2.75000000
   16.16944313  336.69299316    0.64999998    2.76999998
   16.17000008  272.20800781    0.75000000    2.75000000
   16.17333221  314.49499512    0.75000000    2.75000000
   16.17527771  327.83300781    0.63000000    2.78999996
   16.17666626  317.79400635    0.63000000    2.78999996
   16.17805481  341.50500488    0.63000000    2.78999996
   16.17944336  353.20999146    0.80000001    0.01000000
   16.18083191  308.42199707    0.52999997    0.61000001
   16.18222237  285.54400635    0.64999998    2.75000000
   16.18361092  276.27600098    0.64999998    2.75000000
   16.18499947  286.17098999    0.63000000    2.78999996
   16.18638802  280.35598755    0.63000000    2.78999996
   16.18777657  296.33499146    0.61000001    2.78999996
   16.18916512  339.10900879    0.61000001    2.78999996
   16.19055557  255.89500427    0.61000001    2.78999996
   16.19194412  305.97500610    0.61000001    2.78999996
   16.19333267  205.79299927    0.61000001    2.78999996
   16.19333267  272.20800781    0.75000000    2.75000000
   16.19333267  314.49499512    0.75000000    2.75000000
   16.19416618  307.90899658    0.61000001    2.78999996
   16.19610977  239.46600342    0.61000001    2.78999996
   16.19805527  269.58599854    0.61000001    2.78999996
   16.20138931  279.16000366    0.70999998    0.17000000
   16.20444489  281.86300659    0.63000000    2.78999996
   16.20777893  238.81300354    0.63000000    2.78999996
   16.21083450  288.69900513    0.63000000    2.78999996
   16.21694565  288.69900513    0.63000000    2.78999996
   16.22111130  277.80999756    0.61000001    2.76999998
   16.22416687  193.92599487    0.61000001    2.76999998
   16.22750092  221.64399719    0.63000000    2.76999998
   16.23000145  226.14399719    0.63000000    2.76999998
   16.23111153  241.83700562    0.63000000    2.76999998
   16.23444557  264.84899902    0.63000000    2.76999998
   16.23777771  263.40200806    0.63000000    2.76999998
   16.24083328  265.24499512    0.63000000    2.76999998
   16.24416733  259.86099243    0.63000000    2.75000000
   16.24749947  114.90799713    0.63000000    2.75000000
   16.25055504  261.59698486    0.63000000    2.75000000
   16.25388908  213.37500000    0.63000000    2.75000000
   16.25972176  213.37500000    0.63000000    2.76999998
   16.26388931  191.49499512    0.63000000    2.75000000
   16.26722145  240.38000488    0.63000000    2.75000000
   16.27027702  316.52801514    0.63000000    2.75000000
   16.27222252  340.93798828    0.64999998    2.75000000
   16.27361107  327.66598511    0.63000000    2.76999998
   16.27499962  344.25399780    0.64999998    2.75000000
   16.27638817  361.05801392    0.63000000    2.75000000
   16.27777672  370.08700562    0.63000000    2.75000000
   16.27916718  354.28601074    0.63000000    2.75000000
   16.28055573  342.64700317    0.63000000    2.75000000
   16.28194427  329.86999512    0.63000000    2.75000000
   16.28333282  336.87200928    0.63000000    2.75000000
   16.28472137  336.48498535    0.63000000    2.75000000
   16.28610992  354.36898804    0.63000000    2.75000000
   16.28750038  288.12799072    0.63000000    2.75000000
   16.28888893  308.80801392    0.63000000    2.75000000
   16.29027748  301.88101196    0.63000000    2.75000000
   16.29166603  326.68499756    0.64999998    2.71000004
   16.29305458  312.38800049    0.70999998    0.88000000
   16.29444313  261.89898682    0.73000002    0.79000002
   16.29583359  252.50900269    0.73000002    0.69000000
   16.29722214  264.08801270    0.73000002    0.69000000
   16.29861069  286.48098755    0.73000002    0.69000000
   16.29999924  240.73199463    0.73000002    0.69000000
   16.29999924  316.52801514    0.63000000    2.75000000
   16.30027771  263.40200806    0.63000000    2.76999998
   16.30027771  265.24499512    0.63000000    2.76999998
   16.30027771  259.86099243    0.63000000    2.75000000
   16.30055428  114.90799713    0.63000000    2.75000000
   16.30055428  261.59698486    0.63000000    2.75000000
   16.30055428  213.37500000    0.63000000    2.75000000
   16.30083275  191.49499512    0.63000000    2.75000000
   16.30083275  240.38000488    0.63000000    2.75000000
   16.30138779  258.59899902    0.73000002    0.69000000
   16.30472183  256.85299683    0.73000002    0.69000000
   16.30777740  295.14801025    0.73000002    0.69000000
   16.31110954  291.79901123    0.73000002    0.69000000
   16.31444359  364.55700684    0.73000002    0.69000000
   16.31638718  329.70098877    0.73000002    0.69000000
   16.31777954  364.39700317    0.73000002    0.69000000
   16.31916809  363.92001343    0.73000002    0.69000000
   16.32055664  329.58898926    0.73000002    0.69000000
   16.32194519  289.38101196    0.73000002    0.69000000
   16.32333374  283.80700684    0.73000002    0.69000000
   16.32472229  274.08300781    0.73000002    0.69000000
   16.32611275  282.60000610    0.73000002    0.69000000
   16.32750130  283.24301147    0.73000002    0.69000000
   16.32888985  253.57099915    0.73000002    0.69000000
   16.33027840  323.31500244    0.73000002    0.69000000
   16.33166695  302.60998535    0.73000002    0.69000000
   16.33305550  298.59500122    0.73000002    0.69000000
   16.33444595  307.25900269    0.73000002    0.69000000
   16.33583450  310.87100220    0.73000002    0.69000000
   16.33722305  311.99099731    0.73000002    0.69000000
   16.33861160  341.16198730    0.73000002    0.69000000
   16.34000015  253.11099243    0.73000002    0.69000000
   16.34138870  264.70199585    0.73000002    0.69000000
   16.34277916  271.21301270    0.73000002    0.69000000
   16.34416771  263.66299438    0.73000002    0.69000000
   16.34555626  253.90199280    0.73000002    0.69000000
   16.34694481  249.64300537    0.73000002    0.69000000
   16.34694481  258.59899902    0.73000002    0.69000000
   16.34694481  256.85299683    0.73000002    0.69000000
   16.34722328  295.14801025    0.73000002    0.69000000
   16.34722328  291.79901123    0.73000002    0.69000000
   16.34722328  364.55700684    0.73000002    0.69000000
   16.34777832  260.05700684    0.73000002    0.69000000
   16.35111237  212.10000610    0.73000002    0.69000000
   16.35444450  246.41999817    0.73000002    0.69000000
   16.35777855  211.51300049    0.73000002    0.69000000
   16.36083412  228.26800537    0.73000002    0.69000000
   16.36777878  228.26800537    0.73000002    0.69000000
   16.37166595  190.39999390    0.73000002    0.69000000
   16.37500000  204.32200623    0.73000002    0.69000000
   16.37833405  169.87500000    0.73000002    0.69000000
   16.38083267  195.95799255    0.73000002    0.69000000
   16.38194466  198.77999878    0.73000002    0.69000000
   16.38527679   93.53959656    0.73000002    0.69000000
   16.38833237  232.03300476    0.73000002    0.69000000
   16.39166641  173.93099976    0.73000002    0.69000000
   16.39500046   -1.00000000    0.73000002    0.69000000
   16.39805603   -1.00000000    0.73000002    0.69000000
   16.40138817   -1.00000000    0.73000002    0.69000000
   16.40472221   -1.00000000    0.73000002    0.69000000
   16.41444397   -1.00000000    0.73000002    0.69000000
   16.41777802   -1.00000000    0.73000002    0.69000000
   16.42111015   -1.00000000    0.73000002    0.69000000
   16.42416573   -1.00000000    0.73000002    0.69000000
   16.42749977   -1.00000000    0.73000002    0.69000000
   16.43083191   -1.00000000    0.73000002    0.69000000
   16.43388748   -1.00000000    0.73000002    0.69000000
   16.43722153   -1.00000000    0.73000002    0.69000000
   16.44027710   -1.00000000    0.73000002    0.69000000
   16.44361115   86.05010223    0.73000002    0.69000000
   16.44694328   -1.00000000    0.73000002    0.69000000
   16.45750046   -1.00000000    0.73000002    0.69000000
   16.46055603   -1.00000000    0.73000002    0.69000000
   16.46389008   -1.00000000    0.73000002    0.69000000
   16.46722221  167.14300537    0.73000002    0.69000000
   16.47027779  252.17100525    0.73000002    0.69000000
   16.47361183  124.72499847    0.73000002    0.69000000
   16.47666740  355.71099854    0.73000002    0.69000000
   16.47888947  251.60299683    0.73000002    0.69000000
   16.48000145  329.73699951    0.73000002    0.69000000
   16.48139000  317.04098511    0.73000002    0.69000000
   16.48277855  334.75399780    0.73000002    0.69000000
   16.48416710  324.65499878    0.73000002    0.69000000
   16.48555565  328.16400146    0.73000002    0.69000000
   16.48694420  352.06900024    0.73000002    0.69000000
   16.48833275  325.44000244    0.73000002    0.69000000
   16.48972321  355.19100952    0.73000002    0.69000000
   16.49111176  360.25201416    0.73000002    0.69000000
   16.49250031  389.98599243    0.73000002    0.69000000
   16.49388885  359.03500366    0.73000002    0.69000000
   16.49527740  375.96499634    0.73000002    0.69000000
   16.49666786  388.33401489    0.73000002    0.69000000
   16.49805641  318.62600708    0.73000002    0.69000000
   16.49944496  377.06799316    0.73000002    0.69000000
   16.50083351  347.59698486    0.73000002    0.69000000
   16.50222206  326.44100952    0.73000002    0.69000000
   16.50361061  308.72399902    0.73000002    0.69000000
   16.50499916  316.98699951    0.73000002    0.69000000
   16.50638962  319.85299683    0.73000002    0.69000000
   16.50777817  314.41101074    0.73000002    0.69000000
   16.50916672  293.26300049    0.73000002    0.69000000
   16.51055527  281.78601074    0.73000002    0.69000000
   16.51194382  303.52899170    0.73000002    0.69000000
   16.51333427  326.28900146    0.73000002    0.69000000
   16.51472282  305.69000244    0.73000002    0.69000000
   16.51611137  298.15701294    0.73000002    0.69000000
   16.51749992  280.50500488    0.73000002    0.69000000
   16.51888847  279.10400391    0.73000002    0.69000000
   16.52027702  270.12298584    0.73000002    0.69000000
   16.52166557  262.76800537    0.73000002    0.69000000
   16.52305603  258.00399780    0.73000002    0.69000000
   16.52444458  249.01400757    0.73000002    0.69000000
   16.52472115   -1.00000000    0.73000002    0.69000000
   16.52472115   -1.00000000    0.73000002    0.69000000
   16.52499962   -1.00000000    0.73000002    0.69000000
   16.52499962  167.14300537    0.73000002    0.69000000
   16.52499962  252.17100525    0.73000002    0.69000000
   16.52527809  124.72499847    0.73000002    0.69000000
   16.52527809  355.71099854    0.73000002    0.69000000
   16.52527809   86.05010223    0.73000002    0.69000000
   16.52555466   -1.00000000    0.73000002    0.69000000
   16.52611160  255.25000000    0.73000002    0.69000000
   16.52916718  271.19299316    0.73000002    0.69000000
   16.53249931  272.39401245    0.73000002    0.69000000
   16.53583336  233.44999695    0.73000002    0.69000000
   16.53888893  218.17500305    0.73000002    0.69000000
   16.54527664  218.17500305    0.73000002    0.69000000
   16.54944420  264.71200562    0.73000002    0.69000000
   16.55277634  213.37699890    0.73000002    0.69000000
   16.55611038  221.94799805    0.73000002    0.69000000
   16.55833244  191.03399658    0.73000002    0.69000000
   16.55972099  232.83500671    0.73000002    0.69000000
   16.56305504  211.56300354    0.73000002    0.69000000
   16.56638718  169.63299561    0.73000002    0.69000000
   16.56972313  203.63800049    0.73000002    0.69000000
   16.57277870  169.45100403    0.73000002    0.69000000
   16.57611275  346.96398926    0.73000002    0.69000000
   16.57805634  367.31698608    0.73000002    0.69000000
   16.57944489  275.51800537    0.73000002    0.69000000
   16.58083344  199.59300232    0.73000002    0.69000000
   16.58083344  211.56300354    0.73000002    0.69000000
   16.58083344  169.63299561    0.73000002    0.69000000
   16.58111191  203.63800049    0.73000002    0.69000000
   16.58111191  169.45100403    0.73000002    0.69000000
   16.58111191  346.96398926    0.73000002    0.69000000
   16.58139038  264.71200562    0.73000002    0.69000000
   16.58139038  213.37699890    0.73000002    0.69000000
   16.58139038  221.94799805    0.73000002    0.69000000
   16.58166695  232.83500671    0.73000002    0.69000000
   16.58222389  154.24200439    0.73000002    0.69000000
   16.58527756  114.08999634    0.73000002    0.69000000
   16.58861160   -1.00000000    0.73000002    0.69000000
   16.59194565  377.29998779    0.73000002    0.69000000
   16.59388924  284.60699463    0.73000002    0.69000000
   16.59527779  292.32199097    0.73000002    0.69000000
   16.59666824  453.26599121    0.73000002    0.69000000
   16.59805679  233.49899292    0.73000002    0.69000000
   16.59805679  154.24200439    0.73000002    0.69000000
   16.59805679  114.08999634    0.73000002    0.69000000
   16.59833336   -1.00000000    0.73000002    0.69000000
   16.59833336  377.29998779    0.73000002    0.69000000
   16.60250092  377.29998779    0.73000002    0.69000000
   16.60666656   -1.00000000    0.73000002    0.69000000
   16.61000061   -1.00000000    0.73000002    0.69000000
   16.61305618   -1.00000000    0.73000002    0.69000000
   16.61638832  107.51999664    0.73000002    0.69000000
   16.61972237  160.79400635    0.73000002    0.69000000
   16.62277794  278.83599854    0.73000002    0.69000000
   16.62611198  196.40699768    0.73000002    0.69000000
   16.62944412  152.29200745    0.73000002    0.69000000
   16.63194466  164.45199585    0.73000002    0.69000000
   16.63277817  145.07000732    0.73000002    0.69000000
   16.63611031  161.75199890    0.73000002    0.69000000
   16.63916588  158.59500122    0.73000002    0.69000000
   16.64527702  158.59500122    0.73000002    0.69000000
   16.64944458  142.46099854    0.73000002    0.69000000
   16.65277672  152.89700317    0.73000002    0.69000000
   16.65583229  147.35000610    0.73000002    0.69000000
   16.65916634  142.77499390    0.73000002    0.69000000
   16.66250038  142.02699280    0.73000002    0.69000000
   16.66527748  142.41099548    0.73000002    0.69000000
   16.66611099  146.78599548    0.73000002    0.69000000
   16.66944313  142.61700439    0.73000002    0.69000000
   16.67249870  130.16999817    0.73000002    0.69000000
   16.67583275  139.24499512    0.73000002    0.69000000
   16.67916679  141.90100098    0.73000002    0.69000000
   16.68222237  141.97300720    0.73000002    0.69000000
   16.68805504  141.97300720    0.73000002    0.69000000
   16.69222069  153.71699524    0.73000002    0.69000000
   16.69555473  144.80499268    0.73000002    0.69000000
   16.69861031  142.72300720    0.73000002    0.69000000
   16.69916534  150.16200256    0.73000002    0.69000000
   16.70250130  143.32099915    0.73000002    0.69000000
   16.70555687  142.36500549    0.73000002    0.69000000
   16.70888901  140.64199829    0.73000002    0.69000000
   16.71222305  144.28999329    0.73000002    0.69000000
   16.71527863  139.94000244    0.73000002    0.69000000
   16.71861076  139.89599609    0.73000002    0.69000000
   16.72194481  141.12699890    0.73000002    0.69000000
   16.72500038  133.97999573    0.73000002    0.69000000
   16.73111153  133.97999573    0.73000002    0.69000000
   16.73527718  142.66600037    0.73000002    0.69000000
   16.73833275  147.82400513    0.73000002    0.69000000
   16.74166679  150.54800415    0.73000002    0.69000000
   16.74472237  151.22099304    0.73000002    0.69000000
   16.74805641  145.77999878    0.73000002    0.69000000
   16.75138855  147.52000427    0.73000002    0.69000000
   16.75444412  146.97799683    0.73000002    0.69000000
   16.75777817  128.32600403    0.73000002    0.69000000
   16.76111031  156.15600586    0.73000002    0.69000000
   16.76416588  137.91099548    0.73000002    0.69000000
   16.76611137  135.89199829    0.73000002    0.69000000
   16.76805496  146.44200134    0.73000002    0.69000000
   16.77388954  146.44200134    0.73000002    0.69000000
   16.77805519  140.79899597    0.73000002    0.69000000
   16.78111076  146.92700195    0.73000002    0.69000000
   16.78444481  143.59800720    0.73000002    0.69000000
   16.78777695  146.59800720    0.73000002    0.69000000
   16.79083252  134.07000732    0.73000002    0.69000000
   16.79416656  149.29400635    0.73000002    0.69000000
   16.79749870  174.35000610    0.73000002    0.69000000
   16.79944420  149.78700256    0.73000002    0.69000000
   16.80111122  154.30700684    0.73000002    0.69000000
   16.80416679  158.45599365    0.73000002    0.69000000
   16.80749893  142.12899780    0.73000002    0.69000000
   16.81055450  151.88299561    0.73000002    0.69000000
   16.81666756  151.88299561    0.73000002    0.69000000
   16.82083511  151.42599487    0.73000002    0.69000000
   16.82416725  140.46699524    0.73000002    0.69000000
   16.82722282  134.28100586    0.73000002    0.69000000
   16.83055687  138.24400330    0.73000002    0.69000000
   16.83305550  149.96600342    0.73000002    0.69000000
   16.83416748  145.64300537    0.73000002    0.69000000
   16.83750153  128.98399353    0.73000002    0.69000000
   16.84083366  136.03199768    0.73000002    0.69000000
   16.84388924  146.76199341    0.73000002    0.69000000
   16.84722328  141.84100342    0.73000002    0.69000000
   16.85055542  150.40199280    0.73000002    0.69000000
   16.85361099  150.67999268    0.73000002    0.69000000
   16.85944557  150.67999268    0.73000002    0.69000000
   16.86361122  153.41000366    0.73000002    0.69000000
   16.86638832  144.32800293    0.73000002    0.69000000
   16.86722183  154.77299500    0.73000002    0.69000000
   16.87055588  146.24299622    0.73000002    0.69000000
   16.87388992  142.35000610    0.73000002    0.69000000
   16.87694550  147.41600037    0.73000002    0.69000000
   16.88027763  141.06399536    0.73000002    0.69000000
   16.88333321  147.16000366    0.73000002    0.69000000
   16.88666725  147.47999573    0.73000002    0.69000000
   16.88999939  151.80900574    0.73000002    0.69000000
   16.89305496  146.86199951    0.73000002    0.69000000
   16.89638901  135.47300720    0.73000002    0.69000000
   16.90250015  135.47300720    0.73000002    0.69000000
   16.90666580  146.35800171    0.73000002    0.69000000
   16.90972137  140.40400696    0.73000002    0.69000000
   16.91305542  147.80999756    0.73000002    0.69000000
   16.91611099  145.48199463    0.73000002    0.69000000
   16.91944313  138.16999817    0.73000002    0.69000000
   16.92277718  144.44400024    0.73000002    0.69000000
   16.92583275  146.84700012    0.73000002    0.69000000
   16.92916679  145.16499329    0.73000002    0.69000000
   16.93249893  145.30099487    0.73000002    0.69000000
   16.93333244  138.73399353    0.73000002    0.69000000
   16.93610954  143.33599854    0.73000002    0.69000000
   16.93916512  152.42900085    0.73000002    0.69000000
   16.94527626  152.42900085    0.73000002    0.69000000
   16.94944382  152.34399414    0.73000002    0.69000000
   16.95250130  149.65499878    0.73000002    0.69000000
   16.95583344  146.74299622    0.73000002    0.69000000
   16.95916748  151.26899719    0.73000002    0.69000000
   16.96222305  148.57099915    0.73000002    0.69000000
   16.96555710  144.04899597    0.73000002    0.69000000
   16.96666718  132.74400330    0.73000002    0.69000000
   16.96916771  141.96800232    0.73000002    0.69000000
   16.97222328  143.17799377    0.73000002    0.69000000
   16.97555542  143.86199951    0.73000002    0.69000000
   16.97861099  148.97700500    0.73000002    0.69000000
   16.98194504  147.54600525    0.73000002    0.69000000
   16.98805618  147.54600525    0.73000002    0.69000000
   16.99222183  146.83200073    0.73000002    0.69000000
   16.99555588  152.54200745    0.73000002    0.69000000
   16.99861145  155.42999268    0.73000002    0.69000000
   17.00027847  144.79499817    0.73000002    0.69000000
   17.00222206  137.55000305    0.73000002    0.69000000
   17.00555611  148.88800049    0.73000002    0.69000000
   17.00888824  147.91600037    0.73000002    0.69000000
   17.01194382  142.15199280    0.73000002    0.69000000
   17.01527786  154.04299927    0.73000002    0.69000000
   17.01861000  150.57699585    0.73000002    0.69000000
   17.02166557  153.60499573    0.73000002    0.69000000
   17.02499962  125.39199829    0.73000002    0.69000000
   17.03083229  125.39199829    0.73000002    0.69000000
   17.03499985  139.35299683    0.73000002    0.69000000
   17.03833199  140.49200439    0.73000002    0.69000000
   17.04166603  147.08200073    0.73000002    0.69000000
   17.04472160  140.92599487    0.73000002    0.69000000
   17.04805565  149.31100464    0.73000002    0.69000000
   17.05111122  142.92100525    0.73000002    0.69000000
   17.05444336  138.62399292    0.73000002    0.69000000
   17.05777740  148.67999268    0.73000002    0.69000000
   17.06083298  135.45199585    0.73000002    0.69000000
   17.06416512  137.41799927    0.73000002    0.69000000
   17.06694603  140.96800232    0.73000002    0.69000000
   17.06777954  131.49800110    0.73000002    0.69000000
   17.07389069  131.49800110    0.73000002    0.69000000
   17.07777786  143.84700012    0.73000002    0.69000000
   17.09749985  142.09700012    0.73000002    0.69000000
   17.10055542  142.42199707    0.73000002    0.69000000
   17.10111237  138.33399963    0.73000002    0.69000000
   17.10444450  145.41000366    0.73000002    0.69000000
   17.10750008  145.98399353    0.73000002    0.69000000
   17.11083412  145.31100464    0.73000002    0.69000000
   17.11694527  145.31100464    0.73000002    0.69000000
   17.12083435  144.62899780    0.73000002    0.69000000
   17.12416649  148.27600098    0.73000002    0.69000000
   17.12750053  168.95199585    0.73000002    0.69000000
   17.13055611  170.58799744    0.73000002    0.69000000
   17.13388824  140.24699402    0.73000002    0.69000000
   17.13416672  153.19299316    0.73000002    0.69000000
   17.13750076  162.65699768    0.73000002    0.69000000
   17.14055634  175.27099609    0.73000002    0.69000000
   17.14388847  197.81599426    0.73000002    0.69000000
   17.14722252  171.30299377    0.73000002    0.69000000
   17.15027809  182.50799561    0.73000002    0.69000000
   17.15361023  169.44999695    0.73000002    0.69000000
   17.15972137  169.44999695    0.73000002    0.69000000
   17.16388893  169.68600464    0.73000002    0.69000000
   17.16722107  160.27600098    0.73000002    0.69000000
   17.16749954  178.82699585    0.73000002    0.69000000
   17.17083359  175.03199768    0.73000002    0.69000000
   17.17388916  171.33900452    0.73000002    0.69000000
   17.17722130  162.69200134    0.73000002    0.69000000
   17.18055534  163.66900635    0.73000002    0.69000000
   17.18361092  163.00900269    0.73000002    0.69000000
   17.18694305  152.21499634    0.73000002    0.69000000
   17.19027710  179.90899658    0.73000002    0.69000000
   17.19333267  188.48800659    0.73000002    0.69000000
   17.19666672  184.63499451    0.73000002    0.69000000
   17.20250130  184.63499451    0.73000002    0.69000000
   17.20666695  193.75799561    0.73000002    0.69000000
   17.21000099  196.56799316    0.73000002    0.69000000
   17.21305656  205.15100098    0.73000002    0.69000000
   17.21638870  217.55999756    0.73000002    0.69000000
   17.21944427  207.22000122    0.73000002    0.69000000
   17.22277832  206.72999573    0.73000002    0.69000000
   17.22611237  215.34800720    0.73000002    0.69000000
   17.22916794  208.97200012    0.73000002    0.69000000
   17.23250008  211.02699280    0.73000002    0.69000000
   17.23388863  200.58599854    0.73000002    0.69000000
   17.23611069  190.88099670    0.73000002    0.69000000
   17.23944473  202.75900269    0.73000002    0.69000000
   17.24527740  202.75900269    0.73000002    0.69000000
   17.24944496  180.94900513    0.73000002    0.69000000
   17.25277710  193.53599548    0.73000002    0.69000000
   17.25583267  193.29200745    0.73000002    0.69000000
   17.25916672  179.39500427    0.73000002    0.69000000
   17.26250076  173.18699646    0.73000002    0.69000000
   17.26555634  193.60499573    0.73000002    0.69000000
   17.26722145  175.75100708    0.73000002    0.69000000
   17.26916695  195.88099670    0.73000002    0.69000000
   17.27249908  196.70300293    0.73000002    0.69000000
   17.27583313  186.74000549    0.73000002    0.69000000
   17.27888870  187.97399902    0.73000002    0.69000000
   17.28222275  179.24800110    0.73000002    0.69000000
   17.28833199  179.24800110    0.73000002    0.69000000
   17.29222107  172.29100037    0.73000002    0.69000000
   17.29555511  176.72900391    0.73000002    0.69000000
   17.29888916  158.89199829    0.73000002    0.69000000
   17.30055428  160.00199890    0.73000002    0.69000000
   17.30249977  172.24800110    0.73000002    0.69000000
   17.30583191  201.78999329    0.73000002    0.69000000
   17.30888748  162.24800110    0.73000002    0.69000000
   17.31222153  158.53700256    0.73000002    0.69000000
   17.31527710  166.38200378    0.73000002    0.69000000
   17.31861115  158.41600037    0.73000002    0.69000000
   17.32194519  144.14900208    0.73000002    0.69000000
   17.32500076  164.14399719    0.73000002    0.69000000
   17.33111191  164.14399719    0.73000002    0.69000000
   17.33527756  158.91499329    0.73000002    0.69000000
   17.33833313  151.67700195    0.73000002    0.69000000
   17.34166718  143.79200745    0.73000002    0.69000000
   17.34500122  150.81500244    0.73000002    0.69000000
   17.34805679  157.00300598    0.73000002    0.69000000
   17.35138893  149.03500366    0.73000002    0.69000000
   17.35472298  157.31599426    0.73000002    0.69000000
   17.35777855  142.42900085    0.73000002    0.69000000
   17.36111069  146.91299438    0.73000002    0.69000000
   17.36416626  153.49800110    0.73000002    0.69000000
   17.36722183  165.98599243    0.73000002    0.69000000
   17.36805534  151.23899841    0.73000002    0.69000000
   17.37388992  151.23899841    0.73000002    0.69000000
   17.37805557  141.77999878    0.73000002    0.69000000
   17.38138962  132.99099731    0.73000002    0.69000000
   17.38444519  148.67500305    0.73000002    0.69000000
   17.38777733  155.74800110    0.73000002    0.69000000
   17.39083290  149.69500732    0.73000002    0.69000000
   17.39416695  153.05099487    0.73000002    0.69000000
   17.39749908  164.76100159    0.73000002    0.69000000
   17.40055466  145.52999878    0.73000002    0.69000000
   17.40111160  154.04100037    0.73000002    0.69000000
   17.40444374  138.39500427    0.73000002    0.69000000
   17.40777779  143.81100464    0.73000002    0.69000000
   17.41083336  143.55799866    0.73000002    0.69000000
   17.41666603  143.55799866    0.73000002    0.69000000
   17.42083359  159.69500732    0.73000002    0.69000000
   17.42416573  133.89599609    0.73000002    0.69000000
   17.42722130  150.00399780    0.73000002    0.69000000
   17.43055534  157.55400085    0.73000002    0.69000000
   17.43388748  140.50000000    0.73000002    0.69000000
   17.43444443  150.82699585    0.73000002    0.69000000
   17.43750000  140.49200439    0.73000002    0.69000000
   17.44083214  160.13099670    0.73000002    0.69000000
   17.44388771  147.87899780    0.73000002    0.69000000
   17.44722176  155.88800049    0.73000002    0.69000000
   17.45055580  144.28599548    0.73000002    0.69000000
   17.45361137  173.60400391    0.73000002    0.69000000
   17.45972252  173.60400391    0.73000002    0.69000000
   17.46361160  154.07800293    0.73000002    0.69000000
   17.46694565  169.68299866    0.73000002    0.69000000
   17.46777916  167.71800232    0.73000002    0.69000000
   17.47055626  165.71800232    0.73000002    0.69000000
   17.47389030  156.35099792    0.73000002    0.69000000
   17.47722244  165.23599243    0.73000002    0.69000000
   17.48027802  176.28300476    0.73000002    0.69000000
   17.48361206  167.36300659    0.73000002    0.69000000
   17.48666763  182.72000122    0.73000002    0.69000000
   17.48999977  202.11999512    0.73000002    0.69000000
   17.49333382  225.43200684    0.73000002    0.69000000
   17.49638939  196.26100159    0.73000002    0.69000000
   17.50250053  196.26100159    0.73000002    0.69000000
   17.50666618  194.26499939    0.73000002    0.69000000
   17.50972176  190.01600647    0.73000002    0.69000000
   17.51305580  214.70700073    0.73000002    0.69000000
   17.51638794  192.82499695    0.73000002    0.69000000
   17.51944351  201.94400024    0.73000002    0.69000000
   17.52277756  187.43099976    0.73000002    0.69000000
   17.52611160  197.40499878    0.73000002    0.69000000
   17.52916718  197.44999695    0.73000002    0.69000000
   17.53249931  210.32200623    0.73000002    0.69000000
   17.53444481  193.36799622    0.73000002    0.69000000
   17.53610992  222.36199951    0.73000002    0.69000000
   17.53944397  177.72700500    0.73000002    0.69000000
   17.54527664  177.72700500    0.73000002    0.69000000
   17.54944420  212.95100403    0.73000002    0.69000000
   17.55277634  200.65299988    0.73000002    0.69000000
   17.55583191  211.05599976    0.73000002    0.69000000
   17.55916595  225.22300720    0.73000002    0.69000000
   17.56222153  204.79299927    0.73000002    0.69000000
   17.56555557  200.12800598    0.73000002    0.69000000
   17.56777954  187.68299866    0.73000002    0.69000000
   17.56916809  208.36900330    0.73000002    0.69000000
   17.57250023  203.50500488    0.73000002    0.69000000
   17.57583427  205.41000366    0.73000002    0.69000000
   17.57888985  175.09100342    0.73000002    0.69000000
   17.58222389  188.35000610    0.73000002    0.69000000
   17.58805656  188.35000610    0.73000002    0.69000000
   17.59222221  202.72700500    0.73000002    0.69000000
   17.59555626  180.94999695    0.73000002    0.69000000
   17.59861183  184.60000610    0.73000002    0.69000000
   17.60111237  169.12899780    0.73000002    0.69000000
   17.60222244  158.83099365    0.73000002    0.69000000
   17.60555649  175.63699341    0.73000002    0.69000000
   17.60888863  186.66499329    0.73000002    0.69000000
   17.61194420  166.10099792    0.73000002    0.69000000
   17.61527824  186.16099548    0.73000002    0.69000000
   17.61833382  184.69799805    0.73000002    0.69000000
   17.62166595  178.99099731    0.73000002    0.69000000
   17.62500000  177.48699951    0.73000002    0.69000000
   17.63111115  177.48699951    0.73000002    0.69000000
   17.63500023  164.40800476    0.73000002    0.69000000
   17.63833237  164.63900757    0.73000002    0.69000000
   17.64166641  156.97999573    0.73000002    0.69000000
   17.64472198  156.81300354    0.73000002    0.69000000
   17.64805603  174.51499939    0.73000002    0.69000000
   17.65138817  162.19400024    0.73000002    0.69000000
   17.65444374  160.36300659    0.73000002    0.69000000
   17.65777779  176.77600098    0.73000002    0.69000000
   17.66083336  181.87199402    0.73000002    0.69000000
   17.66416550  177.15299988    0.73000002    0.69000000
   17.66749954  186.14399719    0.73000002    0.69000000
   17.66805458  176.19299316    0.73000002    0.69000000
   17.67388916  176.19299316    0.73000002    0.69000000
   17.67805481  180.79400635    0.73000002    0.69000000
   17.68111038  184.36300659    0.73000002    0.69000000
   17.68444443  177.32299805    0.73000002    0.69000000
   17.68777657  176.57600403    0.73000002    0.69000000
   17.69083214  182.96499634    0.73000002    0.69000000
   17.69416618  180.81599426    0.73000002    0.69000000
   17.69722176  194.95399475    0.73000002    0.69000000
   17.70055580  165.00799561    0.73000002    0.69000000
   17.70138931  216.98599243    0.73000002    0.69000000
   17.70416832  221.74899292    0.73000002    0.69000000
   17.70750046  184.04200745    0.73000002    0.69000000
   17.71083450  193.24400330    0.73000002    0.69000000
   17.71666718  193.24400330    0.73000002    0.69000000
   17.72083473  173.44299316    0.73000002    0.69000000
   17.72416687  175.42999268    0.73000002    0.69000000
   17.72722244  164.77400208    0.73000002    0.69000000
   17.73055649  185.98100281    0.73000002    0.69000000
   17.73361206  160.15400696    0.73000002    0.69000000
   17.73472214  158.96299744    0.73000002    0.69000000
   17.73722267  174.98899841    0.73000002    0.69000000
   17.74055672  176.11799622    0.73000002    0.69000000
   17.74388885  164.17199707    0.73000002    0.69000000
   17.74694443  118.08999634    0.73000002    0.69000000
   17.75027847  119.58899689    0.73000002    0.69000000
   17.75333405  168.53700256    0.73000002    0.69000000
   17.75944519  168.53700256    0.73000002    0.69000000
   17.76361084  168.13299561    0.73000002    0.69000000
   17.76694489  174.43699646    0.73000002    0.69000000
   17.76805496  183.55200195    0.73000002    0.69000000
   17.77055550  155.72399902    0.73000002    0.69000000
   17.77388954  178.13800049    0.73000002    0.69000000
   17.77722168  165.12800598    0.73000002    0.69000000
   17.78027725  180.17199707    0.73000002    0.69000000
   17.78361130  161.66099548    0.73000002    0.69000000
   17.78666687  172.32600403    0.73000002    0.69000000
   17.78999901  174.35400391    0.73000002    0.69000000
   17.79333305  186.81500244    0.73000002    0.69000000
   17.79638863  168.72500610    0.73000002    0.69000000
   17.80249977  168.72500610    0.73000002    0.69000000
   17.80638885  199.14300537    0.73000002    0.69000000
   17.80972099  191.51100159    0.73000002    0.69000000
   17.81305504  191.78900146    0.73000002    0.69000000
   17.81611061  213.69999695    0.73000002    0.69000000
   17.81944466  221.91799927    0.73000002    0.69000000
   17.82250023  213.30400085    0.73000002    0.69000000
   17.82583427  224.64100647    0.73000002    0.69000000
   17.82916832  253.16099548    0.73000002    0.69000000
   17.83222389  286.65701294    0.73000002    0.69000000
   17.83472252  315.68099976    0.73000002    0.69000000
   17.83583450  355.85501099    0.73000002    0.69000000
   17.83805656  384.45599365    0.73000002    0.69000000
   17.83916664  391.87298584    0.73000002    0.69000000
   17.84055710  442.07199097    0.73000002    0.69000000
   17.84194565  456.73300171    0.73000002    0.69000000
   17.84333420  502.87701416    0.73000002    0.69000000
   17.84472275  536.42102051    0.73000002    0.69000000
   17.84611130  516.67297363    0.73000002    0.69000000
   17.84749985  444.88598633    0.73000002    0.69000000
   17.84889030  309.29598999    0.73000002    0.69000000
   17.85027885  174.71699524    0.73000002    0.69000000
   17.85055542  213.69999695    0.73000002    0.69000000
   17.85055542  221.91799927    0.73000002    0.69000000
   17.85055542  213.30400085    0.73000002    0.69000000
   17.85083389  224.64100647    0.73000002    0.69000000
   17.85083389  253.16099548    0.73000002    0.69000000
   17.85083389  286.65701294    0.73000002    0.69000000
   17.85111237  355.85501099    0.73000002    0.69000000
   17.85111237  191.51100159    0.73000002    0.69000000
   17.85111237  191.78900146    0.73000002    0.69000000
   17.85166740  121.00800323    0.73000002    0.69000000
   17.85499954  104.33399963    0.73000002    0.69000000
   17.85833359  103.07299805    0.73000002    0.69000000
   17.86138916  103.01899719    0.73000002    0.69000000
   17.86472321   79.94329834    0.73000002    0.69000000
   17.87111092   79.94329834    0.73000002    0.69000000
   17.87527847   -1.00000000    0.73000002    0.69000000
   17.87861061   -1.00000000    0.73000002    0.69000000
   17.88166618   -1.00000000    0.73000002    0.69000000
   17.88555527   -1.00000000    0.73000002    0.69000000
   17.88861084   -1.00000000    0.73000002    0.69000000
   17.89194489   -1.00000000    0.73000002    0.69000000
   17.89500046   -1.00000000    0.73000002    0.69000000
   17.89833260   -1.00000000    0.73000002    0.69000000
   17.90166664   -1.00000000    0.73000002    0.69000000
   17.90472221   -1.00000000    0.73000002    0.69000000
   17.90805435   -1.00000000    0.73000002    0.69000000
   17.91805458   -1.00000000    0.73000002    0.69000000
   17.92138863   -1.00000000    0.73000002    0.69000000
   17.92444420   -1.00000000    0.73000002    0.69000000
   17.92777634   -1.00000000    0.73000002    0.69000000
   17.93111038   -1.00000000    0.73000002    0.69000000
   17.93416595   -1.00000000    0.73000002    0.69000000
   17.93750000   -1.00000000    0.73000002    0.69000000
   17.94055557   -1.00000000    0.73000002    0.69000000
   17.94388771   -1.00000000    0.73000002    0.69000000
   17.94722176   -1.00000000    0.73000002    0.69000000
   17.95027924   -1.00000000    0.73000002    0.69000000
   17.96083450   -1.00000000    0.73000002    0.69000000
   17.96416664   -1.00000000    0.73000002    0.69000000
   17.96750069   -1.00000000    0.73000002    0.69000000
   17.97055626   -1.00000000    0.73000002    0.69000000
   17.97389030   -1.00000000    0.73000002    0.69000000
   17.97694588   -1.00000000    0.73000002    0.69000000
   17.98027802   -1.00000000    0.73000002    0.69000000
   17.98361206   -1.00000000    0.73000002    0.69000000
   17.98722267   -1.00000000    0.73000002    0.69000000
   17.99027824   -1.00000000    0.73000002    0.69000000
   17.99361229   -1.00000000    0.73000002    0.69000000
   18.00388908   -1.00000000    0.73000002    0.69000000
   18.00694466   -1.00000000    0.73000002    0.69000000
   18.01027870   -1.00000000    0.73000002    0.69000000
   18.01333427   -1.00000000    0.73000002    0.69000000
   18.01666641   -1.00000000    0.73000002    0.69000000
   18.02027702   -1.00000000    0.73000002    0.69000000
   18.02333260   -1.00000000    0.73000002    0.69000000
   18.02666664   -1.00000000    0.73000002    0.69000000
   18.02972221   -1.00000000    0.73000002    0.69000000
   18.03305435   -1.00000000    0.73000002    0.69000000
   18.03638840   -1.00000000    0.73000002    0.69000000
   18.04666710   -1.00000000    0.73000002    0.69000000
   18.04972076   -1.00000000    0.73000002    0.69000000
   18.05360985   -1.00000000    0.73000002    0.69000000
   18.05666542   -1.00000000    0.73000002    0.69000000
   18.05999947   -1.00000000    0.73000002    0.69000000
   18.06333351   -1.00000000    0.73000002    0.69000000
   18.06638718   -1.00000000    0.73000002    0.69000000
   18.06972313   -1.00000000    0.73000002    0.69000000
   18.07277870   -1.00000000    0.73000002    0.69000000
   18.07611275   -1.00000000    0.73000002    0.69000000
   18.07944489   -1.00000000    0.73000002    0.69000000
   18.08944511   -1.00000000    0.73000002    0.69000000
   18.09277916   -1.00000000    0.73000002    0.69000000
   18.09583473   -1.00000000    0.73000002    0.69000000
   18.11527824   -1.00000000    0.73000002    0.69000000
   18.11916733   -1.00000000    0.73000002    0.69000000
   18.12222290   -1.00000000    0.73000002    0.69000000
   18.13249969   -1.00000000    0.73000002    0.69000000
   18.13583374   -1.00000000    0.73000002    0.69000000
   18.13888931   -1.00000000    0.73000002    0.69000000
   18.14222145   -1.00000000    0.73000002    0.69000000
   18.14527702   -1.00000000    0.73000002    0.69000000
   18.14861107   -1.00000000    0.73000002    0.69000000
   18.15222168   -1.00000000    0.73000002    0.69000000
   18.15527725   -1.00000000    0.73000002    0.69000000
   18.15861130   -1.00000000    0.73000002    0.69000000
   18.16166687   -1.00000000    0.73000002    0.69000000
   18.16499901   -1.00000000    0.73000002    0.69000000
   18.17527771   -1.00000000    0.73000002    0.69000000
   18.17860985   -1.00000000    0.73000002    0.69000000
   18.18166542   -1.00000000    0.73000002    0.69000000
   18.18555450   -1.00000000    0.73000002    0.69000000
   18.18861008   -1.00000000    0.73000002    0.69000000
   18.19194412   -1.00000000    0.73000002    0.69000000
   18.19499969   -1.00000000    0.73000002    0.69000000
   18.19833183   -1.00000000    0.73000002    0.69000000
   18.20166779   -1.00000000    0.73000002    0.69000000
   18.20472336   -1.00000000    0.73000002    0.69000000
   18.20805550   -1.00000000    0.73000002    0.69000000
   18.21805573   -1.00000000    0.73000002    0.69000000
   18.22138977   -1.00000000    0.73000002    0.69000000
   18.22472191   -1.00000000    0.73000002    0.69000000
   18.22777748   -1.00000000    0.73000002    0.69000000
   18.23111153  186.35000610    0.73000002    0.69000000
   18.23444557  196.44700623    0.73000002    0.69000000
   18.23750114   -1.00000000    0.73000002    0.69000000
   18.24083328   -1.00000000    0.73000002    0.69000000
   18.24388885   -1.00000000    0.73000002    0.69000000
   18.24722290   -1.00000000    0.73000002    0.69000000
   18.25055504   -1.00000000    0.73000002    0.69000000
   18.26111031   -1.00000000    0.73000002    0.69000000
   18.26416588   -1.00000000    0.73000002    0.69000000
   18.26749992   -1.00000000    0.73000002    0.69000000
   18.27055550   -1.00000000    0.73000002    0.69000000
   18.27388954   -1.00000000    0.73000002    0.69000000
   18.27722168  193.75300598    0.73000002    0.69000000
   18.28027725   -1.00000000    0.73000002    0.69000000
   18.28361130   -1.00000000    0.73000002    0.69000000
   18.28722191   -1.00000000    0.73000002    0.69000000
   18.29027748   -1.00000000    0.73000002    0.69000000
   18.29361153   -1.00000000    0.73000002    0.69000000
   18.30388832   -1.00000000    0.73000002    0.69000000
   18.30694389   -1.00000000    0.73000002    0.69000000
   18.31027794  185.44299316    0.73000002    0.69000000
   18.31361008   -1.00000000    0.73000002    0.69000000
   18.31666756   -1.00000000    0.73000002    0.69000000
   18.32027817   -1.00000000    0.73000002    0.69000000
   18.32333374   -1.00000000    0.73000002    0.69000000
   18.32666779   -1.00000000    0.73000002    0.69000000
   18.33000183   -1.00000000    0.73000002    0.69000000
   18.33305550   -1.00000000    0.73000002    0.69000000
   18.33638954   -1.00000000    0.73000002    0.69000000
   18.34666824   -1.00000000    0.73000002    0.69000000
   18.35000038   -1.00000000    0.73000002    0.69000000
   18.35361099  219.84599304    0.73000002    0.69000000
   18.35666656  244.22599792    0.73000002    0.69000000
   18.36000061   -1.00000000    0.73000002    0.69000000
   18.36333466   -1.00000000    0.73000002    0.69000000
   18.36638832   -1.00000000    0.73000002    0.69000000
   18.36972237   -1.00000000    0.73000002    0.69000000
   18.37277794   -1.00000000    0.73000002    0.69000000
   18.37611198   -1.00000000    0.73000002    0.69000000
   18.37944412   -1.00000000    0.73000002    0.69000000
   18.38944435   -1.00000000    0.73000002    0.69000000
   18.39277840   -1.00000000    0.73000002    0.69000000
   18.39611053   -1.00000000    0.73000002    0.69000000
   18.39916611   87.07219696    0.73000002    0.69000000
   18.40250015   -1.00000000    0.73000002    0.69000000
   18.40583229   -1.00000000    0.73000002    0.69000000
   18.40888786   -1.00000000    0.73000002    0.69000000
   18.41222191   -1.00000000    0.73000002    0.69000000
   18.41527748   -1.00000000    0.73000002    0.69000000
   18.41916656   -1.00000000    0.73000002    0.69000000
   18.42222214   -1.00000000    0.73000002    0.69000000
   18.43249893   -1.00000000    0.73000002    0.69000000
   18.43555450   -1.00000000    0.73000002    0.69000000
   18.43888855   -1.00000000    0.73000002    0.69000000
   18.44222069   -1.00000000    0.73000002    0.69000000
   18.44527626   -1.00000000    0.73000002    0.69000000
   18.44861031   -1.00000000    0.73000002    0.69000000
   18.45222282   -1.00000000    0.73000002    0.69000000
   18.45527840   -1.00000000    0.73000002    0.69000000
   18.45861244   -1.00000000    0.73000002    0.69000000
   18.46194458   -1.00000000    0.73000002    0.69000000
   18.46500015   -1.00000000    0.73000002    0.69000000
   18.47527885   -1.00000000    0.73000002    0.69000000
   18.47861099   -1.00000000    0.73000002    0.69000000
   18.48166656   -1.00000000    0.73000002    0.69000000
   18.48527718   -1.00000000    0.73000002    0.69000000
   18.48833275   -1.00000000    0.73000002    0.69000000
   18.49166679   -1.00000000    0.73000002    0.69000000
   18.49500084   -1.00000000    0.73000002    0.69000000
   18.49805641   -1.00000000    0.73000002    0.69000000
   18.50138855   -1.00000000    0.73000002    0.69000000
   18.50444412   -1.00000000    0.73000002    0.69000000
   18.50777817  182.93099976    0.73000002    0.69000000
   18.51805496   -1.00000000    0.73000002    0.69000000
   18.52138901   -1.00000000    0.73000002    0.69000000
   18.52444458   -1.00000000    0.73000002    0.69000000
   18.52777672   -1.00000000    0.73000002    0.69000000
   18.53111076   -1.00000000    0.73000002    0.69000000
   18.53416634   -1.00000000    0.73000002    0.69000000
   18.53750038   -1.00000000    0.73000002    0.69000000
   18.54083252   -1.00000000    0.73000002    0.69000000
   18.54388809   -1.00000000    0.73000002    0.69000000
   18.54722214   -1.00000000    0.73000002    0.69000000
   18.55027771   -1.00000000    0.73000002    0.69000000
   18.56083298   -1.00000000    0.73000002    0.69000000
   18.56416512   -1.00000000    0.73000002    0.69000000
   18.56750107   -1.00000000    0.73000002    0.69000000
   18.57055664   -1.00000000    0.73000002    0.69000000
   18.57389069   -1.00000000    0.73000002    0.69000000
   18.57722282   -1.00000000    0.73000002    0.69000000
   18.58027840   -1.00000000    0.73000002    0.69000000
   18.58361244   -1.00000000    0.73000002    0.69000000
   18.58722305   -1.00000000    0.73000002    0.69000000
   18.59027863   -1.00000000    0.73000002    0.69000000
   18.59361267   -1.00000000    0.73000002    0.69000000
   18.60388947   -1.00000000    0.73000002    0.69000000
   18.60694504   -1.00000000    0.73000002    0.69000000
   18.61027908   -1.00000000    0.73000002    0.69000000
   18.61333466   -1.00000000    0.73000002    0.69000000
   18.61666679   -1.00000000    0.73000002    0.69000000
   18.62027740   -1.00000000    0.73000002    0.69000000
   18.62333298   -1.00000000    0.73000002    0.69000000
   18.62666702   -1.00000000    0.73000002    0.69000000
   18.63000107   -1.00000000    0.73000002    0.69000000
   18.63305473   -1.00000000    0.73000002    0.69000000
   18.63638878   -1.00000000    0.73000002    0.69000000
   18.64666748   -1.00000000    0.73000002    0.69000000
   18.64972115   -1.00000000    0.73000002    0.69000000
   18.65333366   -1.00000000    0.73000002    0.69000000
   18.65638924   -1.00000000    0.73000002    0.69000000
   18.65972137   -1.00000000    0.73000002    0.69000000
   18.66305542   -1.00000000    0.73000002    0.69000000
   18.66611099   -1.00000000    0.73000002    0.69000000
   18.66944313   -1.00000000    0.73000002    0.69000000
   18.67277718   -1.00000000    0.73000002    0.69000000
   18.67583275   -1.00000000    0.73000002    0.69000000
   18.67916679   -1.00000000    0.73000002    0.69000000
   18.68944359   -1.00000000    0.73000002    0.69000000
   18.69277763   -1.00000000    0.73000002    0.69000000
   18.69583321   -1.00000000    0.73000002    0.69000000
   18.69916534   -1.00000000    0.73000002    0.69000000
   18.70250130   -1.00000000    0.73000002    0.69000000
   18.70555687   -1.00000000    0.73000002    0.69000000
   18.70888901   -1.00000000    0.73000002    0.69000000
   18.71194458   -1.00000000    0.73000002    0.69000000
   18.71527863   -1.00000000    0.73000002    0.69000000
   18.71888924   -1.00000000    0.73000002    0.69000000
   18.72194481   -1.00000000    0.73000002    0.69000000
   18.73222351   -1.00000000    0.73000002    0.69000000
   18.73555565   -1.00000000    0.73000002    0.69000000
   18.73888969   -1.00000000    0.73000002    0.69000000
   18.74194527   -1.00000000    0.73000002    0.69000000
   18.74527740   -1.00000000    0.73000002    0.69000000
   18.74833298   -1.00000000    0.73000002    0.69000000
   18.75194359   -1.00000000    0.73000002    0.69000000
   18.75499916   -1.00000000    0.73000002    0.69000000
   18.75833321   -1.00000000    0.73000002    0.69000000
   18.76166725   -1.00000000    0.73000002    0.69000000
   18.76472282   -1.00000000    0.73000002    0.69000000
   18.77499962   -1.00000000    0.73000002    0.69000000
   18.77833366   -1.00000000    0.73000002    0.69000000
   18.78166580   -1.00000000    0.73000002    0.69000000
   18.78527641   -1.00000000    0.73000002    0.69000000
   18.78833199   -1.00000000    0.73000002    0.69000000
   18.79166603   -1.00000000    0.73000002    0.69000000
   18.79500008   -1.00000000    0.73000002    0.69000000
   18.79805565   -1.00000000    0.73000002    0.69000000
   18.80138779   -1.00000000    0.73000002    0.69000000
   18.80444336   -1.00000000    0.73000002    0.69000000
   18.80777740   -1.00000000    0.73000002    0.69000000
   18.81805611   -1.00000000    0.73000002    0.69000000
   18.82111168   -1.00000000    0.73000002    0.69000000
   18.82444572   -1.00000000    0.73000002    0.69000000
   18.82777786   -1.00000000    0.73000002    0.69000000
   18.83083344   -1.00000000    0.73000002    0.69000000
   18.83416748   -1.00000000    0.73000002    0.69000000
   18.83750153   -1.00000000    0.73000002    0.69000000
   18.84055710   -1.00000000    0.73000002    0.69000000
   18.84388924   -1.00000000    0.73000002    0.69000000
   18.84694481   -1.00000000    0.73000002    0.69000000
   18.85027885   -1.00000000    0.73000002    0.69000000
   18.86083412   -1.00000000    0.73000002    0.69000000
   18.86416626   -1.00000000    0.73000002    0.69000000
   18.86722183   -1.00000000    0.73000002    0.69000000
   18.87055588   -1.00000000    0.73000002    0.69000000
   18.87388992   -1.00000000    0.73000002    0.69000000
   18.87694550   -1.00000000    0.73000002    0.69000000
   18.88027763   -1.00000000    0.73000002    0.69000000
   18.88333321   -1.00000000    0.73000002    0.69000000
   18.88694382   -1.00000000    0.73000002    0.69000000
   18.88999939   -1.00000000    0.73000002    0.69000000
   18.89333344   -1.00000000    0.73000002    0.69000000
   18.91305542  159.21699524    0.73000002    0.69000000
   18.91611099  155.92900085    0.73000002    0.69000000
   18.91805458  150.95399475    0.73000002    0.69000000
   18.92000008  155.47399902    0.73000002    0.69000000
   18.92305565  141.59899902    0.73000002    0.69000000
   18.92638779  151.57299805    0.73000002    0.69000000
   18.93055534  151.57299805    0.73000002    0.69000000
   18.93472099  155.87600708    0.73000002    0.69000000
   18.93777657  144.74200439    0.73000002    0.69000000
   18.94111061  142.31300354    0.73000002    0.69000000
   18.94444275  148.60000610    0.73000002    0.69000000
   18.94749832  154.38000488    0.73000002    0.69000000
   18.95083427  151.89399719    0.73000002    0.69000000
   18.95138931  142.79299927    0.73000002    0.69000000
   18.95444489  151.93499756    0.73000002    0.69000000
   18.95750046  149.08999634    0.73000002    0.69000000
   18.96083450  135.86199951    0.73000002    0.69000000
   18.96416664  144.17700195    0.73000002    0.69000000
   18.96722221  157.09100342    0.73000002    0.69000000
   18.97333336  157.09100342    0.73000002    0.69000000
   18.97750092  159.30200195    0.73000002    0.69000000
   18.98055649  165.25900269    0.73000002    0.69000000
   18.98388863  150.00199890    0.73000002    0.69000000
   18.98472214  156.31900024    0.73000002    0.69000000
   18.98750114  155.98199463    0.73000002    0.69000000
   18.99055672  158.43600464    0.73000002    0.69000000
   18.99388885  165.95899963    0.73000002    0.69000000
   18.99694443  151.07299805    0.73000002    0.69000000
   19.00027847  151.97000122    0.73000002    0.69000000
   19.00361061  156.73500061    0.73000002    0.69000000
   19.00666618  162.49000549    1.07000005    2.71000004
   19.01000023  149.40299988    1.07000005    2.73000002
   19.01611137  149.40299988    1.09000003    2.71000004
   19.02027702  134.27999878    1.09000003    2.71000004
   19.02361107  146.16799927    1.09000003    2.71000004
   19.02666664  139.17700195    1.14999998    2.75000000
   19.03000069  158.12899780    1.13000000    2.71000004
   19.03333282  147.51699829    1.13000000    2.73000002
   19.03638840  157.89300537    1.11000001    2.73000002
   19.03972244  162.17500305    1.11000001    2.71000004
   19.04277802  151.12800598    1.13000000    2.71000004
   19.04611015  159.26899719    1.13000000    2.73000002
   19.04944420  148.38400269    1.13000000    2.71000004
   19.05138779  148.33200073    1.13000000    2.71000004
   19.05305481  155.84399414    1.13000000    2.71000004
   19.05888748  155.84399414    1.13000000    2.71000004
   19.06305504  152.95399475    1.14999998    2.71000004
   19.06638718  156.41700745    1.14999998    2.73000002
   19.06972313  158.77499390    1.14999998    2.71000004
   19.07277870  156.78500366    1.14999998    2.67000008
   19.07611275  151.33700562    1.13000000    2.59999990
   19.07916832  157.25700378    1.14999998    2.50000000
   19.08250046  151.42500305    1.14999998    2.36999989
   19.08472252  153.27900696    1.14999998    2.25000000
   19.08611107  146.81300354    1.14999998    2.19000006
   19.08916664  150.21899414    1.16999996    1.98000002
   19.09250069  156.16299438    1.16999996    1.76999998
   19.09583473  160.30900574    1.16999996    1.55999994
   19.10194397  160.30900574    1.16999996    1.13000000
   19.10611153  153.02299500    1.19000006    0.86000001
   19.10916710  152.63999939    1.19000006    0.70999998
   19.11250114  160.87500000    1.19000006    0.52999997
   19.11583328  163.02200317    1.19000006    0.51999998
   19.11805534  140.97500610    1.19000006    0.51999998
   19.11944389  144.51499939    1.19000006    0.51999998
   19.12277794  142.86700439    1.19000006    0.47999999
   19.12583351  152.33299255    1.16999996    0.36000001
   19.12916756  150.53399658    1.16999996    0.36000001
   19.13222313  151.10899353    1.16999996    0.36000001
   19.13555527  154.11399841    1.16999996    0.36000001
   19.13888931  155.61900330    1.16999996    0.36000001
   19.14472198  155.61900330    1.16999996    0.36000001
   19.14888954  157.29800415    1.16999996    0.36000001
   19.15138817  157.94000244    1.14999998    0.05000000
   19.15250015  146.63400269    0.28000000    0.69000000
   19.15555573  149.29200745    0.17000000    0.46000001
   19.15888786  150.18099976    0.17000000    0.46000001
   19.16222191  155.12300110    0.17000000    0.46000001
   19.16527748  149.09700012    0.17000000    0.46000001
   19.16860962  154.10200500    0.17000000    0.46000001
   19.17194366  161.07099915    0.17000000    0.46000001
   19.17499924  161.67900085    0.17000000    0.46000001
   19.17833328  149.48699951    0.17000000    0.46000001
   19.18138885  157.42599487    0.17000000    0.46000001
   19.18750000  157.42599487    0.17000000    0.46000001
   19.19166565  147.66200256    0.17000000    0.46000001
   19.19499969  149.81300354    0.17000000    0.46000001
   19.19805527  156.53900146    0.17000000    0.46000001
   19.20138931  151.91299438    0.17000000    0.46000001
   19.20472336  147.86000061    0.17000000    0.46000001
   19.20777893  150.39999390    0.17000000    0.46000001
   19.21111107  155.48300171    0.17000000    0.46000001
   19.21416664  153.96000671    0.17000000    0.46000001
   19.21750069  150.69299316    0.17000000    0.46000001
   19.21861076  152.80499268    0.17000000    0.46000001
   19.22111130  136.03900146    0.17000000    0.46000001
   19.22444534  154.61199951    0.17000000    0.46000001
   19.23055649  154.61199951    0.17000000    0.46000001
   19.23444557  153.43699646    0.17000000    0.46000001
   19.23777771  152.83399963    0.17000000    0.46000001
   19.24111176  155.50999451    0.17000000    0.46000001
   19.24416733  148.42399597    0.17000000    0.46000001
   19.24749947  147.65499878    0.17000000    0.46000001
   19.25055504  153.53100586    0.17000000    0.46000001
   19.25194359  153.11099243    0.17000000    0.46000001
   19.25416756  156.83999634    0.17000000    0.46000001
   19.25749969  146.02200317    0.17000000    0.46000001
   19.26055527  157.02200317    0.17000000    0.46000001
   19.26388931  149.17199707    0.17000000    0.46000001
   19.26722145  154.40499878    0.17000000    0.46000001
   19.27333260  154.40499878    0.17000000    0.46000001
   19.27750015  156.79299927    0.17000000    0.46000001
   19.28055573  150.71000671    0.17000000    0.46000001
   19.28388786  152.78999329    0.17000000    0.46000001
   19.28527641  156.60299683    0.17000000    0.46000001
   19.28750038  155.65899658    0.17000000    0.46000001
   19.29055595  155.14199829    0.17000000    0.46000001
   19.29388809  157.83700562    0.17000000    0.46000001
   19.29722214  143.42599487    0.17000000    0.46000001
   19.30027771  147.96400452    0.17000000    0.46000001
   19.30360985  144.39999390    0.17000000    0.46000001
   19.30694389  145.84599304    0.17000000    0.46000001
   19.30999947  163.76400757    0.17000000    0.46000001
   19.31611061  163.76400757    0.17000000    0.46000001
   19.32027817  154.44299316    0.17000000    0.46000001
   19.32333374  152.98399353    0.17000000    0.46000001
   19.32666779  154.02600098    0.17000000    0.46000001
   19.33000183  151.41900635    0.17000000    0.46000001
   19.33305550  153.17100525    0.17000000    0.46000001
   19.33638954  157.35200500    0.17000000    0.46000001
   19.33972359  148.22200012    0.17000000    0.46000001
   19.34277916  153.87800598    0.17000000    0.46000001
   19.34611130  147.13499451    0.17000000    0.46000001
   19.34916687  145.64399719    0.17000000    0.46000001
   19.35194397  155.47700500    0.17000000    0.46000001
   19.35305595  149.54600525    0.17000000    0.46000001
   19.35916710  149.54600525    0.17000000    0.46000001
   19.36333466  154.81700134    0.17000000    0.46000001
   19.36666679  155.15899658    0.17000000    0.46000001
   19.37000084  164.06100464    0.17000000    0.46000001
   19.37305641  153.79499817    0.17000000    0.46000001
   19.37638855  159.79299927    0.17000000    0.46000001
   19.37944412  158.94500732    0.17000000    0.46000001
   19.38277817  155.66600037    0.17000000    0.46000001
   19.38527679  148.18299866    0.17000000    0.41999999
   19.38638878  159.82800293    0.50000000    2.94000006
   19.38972282  151.68899536    4.53999996    2.84999990
   19.39277840  152.34199524    4.57999992    2.82999992
   19.39611053  157.05099487    4.59999990    2.82999992
   19.40166664  157.05099487    4.59999990    2.82999992
   19.40583229  165.41700745    4.59999990    2.84999990
   19.40916634  148.96699524    4.51000023    2.84999990
   19.41250038  156.03700256    4.51000023    2.84999990
   19.41555595  157.89399719    4.51000023    2.84999990
   19.41860962  154.72399902    4.46999979    2.82999992
   19.41944313  157.45799255    4.46999979    2.82999992
   19.42277718  159.30499268    4.51000023    2.82999992
   19.42583275  159.70500183    4.51000023    2.82999992
   19.42916679  149.46400452    4.53000021    2.82999992
   19.43222237  152.92900085    4.51000023    2.82999992
   19.43555450  162.22099304    4.51000023    2.82999992
   19.43888855  150.34800720    4.53000021    2.82999992
   19.44472122  150.34800720    4.73999977    2.82999992
   19.44888878  254.97000122    4.63999987    2.76999998
   19.45194435  285.34899902    3.76999998    1.41999996
   19.45250130  139.14199829    3.76999998    1.41999996
   19.45583344  154.22599792    4.90999985    2.59999990
   19.45888901  160.12899780    4.90999985    2.80999994
   19.46222305  147.72399902    4.63999987    2.82999992
   19.46527863  152.09399414    4.55999994    2.82999992
   19.46861076  157.04100037    4.53999996    2.82999992
   19.47194481  167.18899536    4.55999994    2.80999994
   19.47500038  159.15699768    4.53999996    2.80999994
   19.47833443  155.43499756    4.55999994    2.80999994
   19.48166656  168.80299377    4.55999994    2.80999994
   19.48750114  168.80299377    4.59999990    2.82999992
   19.49166679  155.01699829    4.59999990    2.82999992
   19.49472237  153.77799988    4.57999992    2.82999992
   19.49805641  158.20300293    4.59999990    2.82999992
   19.50138855  155.78399658    4.63999987    2.82999992
   19.50472260  155.69200134    4.63999987    2.82999992
   19.50777817  153.92100525    4.63999987    2.82999992
   19.51111031  145.24899292    4.61999989    2.82999992
   19.51416588  157.50100708    4.63999987    2.82999992
   19.51749992  150.44599915    4.67999983    2.82999992
   19.51861000  157.66000366    4.67999983    2.82999992
   19.52111053  156.55200195    4.67999983    2.82999992
   19.52444458  149.21200562    4.67999983    2.82999992
   19.53027725  149.21200562    4.63999987    2.82999992
   19.53444481  191.01899719    4.59999990    2.82999992
   19.53777695  155.41200256    4.65999985    2.82999992
   19.54083252  155.56700134    4.67999983    2.82999992
   19.54416656  155.35800171    4.67999983    2.82999992
   19.54749870  153.08799744    4.63999987    2.80999994
   19.55055428  145.31799316    4.67999983    2.82999992
   19.55194283  158.27900696    4.67999983    2.82999992
   19.55416679  157.79800415    4.67999983    2.82999992
   19.55749893  162.06799316    4.73999977    2.80999994
   19.56055450  159.98100281    4.73999977    2.82999992
   19.56388855  154.96099854    4.69999981    2.80999994
   19.56722260  161.83599854    4.69999981    2.82999992
   19.57305717  161.83599854    4.76000023    2.82999992
   19.57722282  155.73399353    4.78000021    2.82999992
   19.58055687  155.09800720    4.76000023    2.82999992
   19.58388901  153.96699524    4.76000023    2.82999992
   19.58555603  161.50900269    4.80000019    2.82999992
   19.58750153  171.57200623    4.76000023    2.82999992
   19.59055710  164.72500610    4.76000023    2.82999992
   19.59388924  200.24899292    4.78000021    2.82999992
   19.59722328  180.50000000    4.76000023    2.82999992
   19.60027885  177.50100708    4.76000023    2.80999994
   19.60361099  156.71499634    4.76000023    2.82999992
   19.60694504  142.40499878    4.78000021    2.80999994
   19.61000061  160.94999695    4.80999994    2.80999994
   19.61611176  160.94999695    4.80000019    2.82999992
   19.62027740  151.36099243    4.80000019    2.80999994
   19.62333298  142.83599854    4.80000019    2.82999992
   19.62666702  183.79800415    4.78000021    2.82999992
   19.62972260  226.11399841    4.82999992    2.80999994
   19.63305473  232.91700745    4.82999992    2.82999992
   19.63638878  203.58900452    4.82999992    2.80999994
   19.63944435  201.30900574    4.80999994    2.80999994
   19.64277840  183.20799255    4.82999992    2.82999992
   19.64611053  212.32699585    4.82999992    2.82999992
   19.64916611  226.87800598    4.82999992    2.82999992
   19.65222168  203.85200500    4.82999992    2.82999992
   19.65305519  170.37800598    4.82999992    2.82999992
   19.65888786  170.37800598    4.84999990    2.82999992
   19.66305542  176.11900330    4.86999989    2.80999994
   19.66611099  177.02600098    4.84999990    2.80999994
   19.66944313  186.52999878    4.80999994    2.80999994
   19.67277718  196.80200195    4.86999989    2.80999994
   19.67583275  199.46000671    4.84999990    2.80999994
   19.67916679  145.56300354    4.84999990    2.82999992
   19.68249893  169.19299316    4.84999990    2.82999992
   19.68555450  148.03999329    4.86999989    2.82999992
   19.68610954  134.28700256    4.88999987    2.82999992
   19.68916512  144.88400269    4.84999990    2.80999994
   19.69249916  147.67799377    4.86999989    2.82999992
   19.69583321  153.16099548    4.88999987    2.82999992
   19.70166779  153.16099548    4.86999989    2.80999994
   19.70583344  153.49400330    4.86999989    2.80999994
   19.70916748  158.06300354    4.88999987    2.80999994
   19.71222305  148.63400269    4.90999985    2.80999994
   19.71555710  151.24400330    4.90999985    2.80999994
   19.71888924  153.86000061    4.90999985    2.82999992
   19.71944427  150.51600647    4.90999985    2.82999992
   19.72249985  149.05799866    4.90999985    2.80999994
   19.72583389  139.52099609    4.90999985    2.82999992
   19.72888947  152.88299561    4.90999985    2.80999994
   19.73222351  155.74400330    4.90999985    2.80999994
   19.73555565  154.36399841    4.90999985    2.82999992
   19.73861122  154.39100647    4.90999985    2.82999992
   19.74444389  154.39100647    4.90999985    2.84999990
   19.74861145  152.39799500    4.90999985    2.84999990
   19.75194359  149.49000549    4.90999985    2.84999990
   19.75277710  146.22500610    4.90999985    2.84999990
   19.75555611  143.50199890    4.90999985    2.84999990
   19.75888824  144.54499817    4.90999985    2.86999989
   19.76222229  160.60800171    4.90999985    2.86999989
   19.76527786  146.62199402    4.90999985    2.86999989
   19.76861000  137.65400696    4.90999985    2.53999996
   19.77166557  144.95799255    4.90999985    2.86999989
   19.77499962  151.13000488    4.90999985    2.86999989
   19.77833366  147.74299622    4.90999985    2.86999989
   19.78138924  159.45500183    4.90999985    2.84999990
   19.78750038  159.45500183    4.90999985    2.84999990
   19.79138756  215.27000427    4.90999985    2.53999996
   19.79472160   -1.00000000    4.90999985    1.13000000
   19.79805565   -1.00000000    4.90999985    0.79000002
   19.80111122   -1.00000000    4.90999985    0.83999997
   19.80444336   -1.00000000    4.90999985    0.19000000
   19.80777740   -1.00000000    4.90999985    0.46000001
   19.81083298  121.11000061    4.90999985    1.33000004
   19.81416512  161.55700684    4.90999985    2.51999998
   19.81722260  147.01899719    4.90999985    2.86999989
   19.81944466  151.29499817    4.90999985    2.84999990
   19.82083511  132.02499390    4.90999985    2.84999990
   19.82416725  141.13999939    4.90999985    2.46000004
   19.83027840  141.13999939    4.90999985    2.82999992
   19.83444595  152.72399902    4.90999985    2.82999992
   19.83777809  166.60800171    4.90999985    2.82999992
   19.84083366  157.96800232    4.90999985    2.80999994
   19.84416771  142.49899292    4.90999985    2.80999994
   19.84722328  155.23599243    4.90999985    2.80999994
   19.85055542  143.35200500    4.90999985    2.80999994
   19.85277748  153.45700073    4.90999985    2.80999994
   19.85416794  153.36000061    4.90999985    2.80999994
   19.85750008  149.46800232    4.90999985    2.80999994
   19.86055565  159.57200623    4.90999985    2.78999996
   19.86388969  153.01600647    4.90999985    2.78999996
   19.86722183  154.02499390    4.90999985    2.78999996
   19.87305641  154.02499390    4.90999985    2.78999996
   19.87722206  167.05900574    4.90999985    2.76999998
   19.88055611  147.16099548    4.90999985    2.78999996
   19.88361168  150.71899414    4.90999985    2.78999996
   19.88611031  202.77200317    4.90999985    2.76999998
   19.88722229  174.66000366    4.90999985    2.71000004
   19.89055634  159.58200073    4.90999985    2.67000008
   19.89361191  157.82200623    4.90999985    2.73000002
   19.89694405  166.30299377    4.90999985    2.73000002
   19.90027809  225.63600159    4.90999985    2.64000010
   19.90333366  210.69599915    4.90999985    2.36999989
   19.90666580   83.83270264    4.90999985    1.58000004
   19.90999985   -1.00000000    4.90999985    0.88000000
   19.93472099   -1.00000000    4.90999985    0.41999999
   19.93805504   -1.00000000    4.90999985    0.40000001
   19.94111061  178.72099304    4.90999985    1.05999994
   19.94444275  261.32000732    4.90999985    2.07999992
   19.94777679  160.82600403    4.90999985    2.67000008
   19.95083427  181.87300110    4.90999985    2.82999992
   19.95416832  178.10099792    4.90999985    2.86999989
   19.95722389  146.35299683    4.90999985    2.84999990
   19.96055603  137.29100037    4.90999985    2.76999998
   19.96138954  169.84899902    4.90999985    2.73000002
   19.96416664  157.73699951    4.90999985    2.84999990
   19.96750069  149.95700073    4.90999985    2.91000009
   19.97333336  149.95700073    4.90999985    2.86999989
   19.97750092  146.58799744    4.90999985    2.86999989
   19.98083305  147.70100403    4.90999985    2.84999990
   19.98416710  151.94999695    4.90999985    2.64000010
   19.98722267   -1.00000000    4.90999985    2.69000006
   19.99055672   -1.00000000    4.90999985    0.17000000
   19.99361229   -1.00000000    4.90999985    0.07000000
   19.99722290   -1.00000000    4.90999985    0.05000000
   20.00027847   -1.00000000    4.90999985    0.03000000
   20.00388908   -1.00000000    4.90999985    0.03000000
   20.00722313   -1.00000000    4.90999985    0.03000000
   20.01027870   -1.00000000    4.90999985    0.05000000
   20.02027702   -1.00000000    4.90999985    0.05000000
   20.02361107   -1.00000000    3.41000009    0.01000000
   20.02666664   -1.00000000    3.41000009    0.01000000
   20.03027725   -1.00000000    3.41000009    0.01000000
   20.03361130   -1.00000000    3.41000009    0.01000000
   20.03694344   -1.00000000    3.41000009    0.01000000
   20.03999901   -1.00000000    3.41000009    0.01000000
   20.04333305   -1.00000000    3.41000009    0.01000000
   20.04666710   -1.00000000    3.41000009    0.01000000
   20.04972076   -1.00000000    3.41000009    0.01000000
   20.05305481   -1.00000000    3.41000009    0.01000000
   20.06333351   -1.00000000    3.41000009    0.01000000
   20.06638718   -1.00000000    3.41000009    0.01000000
   20.06972313   -1.00000000    3.41000009    0.01000000
   20.07277870   -1.00000000    3.41000009    0.01000000
   20.07611275   -1.00000000    3.41000009    0.01000000
   20.07944489   -1.00000000    3.41000009    0.01000000
   20.08250046   -1.00000000    3.41000009    0.01000000
   20.08583450   -1.00000000    3.41000009    0.01000000
   20.08916664   -1.00000000    3.41000009    0.01000000
   20.09222221   -1.00000000    3.41000009    0.01000000
   20.09555626   -1.00000000    3.41000009    0.01000000
   20.10611153   -1.00000000    3.41000009    0.01000000
   20.10916710   -1.00000000    3.41000009    0.01000000
   20.11250114   -1.00000000    3.41000009    0.01000000
   20.11583328   -1.00000000    3.41000009    0.01000000
   20.11888885   -1.00000000    3.41000009    0.01000000
   20.12222290   -1.00000000    3.41000009    0.01000000
   20.12555504   -1.00000000    3.41000009    0.01000000
   20.12888908   -1.00000000    3.41000009    0.01000000
   20.13222313   -1.00000000    3.41000009    0.01000000
   20.13555527   -1.00000000    3.41000009    0.01000000
   20.13861084   -1.00000000    3.41000009    0.01000000
   20.14888954   -1.00000000    3.41000009    0.01000000
   20.15222168   -1.00000000    3.41000009    0.01000000
   20.15527725   -1.00000000    3.41000009    0.01000000
   20.15861130   -1.00000000    3.41000009    0.01000000
   20.16194344   -1.00000000    3.41000009    0.01000000
   20.16527748   -1.00000000    3.41000009    0.01000000
   20.16860962   -1.00000000    3.41000009    0.01000000
   20.17166519   -1.00000000    3.41000009    0.01000000
   20.17499924   -1.00000000    3.41000009    0.01000000
   20.17833328   -1.00000000    3.41000009    0.01000000
   20.18138885   -1.00000000    3.41000009    0.01000000
   20.19166565   -1.00000000    3.41000009    0.01000000
   20.19527626   -1.00000000    3.41000009    0.01000000
   20.19861031   -1.00000000    3.41000009    0.01000000
   20.20222282   -1.00000000    3.41000009    0.01000000
   20.20527840   -1.00000000    3.41000009    0.01000000
   20.20861244   -1.00000000    3.41000009    0.01000000
   20.21194458   -1.00000000    3.41000009    0.01000000
   20.21500015   -1.00000000    3.41000009    0.01000000
   20.21833420   -1.00000000    3.41000009    0.01000000
   20.22166634   -1.00000000    3.41000009    0.01000000
   20.22472191   -1.00000000    3.41000009    0.01000000
   20.23472214   -1.00000000    3.41000009    0.01000000
   20.23777771   -1.00000000    3.41000009    0.01000000
   20.24111176   -1.00000000    3.41000009    0.01000000
   20.24416733   -1.00000000    3.41000009    0.01000000
   20.24749947   -1.00000000    3.41000009    0.01000000
   20.25083351   -1.00000000    3.41000009    0.01000000
   20.25388908   -1.00000000    3.41000009    0.01000000
   20.25722313   -1.00000000    3.41000009    0.01000000
   20.26055527   -1.00000000    3.41000009    0.01000000
   20.26416588   -1.00000000    3.41000009    0.01000000
   20.26722145   -1.00000000    3.41000009    0.01000000
   20.27750015   -1.00000000    3.41000009    0.01000000
   20.28055573   -1.00000000    3.41000009    0.01000000
   20.28388786   -1.00000000    3.41000009    0.01000000
   20.28722191   -1.00000000    3.41000009    0.01000000
   20.29027748   -1.00000000    3.41000009    0.01000000
   20.29361153   -1.00000000    3.41000009    0.01000000
   20.29722214   -1.00000000    3.41000009    0.01000000
   20.30027771   -1.00000000    3.41000009    0.01000000
   20.30360985   -1.00000000    3.41000009    0.01000000
   20.30666542   -1.00000000    3.41000009    0.01000000
   20.30999947   -1.00000000    3.41000009    0.01000000
   20.32027817   -1.00000000    3.41000009    0.01000000
   20.32361221   -1.00000000    3.41000009    0.01000000
   20.32666779   -1.00000000    3.41000009    0.01000000
   20.33027840   -1.00000000    3.41000009    0.01000000
   20.33361244   -1.00000000    3.41000009    0.01000000
   20.33694458   -1.00000000    3.41000009    0.01000000
   20.34000015   -1.00000000    3.41000009    0.01000000
   20.34333420   -1.00000000    3.41000009    0.01000000
   20.34666824   -1.00000000    3.41000009    0.01000000
   20.34972191   -1.00000000    3.41000009    0.01000000
   20.35305595   -1.00000000    3.41000009    0.01000000
   20.36305618   -1.00000000    3.41000009    0.01000000
   20.36638832   -1.00000000    3.41000009    0.01000000
   20.36944389   -1.00000000    3.41000009    0.01000000
   20.37277794   -1.00000000    3.41000009    0.01000000
   20.37611198   -1.00000000    3.41000009    0.01000000
   20.37916756   -1.00000000    3.41000009    0.01000000
   20.38249969   -1.00000000    3.41000009    0.01000000
   20.38583374   -1.00000000    3.41000009    0.01000000
   20.38888931   -1.00000000    3.41000009    0.01000000
   20.39222145   -1.00000000    3.41000009    0.01000000
   20.39555550   -1.00000000    3.41000009    0.01000000
   20.40583229   -1.00000000    3.41000009    0.01000000
   20.40916634   -1.00000000    3.41000009    0.01000000
   20.41250038   -1.00000000    3.41000009    0.01000000
   20.41555595   -1.00000000    3.41000009    0.01000000
   20.41888809   -1.00000000    4.90999985    0.01000000
   20.42222214   -1.00000000    4.90999985    0.01000000
   20.42527771   -1.00000000    4.90999985    0.01000000
   20.42860985   -1.00000000    4.90999985    0.01000000
   20.43222237   -1.00000000    4.90999985    0.01000000
   20.43555450   -1.00000000    4.90999985    0.01000000
   20.43861008   -1.00000000    4.90999985    0.01000000
   20.44888878   -1.00000000    4.90999985    0.01000000
   20.45194435   -1.00000000    4.90999985    0.01000000
   20.45527840   -1.00000000    4.90999985    0.01000000
   20.45861244   -1.00000000    4.90999985    0.01000000
   20.46166801   -1.00000000    4.90999985    0.01000000
   20.46527863   -1.00000000    1.96000004    0.15000001
   20.46861076   -1.00000000    1.96000004    0.01000000
   20.47166634   -1.00000000    4.46999979    0.01000000
   20.47500038   -1.00000000    4.90999985    0.01000000
   20.47833443   -1.00000000    4.90999985    0.01000000
   20.48139000   -1.00000000    4.90999985    0.03000000
   20.49166679   -1.00000000    4.90999985    0.79000002
   20.49500084  355.63198853    4.90999985    1.23000002
   20.49694443  140.97399902    4.90999985    1.96000004
   20.49694443   -1.00000000    1.96000004    0.01000000
   20.49722290   -1.00000000    4.46999979    0.01000000
   20.49722290   -1.00000000    4.90999985    0.01000000
   20.49722290   -1.00000000    4.90999985    0.01000000
   20.49749947   -1.00000000    4.90999985    0.03000000
   20.49749947   -1.00000000    4.90999985    0.79000002
   20.49749947  355.63198853    4.90999985    1.23000002
   20.49777794   -1.00000000    4.90999985    0.01000000
   20.49777794   -1.00000000    1.96000004    0.15000001
   20.49972153  433.89599609    4.90999985    2.53999996
   20.50166702  544.29699707    4.90999985    2.34999990
   20.50305557  536.67999268    4.90999985    2.13000011
   20.50444412  524.08599854    4.90999985    1.66999996
   20.50583267  433.89599609    4.90999985    2.53999996
   20.50638962   -1.00000000    4.90999985    1.11000001
   20.50972176   -1.00000000    4.90999985    0.38000000
   20.51277733  127.86299896    4.90999985    0.88000000
   20.51611137  233.33999634    4.90999985    1.86000001
   20.51944351  178.28900146    4.90999985    2.75000000
   20.52249908  188.12600708    4.90999985    2.82999992
   20.52666664  188.12600708    4.90999985    2.75000000
   20.53083229  185.96800232    4.90999985    2.73000002
   20.53416634  199.08900452    4.90999985    2.71000004
   20.53722191  114.41100311    4.90999985    2.73000002
   20.54083252   -1.00000000    4.90999985    0.34000000
   20.54416656   -1.00000000    4.90999985    0.03000000
   20.54722214   -1.00000000    4.90999985    0.01000000
   20.55055428   -1.00000000    4.90999985    0.05000000
   20.55360985   -1.00000000    4.90999985    0.05000000
   20.55694389   -1.00000000    4.90999985    0.15000001
   20.56027794  308.59600830    4.90999985    1.21000004
   20.56222153  266.36700439    4.90999985    1.83000004
   20.56361008  460.84698486    4.90999985    2.09999990
   20.56499863  133.00000000    4.90999985    2.36999989
   20.56499863   -1.00000000    4.90999985    0.34000000
   20.56499863   -1.00000000    4.90999985    0.03000000
   20.56527710   -1.00000000    4.90999985    0.01000000
   20.56527710   -1.00000000    4.90999985    0.05000000
   20.56527710   -1.00000000    4.90999985    0.05000000
   20.56555557   -1.00000000    4.90999985    0.15000001
   20.56555557  308.59600830    4.90999985    1.21000004
   20.56555557  199.08900452    4.90999985    2.71000004
   20.56583214  114.41100311    4.90999985    2.73000002
   20.56638718  440.64099121    4.90999985    2.34999990
   20.56833458  225.98100281    4.90999985    2.25000000
   20.57027817  250.20300293    4.90999985    2.39000010
   20.57361221  201.49800110    4.90999985    2.76999998
   20.57666779  200.53599548    4.90999985    2.73000002
   20.58000183  192.97799683    4.90999985    2.69000006
   20.58333397  195.51300049    4.90999985    2.67000008
   20.58916664  195.51300049    4.90999985    2.69000006
   20.59333420  176.34100342    4.90999985    2.67000008
   20.59638977  153.80900574    4.90999985    2.69000006
   20.59972191  122.47899628    4.90999985    2.59999990
   20.60222244  122.08200073    4.90999985    2.25000000
   20.60361099  105.53600311    4.90999985    2.01999998
   20.60666656   -1.00000000    4.90999985    0.52999997
   20.61000061   -1.00000000    4.90999985    0.11000000
   20.61333466  147.80400085    4.90999985    0.31999999
   20.61638832  142.71400452    4.90999985    1.07000005
   20.61972237   -1.00000000    4.90999985    0.51999998
   20.62277794   -1.00000000    4.90999985    0.03000000
   20.62611198   -1.00000000    4.90999985    0.01000000
   20.63611031   -1.00000000    4.90999985    0.01000000
