    HOUR (UT)   FLARE FACTOR    SKY TESTER    SUN TESTER
   11.88305569   -1.00000000   -1.00000000   -1.00000000
   11.90833282  216.30900574    0.00000000    0.00000000
   11.91138840  234.53300476    0.00000000    0.00000000
   11.91472149  270.20901489    0.00000000    0.00000000
   11.91777802  236.95500183    0.00000000    0.00000000
   11.92111111  210.14900208    0.00000000    0.00000000
   11.92444515  204.70100403    0.00000000    0.00000000
   11.92861176  204.70100403    0.00000000    0.00000000
   11.93249989  194.16900635    0.00000000    0.00000000
   11.93583298  203.61700439    0.00000000    0.00000000
   11.93916702  191.47200012    0.00000000    0.00000000
   11.94138908  190.52200317    0.00000000    0.00000000
   11.94277763  200.62600708    0.00000000    0.00000000
   11.94611073  202.69799805    0.00000000    0.00000000
   11.94916630  188.49200439    0.00000000    0.00000000
   11.95249939  191.16499329    0.00000000    0.00000000
   11.95555496  207.29400635    0.00000000    0.00000000
   11.95888901  202.56700134    0.00000000    0.00000000
   11.96222210  204.36700439    0.00000000    0.00000000
   11.96527767  191.49000549    0.00000000    0.00000000
   11.97138882  191.49000549    0.00000000    0.00000000
   11.97555542  179.77999878    0.00000000    0.00000000
   11.97861099  180.62300110    0.00000000    0.00000000
   11.98194408  188.99099731    0.00000000    0.00000000
   11.98500061  190.39799500    0.00000000    0.00000000
   11.98833370  188.75100708    0.00000000    0.00000000
   11.99166679  190.62199402    0.00000000    0.00000000
   11.99472237  186.03599548    0.00000000    0.00000000
   11.99805546  212.25999451    0.00000000    0.00000000
   12.00138855  202.60600281    0.00000000    0.00000000
   12.00444412  208.27999878    0.00000000    0.00000000
   12.00777817  199.73300171    0.00000000    0.00000000
   12.00833321  196.83700562    0.00000000    0.00000000
   12.01416683  196.83700562    0.00000000    0.00000000
   12.01833344  206.26499939    0.00000000    0.00000000
   12.02138901  245.39100647    0.00000000    0.00000000
   12.02472210  225.11099243    0.00000000    0.00000000
   12.02805519  252.33500671    0.00000000    0.00000000
   12.03111076  217.89100647    0.00000000    0.00000000
   12.03444481  202.41299438    0.00000000    0.00000000
   12.03777790  191.03999329    0.00000000    0.00000000
   12.04083347  220.12600708    0.00000000    0.00000000
   12.04166698  207.53300476    0.00000000    0.00000000
   12.04444504  206.17500305    0.00000000    0.00000000
   12.04777813  197.03100586    0.00000000    0.00000000
   12.05111122  182.16900635    0.00000000    0.00000000
   12.05694485  182.16900635    0.00000000    0.00000000
   12.06111145  184.59700012    0.00000000    0.00000000
   12.06444454  183.52299500    0.00000000    0.00000000
   12.06750011  188.67599487    0.00000000    0.00000000
   12.07083321  194.67999268    0.00000000    0.00000000
   12.07416630  183.37800598    0.00000000    0.00000000
   12.07499981  177.91999817    0.00000000    0.00000000
   12.07750034  182.43699646    0.00000000    0.00000000
   12.08083344  192.13600159    0.00000000    0.00000000
   12.08416653  185.86399841    0.00000000    0.00000000
   12.08722210  176.13499451    0.00000000    0.00000000
   12.09055519  191.86000061    0.00000000    0.00000000
   12.09388828  190.56199646    0.00000000    0.00000000
   12.09972191  190.56199646    0.00000000    0.00000000
   12.10388947  187.36199951    0.00000000    0.00000000
   12.10722256  190.59300232    0.00000000    0.00000000
   12.10833359  183.73899841    0.00000000    0.00000000
   12.11083412  187.37600708    0.00000000    0.00000000
   12.11416721  185.40699768    0.00000000    0.00000000
   12.11750031  185.84500122    0.00000000    0.00000000
   12.12055588  181.29200745    0.00000000    0.00000000
   12.12388897  182.84199524    0.00000000    0.00000000
   12.12722206  180.13000488    0.00000000    0.00000000
   12.13027763  185.33599854    0.00000000    0.00000000
   12.13361073  179.55499268    0.00000000    0.00000000
   12.13666630  181.39999390    0.00000000    0.00000000
   12.14277744  181.39999390    0.00000000    0.00000000
   12.14694405  179.13400269    0.00000000    0.00000000
   12.14999962  178.58099365    0.00000000    0.00000000
   12.15333271  187.66499329    0.00000000    0.00000000
   12.15638828  179.47500610    0.00000000    0.00000000
   12.15972137  172.18699646    0.00000000    0.00000000
   12.16305542  176.89599609    0.00000000    0.00000000
   12.16611099  184.99800110    0.00000000    0.00000000
   12.16944504  182.24899292    0.00000000    0.00000000
   12.17277813  173.82299805    0.00000000    0.00000000
   12.17500019  175.92700195    0.00000000    0.00000000
   12.17611122  181.15199280    0.00000000    0.00000000
   12.17944431  188.52799988    0.00000000    0.00000000
   12.18555546  188.52799988    0.00000000    0.00000000
   12.18972206  190.46800232    0.00000000    0.00000000
   12.19277763  187.43400574    0.00000000    0.00000000
   12.19611073  171.96800232    0.00000000    0.00000000
   12.19944477  200.68699646    0.00000000    0.00000000
   12.20249939  196.78399658    0.00000000    0.00000000
   12.20583344  185.48599243    0.00000000    0.00000000
   12.20833302  177.01199341    0.00000000    0.00000000
   12.20944405  190.22700500    0.00000000    0.00000000
   12.21277714  183.19799805    0.00000000    0.00000000
   12.21611118  187.83000183    0.00000000    0.00000000
   12.21916580  179.92399597    0.00000000    0.00000000
   12.22249985  183.55400085    0.00000000    0.00000000
   12.22833252  183.55400085    0.00000000    0.00000000
   12.23249912  178.74299622    0.00000000    0.00000000
   12.23583317  189.20899963    0.00000000    0.00000000
   12.23888874  191.45100403    0.00000000    0.00000000
   12.24166679  189.88000488    0.00000000    0.00000000
   12.24250031  187.54100037    0.00000000    0.00000000
   12.24583340  198.18699646    0.00000000    0.00000000
   12.24916649  187.52699280    0.00000000    0.00000000
   12.25222206  201.97999573    0.00000000    0.00000000
   12.25555515  183.97000122    0.00000000    0.00000000
   12.25888920  202.54299927    0.00000000    0.00000000
   12.26194477  170.52999878    0.00000000    0.00000000
   12.26527786  188.18800354    0.00000000    0.00000000
   12.27111053  188.18800354    0.00000000    0.00000000
   12.27527714  177.53999329    0.00000000    0.00000000
   12.27861118  175.47300720    0.00000000    0.00000000
   12.28222179  188.66700745    0.00000000    0.00000000
   12.28527832  188.22000122    0.00000000    0.00000000
   12.28861141  189.70300293    0.00000000    0.00000000
   12.29194450  189.47599792    0.00000000    0.00000000
   12.29500008  194.81799316    0.00000000    0.00000000
   12.29833412  183.83700562    0.00000000    0.00000000
   12.30138874  187.89799500    0.00000000    0.00000000
   12.30472279  176.81900024    0.00000000    0.00000000
   12.30805588  193.88900757    0.00000000    0.00000000
   12.30861092  176.49299622    0.00000000    0.00000000
   12.31416702  176.49299622    0.00000000    0.00000000
   12.31805515  184.54600525    0.00000000    0.00000000
   12.32138920  194.67900085    0.00000000    0.00000000
   12.32472229  198.64500427    0.00000000    0.00000000
   12.32777786  192.92199707    0.00000000    0.00000000
   12.33111095  185.12300110    0.00000000    0.00000000
   12.33444405  184.92199707    0.00000000    0.00000000
   12.33749962  187.25700378    0.00000000    0.00000000
   12.34083271  194.89399719    0.00000000    0.00000000
   12.34194374  180.21299744    0.00000000    0.00000000
   12.34444427  184.64500427    0.00000000    0.00000000
   12.34777737  177.04699707    0.00000000    0.00000000
   12.35083389  193.72399902    0.00000000    0.00000000
   12.35694504  193.72399902    0.00000000    0.00000000
   12.36111164  170.87399292    0.00000000    0.00000000
   12.36416721  184.16799927    0.00000000    0.00000000
   12.36750031  206.08799744    0.00000000    0.00000000
   12.37083340  185.43899536    0.00000000    0.00000000
   12.37388897  179.42700195    0.00000000    0.00000000
   12.37527752  192.03599548    0.00000000    0.00000000
   12.37750053  195.54100037    0.00000000    0.00000000
   12.38083363  177.87199402    0.00000000    0.00000000
   12.38388920  183.35899353    0.00000000    0.00000000
   12.38722229  193.46899414    0.00000000    0.00000000
   12.39055538  205.09399414    0.00000000    0.00000000
   12.39361095  199.74899292    0.00000000    0.00000000
   12.39972210  199.74899292    0.00000000    0.00000000
   12.40388870  198.24000549    0.00000000    0.00000000
   12.40722179  202.08399963    0.00000000    0.00000000
   12.40861034  181.29600525    0.00000000    0.00000000
   12.41055489  188.48500061    0.00000000    0.00000000
   12.41388893  184.48399353    0.00000000    0.00000000
   12.41722298  202.90299988    0.00000000    0.00000000
   12.42027855  188.55499268    0.00000000    0.00000000
   12.42361164  189.26899719    0.00000000    0.00000000
   12.42666721  190.10000610    0.00000000    0.00000000
   12.43000031  163.33599854    0.00000000    0.00000000
   12.43333340  172.39700317    0.00000000    0.00000000
   12.43638897  192.18699646    0.00000000    0.00000000
   12.44277763  192.18699646    0.00000000    0.00000000
   12.44666672  176.37800598    0.00000000    0.00000000
   12.44999981  180.05099487    0.00000000    0.00000000
   12.45333290  199.75399780    0.00000000    0.00000000
   12.45638847  190.51100159    0.00000000    0.00000000
   12.45972157  183.97500610    0.00000000    0.00000000
   12.46277714  186.79800415    0.00000000    0.00000000
   12.46611118  177.08500671    0.00000000    0.00000000
   12.46944427  184.80499268    0.00000000    0.00000000
   12.47249985  205.40499878    0.00000000    0.00000000
   12.47527695  186.87699890    0.00000000    0.00000000
   12.47611046  185.86099243    0.00000000    0.00000000
   12.47944355  192.80099487    0.00000000    0.00000000
   12.48555565  192.80099487    0.00000000    0.00000000
   12.48972225  190.07000732    0.00000000    0.00000000
   12.49277782  207.48199463    4.90999985    2.53999996
   12.49611092  193.15800476    4.90999985    2.53999996
   12.49916649  173.82800293    4.90999985    2.53999996
   12.50249958  173.00500488    4.90999985    2.53999996
   12.50583363  187.21800232    4.90999985    2.53999996
   12.50861073  189.89199829    4.90999985    2.53999996
   12.50916672  186.60800171    4.90999985    2.53999996
   12.51249981  198.39300537    4.90999985    2.53999996
   12.51583290  186.84100342    4.90999985    2.53999996
   12.51888847  185.74699402    4.90999985    2.53999996
   12.52222157  188.09100342    4.90999985    2.53999996
   12.52833271  188.09100342    4.90999985    2.53999996
   12.53249931  204.52099609    4.90999985    2.53999996
   12.53555584  185.55400085    4.90999985    2.53999996
   12.53888893  185.85899353    4.90999985    2.53999996
   12.54194450  193.59800720    4.90999985    2.53999996
   12.54250050  184.55200195    4.90999985    2.53999996
   12.54583359  190.52099609    4.90999985    2.53999996
   12.54916668  205.69200134    4.90999985    2.53999996
   12.55222225  193.42900085    4.90999985    2.53999996
   12.55555534  194.18400574    4.90999985    2.53999996
   12.55861092  193.60299683    4.90999985    2.53999996
   12.56194496  193.41400146    4.90999985    2.53999996
   12.56527805  183.93699646    4.90999985    2.53999996
   12.57111073  183.93699646    4.90999985    2.53999996
   12.57527733  188.07600403    4.90999985    2.53999996
   12.57861137  191.56500244    4.90999985    2.53999996
   12.58166695  200.07800293    4.90999985    2.53999996
   12.58500004  197.49499512    4.90999985    2.53999996
   12.58833313  190.84599304    4.90999985    2.53999996
   12.59138870  193.55499268    4.90999985    2.53999996
   12.59472179  192.17199707    4.90999985    2.53999996
   12.59805489  186.36900330    4.90999985    2.53999996
   12.60111141  185.61999512    4.90999985    2.53999996
   12.60444450  187.77600098    4.90999985    2.53999996
   12.60777855  193.51899719    4.90999985    2.53999996
   12.60861111  193.51600647    4.90999985    2.53999996
   12.61388969  193.51600647    4.90999985    2.53999996
   12.61805534  184.26499939    4.90999985    2.53999996
   12.62138939  180.63299561    4.90999985    2.53999996
   12.62472248  178.00000000    4.90999985    2.53999996
   12.62777805  187.41999817    4.90999985    2.53999996
   12.63111115  189.04800415    4.90999985    2.53999996
   12.63416672  187.41799927    4.90999985    2.53999996
   12.63749981  171.74800110    4.90999985    2.53999996
   12.64083290  187.13000488    4.90999985    2.53999996
   12.64194393  197.23500061    4.90999985    2.53999996
   12.64416695  193.68400574    4.90999985    2.53999996
   12.64750004  185.41200256    4.90999985    2.53999996
   12.65083313  194.11700439    4.90999985    2.53999996
   12.65694427  194.11700439    4.90999985    2.53999996
   12.66111088  180.86700439    4.90999985    2.53999996
   12.66416645  173.09700012    4.90999985    2.53999996
   12.66750050  190.33399963    4.90999985    2.53999996
   12.67055607  182.92900085    4.90999985    2.53999996
   12.67388916  193.55200195    4.90999985    2.53999996
   12.67527771  188.42399597    4.90999985    2.53999996
   12.67750072  180.40100098    4.90999985    2.53999996
   12.68083382  168.55299377    4.90999985    2.53999996
   12.68416691  197.82899475    4.90999985    2.53999996
   12.68722248  180.16999817    4.90999985    2.53999996
   12.69055557  189.50799561    4.90999985    2.53999996
   12.69388866  176.78100586    4.90999985    2.53999996
   12.69972229  176.78100586    4.90999985    2.53999996
   12.70388889  190.90800476    4.90999985    2.53999996
   12.70722198  192.05900574    4.90999985    2.53999996
   12.70861053  188.71899414    4.90999985    2.53999996
   12.71055508  176.54600525    4.90999985    2.53999996
   12.71388912  177.12100220    4.90999985    2.53999996
   12.71722221  173.23599243    4.90999985    2.53999996
   12.72027779  163.71099854    4.90999985    2.53999996
   12.72388840  176.65899658    4.90999985    2.53999996
   12.72722149  165.69099426    4.90999985    2.53999996
   12.73027706  177.67700195    4.90999985    2.53999996
   12.73361111  176.03900146    4.90999985    2.53999996
   12.73694515  174.81100464    4.90999985    2.53999996
   12.74250031  174.81100464    4.90999985    2.53999996
   12.74666691  174.35200500    4.90999985    2.53999996
   12.75000000  180.79699707    4.90999985    2.53999996
   12.75305557  164.76800537    4.90999985    2.53999996
   12.75638866  169.42399597    4.90999985    2.53999996
   12.75972176  171.36099243    4.90999985    2.53999996
   12.76277733  174.77200317    4.90999985    2.53999996
   12.76611137  165.25999451    4.90999985    2.53999996
   12.76944447  165.34300232    4.90999985    2.53999996
   12.77250004  178.82200623    4.90999985    2.53999996
   12.77527714  167.78799438    4.90999985    2.53999996
   12.77611065  172.43099976    4.90999985    2.53999996
   12.77944374  171.22900391    4.90999985    2.53999996
   12.78555584  171.22900391    4.90999985    2.53999996
   12.78944492  184.49499512    4.90999985    2.53999996
   12.79277802  169.51899719    4.90999985    2.53999996
   12.79611111  174.44299316    4.90999985    2.53999996
   12.79916668  167.15699768    4.90999985    2.53999996
   12.80249977  180.48599243    4.90999985    2.53999996
   12.80583382  171.23199463    4.90999985    2.53999996
   12.80861092  172.18600464    4.90999985    2.53999996
   12.80916691  170.58000183    4.90999985    2.53999996
   12.81250000  171.64199829    4.90999985    2.53999996
   12.81583309  164.88200378    4.90999985    2.53999996
   12.81888866  176.21600342    4.90999985    2.53999996
   12.82222176  167.63499451    4.90999985    2.53999996
   12.82833290  167.63499451    4.90999985    2.53999996
   12.83249950  170.59199524    4.90999985    2.53999996
   12.83555508  165.27499390    4.90999985    2.53999996
   12.83888817  167.44400024    4.90999985    2.53999996
   12.84194374  164.96400452    4.90999985    2.53999996
   12.84222221  158.26800537    4.90999985    2.53999996
   12.84555531  170.92999268    4.90999985    2.53999996
   12.84888840  183.30799866    4.90999985    2.53999996
   12.85194492  185.80999756    4.90999985    2.53999996
   12.85527802  182.89700317    4.90999985    2.53999996
   12.85861111  184.30099487    4.90999985    2.53999996
   12.86166668  203.20899963    4.90999985    2.53999996
   12.86500072  200.85200500    4.90999985    2.53999996
   12.87111092  200.85200500    4.90999985    2.53999996
   12.87527752  191.12100220    4.90999985    2.53999996
   12.87861156  197.53399658    4.90999985    2.53999996
   12.88166714  218.01600647    4.90999985    2.53999996
   12.88500023  212.13400269    4.90999985    2.53999996
   12.88805580  213.17900085    4.90999985    2.53999996
   12.89138889  203.98899841    4.90999985    2.53999996
   12.89472198  199.64500427    4.90999985    2.53999996
   12.89777756  220.36099243    4.90999985    2.53999996
   12.90111065  207.43299866    4.90999985    2.53999996
   12.90444374  181.77699280    4.90999985    2.53999996
   12.90749931  197.76499939    4.90999985    2.53999996
   12.90861034  185.78399658    4.90999985    2.53999996
   12.92916679  185.78399658    4.90999985    2.53999996
   12.93333340  163.33999634    4.90999985    2.53999996
   12.93666649  192.03900146    4.90999985    2.53999996
   12.94000053  173.66700745    4.90999985    2.53999996
   12.94194412  172.75399780    4.90999985    2.53999996
   12.94361115  179.99400330    4.90999985    2.53999996
   12.94666672  185.25999451    4.90999985    2.53999996
   12.94999981  185.82099915    4.90999985    2.53999996
   12.95305538  184.09700012    4.90999985    2.53999996
   12.95638847  193.08700562    4.90999985    2.53999996
   12.95972157  219.40100098    4.90999985    2.53999996
   12.96277714  173.97999573    4.90999985    2.53999996
   12.96611118  240.64700317    4.90999985    2.53999996
   12.97194386  240.64700317    4.90999985    2.53999996
   12.97611046  216.46400452    4.90999985    2.53999996
   12.97944355  276.79199219    4.90999985    2.53999996
   12.98249912  228.59500122    4.90999985    2.53999996
   12.98583317  224.95599365    4.90999985    2.53999996
   12.98916721  232.88299561    4.90999985    2.53999996
   12.99222279  251.67100525    4.90999985    2.53999996
   12.99555588  196.51800537    4.90999985    2.53999996
   12.99888897  220.36599731    4.90999985    2.53999996
   13.00194454  203.89900208    4.90999985    2.53999996
   13.00527763  229.71000671    4.90999985    2.53999996
   13.00833321  215.00599670    4.90999985    2.53999996
   13.00888920  202.51699829    4.90999985    2.53999996
   13.01500034  202.51699829    4.90999985    2.53999996
   13.01888847  220.54899597    4.90999985    2.53999996
   13.02222157  221.83299255    4.90999985    2.53999996
   13.02555561  238.30299377    4.90999985    2.53999996
   13.02861118  250.11199951    4.90999985    2.53999996
   13.03194427  239.23899841    4.90999985    2.53999996
   13.03527832  228.63800049    4.90999985    2.53999996
   13.03833389  226.91099548    4.90999985    2.53999996
   13.04166698  227.13000488    4.90999985    2.53999996
   13.04222298  248.01199341    4.90999985    2.53999996
   13.04527855  221.83999634    4.90999985    2.53999996
   13.04861164  206.78799438    4.90999985    2.53999996
   13.05166721  211.98399353    4.90999985    2.53999996
   13.05777836  211.98399353    4.90999985    2.53999996
   13.06194496  208.71699524    4.90999985    2.53999996
   13.06500053  177.73800659    4.90999985    2.53999996
   13.06833363  210.50599670    4.90999985    2.53999996
   13.07166672  244.65800476    4.90999985    2.53999996
   13.07472229  230.97300720    4.90999985    2.53999996
   13.07583332  207.31700134    4.90999985    2.53999996
   13.07833290  177.78799438    4.90999985    2.53999996
   13.08166695  180.95799255    4.90999985    2.53999996
   13.08472157  223.06799316    4.90999985    2.53999996
   13.08805561  242.97999573    4.90999985    2.53999996
   13.09138870  160.16299438    4.90999985    2.53999996
   13.09472179  202.69700623    4.90999985    2.53999996
   13.10055637  202.69700623    4.90999985    2.53999996
   13.10472298  162.76499939    4.90999985    2.53999996
   13.10805607  192.02299500    4.90999985    2.53999996
   13.10888958  179.49099731    4.90999985    2.53999996
   13.11166668  156.30599976    4.90999985    2.53999996
   13.11500072  173.66000366    4.90999985    2.53999996
   13.11805534  198.44200134    4.90999985    2.53999996
   13.12138939  192.76499939    4.90999985    2.53999996
   13.12472248  221.78500366    4.90999985    2.53999996
   13.12777805  176.94599915    4.90999985    2.53999996
   13.13111115  166.90699768    4.90999985    2.53999996
   13.13416672  197.08200073    4.90999985    2.53999996
   13.13749981  172.27600098    4.90999985    2.53999996
   13.14333344  172.27600098    4.90999985    2.53999996
   13.14750004  197.13000488    4.90999985    2.53999996
   13.15083313  188.30999756    4.90999985    2.53999996
   13.15388870  177.34599304    4.90999985    2.53999996
   13.15722179  176.68499756    4.90999985    2.53999996
   13.16055489  190.65600586    4.90999985    2.53999996
   13.16361046  152.51600647    4.90999985    2.53999996
   13.16694450  172.16000366    4.90999985    2.53999996
   13.17027855  155.96600342    4.90999985    2.53999996
   13.17333412  166.73300171    4.90999985    2.53999996
   13.17555618  175.27099609    4.90999985    2.53999996
   13.17694473  186.89300537    4.90999985    2.53999996
   13.18027782  147.75900269    4.90999985    2.53999996
   13.18638897  147.75900269    4.90999985    2.53999996
   13.19027805  164.32800293    4.90999985    2.53999996
   13.19361115  189.01300049    4.90999985    2.53999996
   13.19694424  172.20300293    4.90999985    2.53999996
   13.19999981  154.33099365    4.90999985    2.53999996
   13.20333290  157.34100342    4.90999985    2.53999996
   13.20638847  156.91999817    4.90999985    2.53999996
   13.20916653  169.11799622    4.90999985    2.53999996
   13.21000004  178.98199463    4.90999985    2.53999996
   13.21333313  165.29800415    4.90999985    2.53999996
   13.21638870  148.92399597    4.90999985    2.53999996
   13.21972179  157.47500610    4.90999985    2.53999996
   13.22305489  176.53199768    4.90999985    2.53999996
   13.22916603  176.53199768    4.90999985    2.53999996
   13.23333359  187.95100403    4.90999985    2.53999996
   13.23638916  173.42900085    4.90999985    2.53999996
   13.23972225  186.48599243    4.90999985    2.53999996
   13.24222279  172.36900330    4.90999985    2.53999996
   13.24333382  198.39300537    4.90999985    2.53999996
   13.24666691  171.19000244    4.90999985    2.53999996
   13.24972248  173.88999939    4.90999985    2.53999996
   13.25305557  181.94099426    4.90999985    2.53999996
   13.25638866  193.20799255    4.90999985    2.53999996
   13.25944424  168.26300049    4.90999985    2.53999996
   13.26277733  173.30200195    4.90999985    2.53999996
   13.26611137  183.84199524    4.90999985    2.53999996
   13.27194405  183.84199524    4.90999985    2.53999996
   13.27611065  163.92399597    4.90999985    2.53999996
   13.27916622  184.24499512    4.90999985    2.53999996
   13.28249931  163.43699646    4.90999985    2.53999996
   13.28583336  165.33599854    4.90999985    2.53999996
   13.28888893  156.18200684    4.90999985    2.53999996
   13.29222298  177.27900696    4.90999985    2.53999996
   13.29555607  162.95199585    4.90999985    2.53999996
   13.29861164  175.63699341    4.90999985    2.53999996
   13.30194473  151.51499939    4.90999985    2.53999996
   13.30500031  175.22500610    4.90999985    2.53999996
   13.30833340  146.70899963    4.90999985    2.53999996
   13.30916691  177.57400513    4.90999985    2.53999996
   13.31472206  177.57400513    4.90999985    2.53999996
   13.31888866  162.47599792    4.90999985    2.53999996
   13.32222176  143.19599915    4.90999985    2.53999996
   13.32527733  155.56300354    4.90999985    2.53999996
   13.32861137  153.90800476    4.90999985    2.53999996
   13.33194447  159.29400635    4.90999985    2.53999996
   13.33500004  158.22799683    4.90999985    2.53999996
   13.33833313  154.63400269    4.90999985    2.53999996
   13.34166622  156.60699463    4.90999985    2.53999996
   13.34249973  141.37399292    4.90999985    2.53999996
   13.34499931  176.99000549    4.90999985    2.53999996
   13.34833336  155.14900208    4.90999985    2.53999996
   13.35166740  172.51699829    4.90999985    2.53999996
   13.35750008  172.51699829    4.90999985    2.53999996
   13.36166668  156.37899780    4.90999985    2.53999996
   13.36500072  166.38699341    4.90999985    2.53999996
   13.36833382  162.07000732    4.90999985    2.53999996
   13.37138939  156.49899292    4.90999985    2.53999996
   13.37472248  159.29800415    4.90999985    2.53999996
   13.37583351  164.77900696    4.90999985    2.53999996
   13.37833309  156.27600098    4.90999985    2.53999996
   13.38166714  157.44500732    4.90999985    2.53999996
   13.38472176  159.97399902    4.90999985    2.53999996
   13.38805580  155.21200562    4.90999985    2.53999996
   13.39138889  171.86900330    4.90999985    2.53999996
   13.39444447  168.16900635    4.90999985    2.53999996
   13.40055561  168.16900635    4.90999985    2.53999996
   13.40472221  146.17700195    4.90999985    2.53999996
   13.40777779  175.72900391    4.90999985    2.53999996
   13.40916634  154.79100037    4.90999985    2.53999996
   13.41138840  143.44500732    4.90999985    2.53999996
   13.41472149  181.23800659    4.90999985    2.53999996
   13.41777802  163.26199341    4.90999985    2.53999996
   13.42111111  152.15600586    4.90999985    2.53999996
   13.42444515  170.62899780    4.90999985    2.53999996
   13.42777824  163.15299988    4.90999985    2.53999996
   13.43111134  137.89599609    4.90999985    2.53999996
   13.43416691  129.11099243    4.90999985    2.53999996
   13.43750000  146.40899658    4.90999985    2.53999996
   13.44333363  146.40899658    4.90999985    2.53999996
   13.44750023  162.60899353    4.90999985    2.53999996
   13.45083332  152.24400330    4.90999985    2.53999996
   13.45388889  152.77299500    4.90999985    2.53999996
   13.45722198  147.24699402    4.90999985    2.53999996
   13.46027756  163.74400330    4.90999985    2.53999996
   13.46361065  155.21000671    4.90999985    2.53999996
   13.46694374  143.85299683    4.90999985    2.53999996
   13.46999931  151.32699585    4.90999985    2.53999996
   13.47333336  152.69299316    4.90999985    2.53999996
   13.47583294  153.34899902    4.90999985    2.53999996
   13.47694397  143.67599487    4.90999985    2.53999996
   13.48027706  143.16499329    4.90999985    2.53999996
   13.48611164  143.16499329    4.90999985    2.53999996
   13.49027824  144.91400146    4.90999985    2.53999996
   13.49361134  153.17500305    4.90999985    2.53999996
   13.49666691  145.68899536    4.90999985    2.53999996
   13.50000000  143.62899780    4.90999985    2.53999996
   13.50333309  162.42900085    4.90999985    2.53999996
   13.50638866  159.25599670    4.90999985    2.53999996
   13.50916672  162.80799866    4.90999985    2.53999996
   13.51000023  172.36599731    4.90999985    2.53999996
   13.51333332  156.73800659    4.90999985    2.53999996
   13.51666641  160.70399475    4.90999985    2.53999996
   13.51972198  158.75500488    4.90999985    2.53999996
   13.52305508  145.96400452    4.90999985    2.53999996
   13.52888870  145.96400452    4.90999985    2.53999996
   13.53305531  154.50700378    4.90999985    2.53999996
   13.53638935  159.94700623    4.90999985    2.53999996
   13.53972244  164.80400085    4.90999985    2.53999996
   13.54250050  163.99499512    4.90999985    2.53999996
   13.54305553  153.24299622    4.90999985    2.53999996
   13.54638958  150.78799438    4.90999985    2.53999996
   13.54972267  154.93899536    4.90999985    2.53999996
   13.55277824  149.58700562    4.90999985    2.53999996
   13.55611134  141.46099854    4.90999985    2.53999996
   13.55916691  155.25199890    4.90999985    2.53999996
   13.56250000  144.25399780    4.90999985    2.53999996
   13.56583309  159.25799561    4.90999985    2.53999996
   13.57194424  159.25799561    4.90999985    2.53999996
   13.57611084  173.61099243    4.90999985    2.53999996
   13.57916641  157.84599304    4.90999985    2.53999996
   13.58249950  150.01100159    4.90999985    2.53999996
   13.58583260  150.87199402    4.90999985    2.53999996
   13.58888817  145.55499268    4.90999985    2.53999996
   13.59222221  148.98699951    4.90999985    2.53999996
   13.59527779  152.12800598    4.90999985    2.53999996
   13.59861088  149.75500488    4.90999985    2.53999996
   13.60194492  147.76699829    4.90999985    2.53999996
   13.60500050  149.98699951    4.90999985    2.53999996
   13.60833359  151.89100647    4.90999985    2.53999996
   13.60916710  140.77799988    4.90999985    2.53999996
   13.61472225  140.77799988    4.90999985    2.53999996
   13.61888885  156.02999878    4.90999985    2.53999996
   13.62194443  160.25300598    4.90999985    2.53999996
   13.62527752  155.63600159    4.90999985    2.53999996
   13.62861156  143.73300171    4.90999985    2.53999996
   13.63166714  156.00000000    4.90999985    2.53999996
   13.63500023  140.94700623    4.90999985    2.53999996
   13.63833332  156.81500244    4.90999985    2.53999996
   13.64138889  158.57000732    4.90999985    2.53999996
   13.64249992  143.59199524    4.90999985    2.53999996
   13.64499950  159.04699707    4.90999985    2.53999996
   13.64833355  150.65800476    4.90999985    2.53999996
   13.65166664  151.63800049    4.90999985    2.53999996
   13.65749931  151.63800049    4.90999985    2.53999996
   13.66166592  140.49200439    4.90999985    2.53999996
   13.66499996  153.08999634    4.90999985    2.53999996
   13.66805553  139.66299438    4.90999985    2.53999996
   13.67138958  138.18299866    4.90999985    2.53999996
   13.67472267  154.88400269    4.90999985    2.53999996
   13.67583370  145.11199951    4.90999985    2.53999996
   13.67805576  155.96499634    4.90999985    2.53999996
   13.68138885  138.11099243    4.90999985    2.53999996
   13.68472195  146.56100464    4.90999985    2.53999996
   13.68777752  142.88000488    4.90999985    2.53999996
   13.69111156  152.58200073    4.90999985    2.53999996
   13.69416714  133.59899902    4.90999985    2.53999996
   13.70027733  133.59899902    4.90999985    2.53999996
   13.70444393  136.86399841    4.90999985    2.53999996
   13.70777798  149.10000610    4.90999985    2.53999996
   13.70916653  146.35499573    4.90999985    2.53999996
   13.71166611  148.35099792    4.90999985    2.53999996
   13.71500015  156.89399719    4.90999985    2.53999996
   13.71805477  129.50500488    4.90999985    2.53999996
   13.72138882  134.96099854    4.90999985    2.53999996
   13.72444439  139.69099426    4.90999985    2.53999996
   13.72777748  134.66900635    4.90999985    2.53999996
   13.73111057  129.49000549    4.90999985    2.53999996
   13.73416710  151.40100098    4.90999985    2.53999996
   13.73750019  139.74600220    4.90999985    2.53999996
   13.74333382  139.74600220    4.90999985    2.53999996
   13.74750042  138.29499817    4.90999985    2.53999996
   13.75055599  159.87199402    4.90999985    2.53999996
   13.75388908  156.65199280    4.90999985    2.53999996
   13.75694466  148.58299255    4.90999985    2.53999996
   13.76027775  131.09800720    4.90999985    2.53999996
   13.76361084  145.47200012    4.90999985    2.53999996
   13.76666641  158.85499573    4.90999985    2.53999996
   13.76999950  146.72599792    4.90999985    2.53999996
   13.77333355  148.39900208    4.90999985    2.53999996
   13.77583313  147.61199951    4.90999985    2.53999996
   13.77666664  150.31599426    4.90999985    2.53999996
   13.77999973  138.50599670    4.90999985    2.53999996
   13.78611183  138.50599670    4.90999985    2.53999996
   13.79027843  137.61900330    4.90999985    2.53999996
   13.79333401  132.34399414    4.90999985    2.53999996
   13.79666710  140.03900146    4.90999985    2.53999996
   13.80000019  150.10800171    4.90999985    2.53999996
   13.80305576  152.92399597    4.90999985    2.53999996
   13.80638885  153.34199524    4.90999985    2.53999996
   13.80916691  158.42599487    4.90999985    2.53999996
   13.81000042  135.30700684    4.90999985    2.53999996
   13.81333351  134.97700500    4.90999985    2.53999996
   13.81666660  138.85200500    4.90999985    2.53999996
   13.81972218  141.05700684    4.90999985    2.53999996
   13.82305527  141.87100220    4.90999985    2.53999996
   13.82888889  141.87100220    4.90999985    2.53999996
   13.83305550  138.62100220    4.90999985    2.53999996
   13.83638859  149.41600037    4.90999985    2.53999996
   13.83944416  140.26400757    4.90999985    2.53999996
   13.84249973  143.15499878    4.90999985    2.53999996
   13.84305477  142.38200378    4.90999985    2.53999996
   13.84638882  129.69299316    4.90999985    2.53999996
   13.84972191  148.21699524    4.90999985    2.53999996
   13.85277843  143.76400757    4.90999985    2.53999996
   13.85611153  142.27299500    4.90999985    2.53999996
   13.85944462  141.93400574    4.90999985    2.53999996
   13.86250019  147.32499695    4.90999985    2.53999996
   13.86583328  143.25100708    4.90999985    2.53999996
   13.87166691  143.25100708    4.90999985    2.53999996
   13.87583351  148.85899353    4.90999985    2.53999996
   13.87916660  140.87399292    4.90999985    2.53999996
   13.88249969  143.15800476    4.90999985    2.53999996
   13.88555527  147.19200134    4.90999985    2.53999996
   13.88888836  139.05200195    4.90999985    2.53999996
   13.89194393  138.57299805    4.90999985    2.53999996
   13.89527798  136.86500549    4.90999985    2.53999996
   13.89861107  143.69500732    4.90999985    2.53999996
   13.90166664  144.13200378    4.90999985    2.53999996
   13.90499973  143.32299805    4.90999985    2.53999996
   13.90833282  139.59800720    4.90999985    2.53999996
   13.90916634  136.61999512    4.90999985    2.53999996
   13.91472149  136.61999512    4.90999985    2.53999996
   13.91888905  134.61700439    4.90999985    2.53999996
   13.92194462  135.60400391    4.90999985    2.53999996
   13.92527771  142.95199585    4.90999985    2.53999996
   13.94277763  142.08200073    4.90999985    2.53999996
   13.94527817  132.27099609    4.90999985    2.53999996
   13.94833374  139.08500671    4.90999985    2.53999996
   13.95166683  135.45399475    4.90999985    2.53999996
   13.95777798  135.45399475    4.90999985    2.53999996
   13.96166611  144.18899536    4.90999985    2.53999996
   13.96500015  141.09700012    4.90999985    2.53999996
   13.96833324  130.67700195    4.90999985    2.53999996
   13.97138882  131.36999512    4.90999985    2.53999996
   13.97472191  132.07299805    4.90999985    2.53999996
   13.97611046  119.50199890    4.90999985    2.53999996
   13.97833252  136.64700317    4.90999985    2.53999996
   13.98166656  135.96000671    4.90999985    2.53999996
   13.98500061  129.93299866    4.90999985    2.53999996
   13.98805618  137.02900696    4.90999985    2.53999996
   13.99138927  127.50099945    4.90999985    2.53999996
   13.99472237  133.85200500    4.90999985    2.53999996
   14.00055599  133.85200500    4.90999985    2.53999996
   14.00472260  134.16099548    4.90999985    2.53999996
   14.00777817  137.69299316    4.90999985    2.53999996
   14.00944424  135.50000000    4.90999985    2.53999996
   14.01138878  146.35200500    4.90999985    2.53999996
   14.01472187  132.40199280    4.90999985    2.53999996
   14.01805496  130.06700134    4.90999985    2.53999996
   14.02111053  138.60000610    4.90999985    2.53999996
   14.02444458  127.75399780    4.90999985    2.53999996
   14.02777767  137.26600647    4.90999985    2.53999996
   14.03083324  142.66700745    4.90999985    2.53999996
   14.03416729  132.67599487    4.90999985    2.53999996
   14.03750038  140.80499268    4.90999985    2.53999996
   14.04333401  140.80499268    4.90999985    2.53999996
   14.04750061  156.03399658    4.90999985    2.53999996
   14.05083370  145.40600586    4.90999985    2.53999996
   14.05388927  146.62300110    4.90999985    2.53999996
   14.05722237  149.22099304    4.90999985    2.53999996
   14.06027794  128.84500122    4.90999985    2.53999996
   14.06361103  140.34599304    4.90999985    2.53999996
   14.06694412  143.86500549    4.90999985    2.53999996
   14.06999969  136.88900757    4.90999985    2.53999996
   14.07333374  138.27299500    4.90999985    2.53999996
   14.07611084  140.24099731    4.90999985    2.53999996
   14.07722187  141.77900696    4.90999985    2.53999996
   14.08027744  146.79699707    4.90999985    2.53999996
   14.08611107  146.79699707    4.90999985    2.53999996
   14.09027767  143.03599548    4.90999985    2.53999996
   14.09361076  143.11199951    4.90999985    2.53999996
   14.09666634  134.34199524    4.90999985    2.53999996
   14.10000038  140.69900513    4.90999985    2.53999996
   14.10333347  139.62699890    4.90999985    2.53999996
   14.10638905  139.61300659    4.90999985    2.53999996
   14.10944462  137.71000671    4.90999985    2.53999996
   14.11000061  132.14100647    4.90999985    2.53999996
   14.11333370  151.52400208    4.90999985    2.53999996
   14.11666679  147.47799683    4.90999985    2.53999996
   14.11972237  143.16299438    4.90999985    2.53999996
   14.12305546  151.05099487    4.90999985    2.53999996
   14.12916660  151.05099487    4.90999985    2.53999996
   14.13305569  151.12699890    4.90999985    2.53999996
   14.13638878  141.87699890    4.90999985    2.53999996
   14.13972187  123.28500366    4.90999985    2.53999996
   14.14277744  147.13299561    4.90999985    2.53999996
   14.14305496  145.52699280    4.90999985    2.53999996
   14.14638901  131.47500610    4.90999985    2.53999996
   14.14972210  132.61799622    4.90999985    2.53999996
   14.15277767  140.94999695    4.90999985    2.53999996
   14.15611076  139.63699341    4.90999985    2.53999996
   14.15944386  146.04499817    4.90999985    2.53999996
   14.16249943  143.26899719    4.90999985    2.53999996
   14.16583252  135.11099243    4.90999985    2.53999996
   14.17194462  135.11099243    4.90999985    2.53999996
   14.17611122  130.76199341    4.90999985    2.53999996
   14.17666721  139.78300476    4.90999985    2.53999996
   14.17972279  144.16499329    4.90999985    2.53999996
   14.18305588  135.29499817    4.90999985    2.53999996
   14.18611145  138.82600403    4.90999985    2.53999996
   14.18944454  133.34800720    4.90999985    2.53999996
   14.19277763  142.45799255    4.90999985    2.53999996
   14.19583321  139.36500549    4.90999985    2.53999996
   14.19916630  127.48300171    4.90999985    2.53999996
   14.20249939  138.23599243    4.90999985    2.53999996
   14.20555496  144.20700073    4.90999985    2.53999996
   14.20888901  137.22700500    4.90999985    2.53999996
   14.20944405  146.26499939    4.90999985    2.53999996
   14.21472168  146.26499939    4.90999985    2.53999996
   14.21888828  134.63699341    4.90999985    2.53999996
   14.22194386  143.94700623    4.90999985    2.53999996
   14.22527695  144.00700378    4.90999985    2.53999996
   14.22861099  142.82099915    4.90999985    2.53999996
   14.23166656  138.45100403    4.90999985    2.53999996
   14.23500061  150.92900085    4.90999985    2.53999996
   14.23833370  137.36999512    4.90999985    2.53999996
   14.24138927  141.97200012    4.90999985    2.53999996
   14.24277782  133.67500305    4.90999985    2.53999996
   14.24527836  135.98599243    4.90999985    2.53999996
   14.24833393  149.58200073    4.90999985    2.53999996
   14.25166702  144.10499573    4.90999985    2.53999996
   14.25749969  144.10499573    4.90999985    2.53999996
   14.26166630  129.83599854    4.90999985    2.53999996
   14.26500034  146.20899963    4.90999985    2.53999996
   14.26805496  139.97500610    4.90999985    2.53999996
   14.27138901  135.33599854    4.90999985    2.53999996
   14.27472210  148.10000610    4.90999985    2.53999996
   14.27611065  139.26499939    4.90999985    2.53999996
   14.27833271  141.28300476    4.90999985    2.53999996
   14.28138828  152.74200439    4.90999985    2.53999996
   14.28472233  136.45300293    4.90999985    2.53999996
   14.28805637  145.83000183    4.90999985    2.53999996
   14.29111195  149.57000732    4.90999985    2.53999996
   14.29444504  147.71800232    4.90999985    2.53999996
   14.30027771  147.71800232    4.90999985    2.53999996
   14.30444431  136.59700012    4.90999985    2.53999996
   14.30777836  139.58099365    4.90999985    2.53999996
   14.30944443  135.46699524    4.90999985    2.53999996
   14.31138897  132.70100403    4.90999985    2.53999996
   14.31444454  154.92900085    4.90999985    2.53999996
   14.31777763  140.58000183    4.90999985    2.53999996
   14.32111073  139.23699951    4.90999985    2.53999996
   14.32416630  140.49099731    4.90999985    2.53999996
   14.32750034  143.44400024    4.90999985    2.53999996
   14.33083344  130.61700439    4.90999985    2.53999996
   14.33388901  148.49299622    4.90999985    2.53999996
   14.33722210  147.45399475    4.90999985    2.53999996
   14.34333324  147.45399475    4.90999985    2.53999996
   14.34749985  147.99200439    4.90999985    2.53999996
   14.35055637  149.92799377    4.90999985    2.53999996
   14.35388947  143.15899658    4.90999985    2.53999996
   14.35694504  148.58999634    4.90999985    2.53999996
   14.36027813  136.54100037    4.90999985    2.53999996
   14.36361122  152.21800232    4.90999985    2.53999996
   14.36666679  133.29600525    4.90999985    2.53999996
   14.36999989  135.96400452    4.90999985    2.53999996
   14.37333393  146.91400146    4.90999985    2.53999996
   14.37611103  142.36900330    4.90999985    2.53999996
   14.37694454  148.97500610    4.90999985    2.53999996
   14.38000011  142.57800293    4.90999985    2.53999996
   14.38611126  142.57800293    4.90999985    2.53999996
   14.39027786  146.96800232    4.90999985    2.53999996
   14.39361095  135.45799255    4.90999985    2.53999996
   14.39666653  129.67599487    4.90999985    2.53999996
   14.39999962  142.67700195    4.90999985    2.53999996
   14.40305519  139.24899292    4.90999985    2.53999996
   14.40638828  150.22300720    4.90999985    2.53999996
   14.40944386  144.37300110    4.90999985    2.53999996
   14.41027737  153.38699341    4.90999985    2.53999996
   14.41333294  149.37199402    4.90999985    2.53999996
   14.41666698  154.08900452    4.90999985    2.53999996
   14.42000008  135.26899719    4.90999985    2.53999996
   14.42305565  142.80900574    4.90999985    2.53999996
   14.42888927  142.80900574    4.90999985    2.53999996
   14.43305588  145.35600281    4.90999985    2.53999996
   14.43638897  135.47500610    4.90999985    2.53999996
   14.43944454  141.81500244    4.90999985    2.53999996
   14.44277763  148.42700195    4.90999985    2.53999996
   14.44333363  136.07899475    4.90999985    2.53999996
   14.44638920  136.30200195    4.90999985    2.53999996
   14.44972229  139.22099304    4.90999985    2.53999996
   14.45305538  134.11199951    4.90999985    2.53999996
   14.45611095  139.99299622    4.90999985    2.53999996
   14.45944405  139.50000000    4.90999985    2.53999996
   14.46249962  143.06799316    4.90999985    2.53999996
   14.46583271  133.24400330    4.90999985    2.53999996
   14.47166634  133.24400330    4.90999985    2.53999996
   14.47583294  147.76100159    4.90999985    2.53999996
   14.47638798  140.75500488    4.90999985    2.53999996
   14.47972202  144.19400024    4.90999985    2.53999996
   14.48305511  137.86399841    4.90999985    2.53999996
   14.48611164  133.92700195    4.90999985    2.53999996
   14.48944473  138.66400146    4.90999985    2.53999996
   14.49250031  144.52900696    4.90999985    2.53999996
   14.49583340  140.21400452    4.90999985    2.53999996
   14.49916649  138.75100708    4.90999985    2.53999996
   14.50222206  134.37800598    4.90999985    2.53999996
   14.50555515  140.78599548    4.90999985    2.53999996
   14.50888920  139.02000427    4.90999985    2.53999996
   14.50972176  143.05400085    4.90999985    2.53999996
   14.51472187  143.05400085    4.90999985    2.53999996
   14.51888847  144.21099854    4.90999985    2.53999996
   14.52194405  143.20300293    4.90999985    2.53999996
   14.52527714  153.65899658    4.90999985    2.53999996
   14.52861118  146.44299316    4.90999985    2.53999996
   14.53166676  131.69700623    4.90999985    2.53999996
   14.53500080  146.58099365    4.90999985    2.53999996
   14.53833389  140.63000488    4.90999985    2.53999996
   14.54138947  153.14100647    4.90999985    2.53999996
   14.54305553  144.39799500    4.90999985    2.53999996
   14.54500008  137.73599243    4.90999985    2.53999996
   14.54833412  132.60899353    4.90999985    2.53999996
   14.55138874  133.72900391    4.90999985    2.53999996
   14.55749989  133.72900391    4.90999985    2.53999996
   14.56166649  143.66099548    4.90999985    2.53999996
   14.56472206  131.92900085    4.90999985    2.53999996
   14.56805515  149.58399963    4.90999985    2.53999996
   14.57138920  144.63499451    4.90999985    2.53999996
   14.57444477  127.54799652    4.90999985    2.53999996
   14.57638836  154.73199463    4.90999985    2.53999996
   14.57805538  145.46299744    4.90999985    2.53999996
   14.58138847  141.37899780    4.90999985    2.53999996
   14.58444405  135.81199646    4.90999985    2.53999996
   14.58777714  144.68800354    4.90999985    2.53999996
   14.59111118  131.77400208    4.90999985    2.53999996
   14.59416676  128.28100586    4.90999985    2.53999996
   14.60027790  128.28100586    4.90999985    2.53999996
   14.60444450  141.80700684    4.90999985    2.53999996
   14.60777855  133.78399658    4.90999985    2.53999996
   14.60972214  133.30999756    4.90999985    2.53999996
   14.61138916  134.06799316    4.90999985    2.53999996
   14.61472225  132.71800232    4.90999985    2.53999996
   14.61777782  139.51499939    4.90999985    2.53999996
   14.62111092  133.86799622    4.90999985    2.53999996
   14.62444496  119.10299683    4.90999985    2.53999996
   14.62750053  142.04299927    4.90999985    2.53999996
   14.63083363  135.04499817    4.90999985    2.53999996
   14.63388920  132.81900024    4.90999985    2.53999996
   14.63722229  134.16099548    4.90999985    2.53999996
   14.64305496  134.16099548    4.90999985    2.53999996
   14.64750004  129.57200623    4.90999985    2.53999996
   14.65055561  132.44500732    4.90999985    2.53999996
   14.65388870  125.71600342    4.90999985    2.53999996
   14.65722179  132.94200134    4.90999985    2.53999996
   14.66027737  132.02600098    4.90999985    2.53999996
   14.66361046  126.33300018    4.90999985    2.53999996
   14.66694450  137.37600708    4.90999985    2.53999996
   14.67000008  130.34500122    4.90999985    2.53999996
   14.67333412  131.61700439    4.90999985    2.53999996
   14.67638874  133.22999573    4.90999985    2.53999996
   14.67722225  131.90600586    4.90999985    2.53999996
   14.68055630  131.55900574    4.90999985    2.53999996
   14.68611145  131.55900574    4.90999985    2.53999996
   14.69027805  126.48500061    4.90999985    2.53999996
   14.69333363  135.74200439    4.90999985    2.53999996
   14.69666672  132.50100708    4.90999985    2.53999996
   14.69999981  131.28599548    4.90999985    2.53999996
   14.70305538  134.35600281    4.90999985    2.53999996
   14.70638847  137.08500671    4.90999985    2.53999996
   14.70944405  119.67700195    4.90999985    2.53999996
   14.71000004  119.51300049    4.90999985    2.53999996
   14.71333313  133.60000610    4.90999985    2.53999996
   14.71666622  129.95899963    4.90999985    2.53999996
   14.71972179  136.19599915    4.90999985    2.53999996
   14.72305489  147.22099304    4.90999985    2.53999996
   14.72888851  147.22099304    4.90999985    2.53999996
   14.73305511  132.56199646    4.90999985    2.53999996
   14.73611164  130.41799927    4.90999985    2.53999996
   14.73944473  140.76699829    4.90999985    2.53999996
   14.74277782  136.18899536    4.90999985    2.53999996
   14.74333382  140.99699402    4.90999985    2.53999996
   14.74638939  131.88099670    4.90999985    2.53999996
   14.74972248  126.60600281    4.90999985    2.53999996
   14.75305557  136.25500488    4.90999985    2.53999996
   14.75638866  132.08999634    4.90999985    2.53999996
   14.75944424  136.76800537    4.90999985    2.53999996
   14.76277733  130.57899475    4.90999985    2.53999996
   14.76583290  137.46499634    4.90999985    2.53999996
   14.77166653  137.46499634    4.90999985    2.53999996
   14.77583313  133.56799316    4.90999985    2.53999996
   14.77666664  159.76400757    4.90999985    2.53999996
   14.77944374  132.46400452    4.90999985    2.53999996
   14.78277779  136.29400635    4.90999985    2.53999996
   14.78583336  132.92100525    4.90999985    2.53999996
   14.78916740  135.84300232    4.90999985    2.53999996
   14.79250050  140.64500427    4.90999985    2.53999996
   14.79555607  138.36399841    4.90999985    2.53999996
   14.79888916  150.08999634    4.90999985    2.53999996
   14.80222225  140.63800049    4.90999985    2.53999996
   14.80527782  136.88099670    4.90999985    2.53999996
   14.80861092  133.77200317    4.90999985    2.53999996
   14.81000042  148.92999268    4.90999985    2.53999996
   14.81444454  148.92999268    4.90999985    2.53999996
   14.81861115  145.93699646    4.90999985    2.53999996
   14.82194424  133.88299561    4.90999985    2.53999996
   14.82527733  140.63900757    4.90999985    2.53999996
   14.82833290  137.31599426    4.90999985    2.53999996
   14.83166695  127.03700256    4.90999985    2.53999996
   14.83472157  150.22500610    4.90999985    2.53999996
   14.83805561  145.42799377    4.90999985    2.53999996
   14.84138870  154.86500549    4.90999985    2.53999996
   14.84333324  142.69900513    4.90999985    2.53999996
   14.84499931  130.79100037    4.90999985    2.53999996
   14.84833336  139.35200500    4.90999985    2.53999996
   14.85138893  130.96299744    4.90999985    2.53999996
   14.85750008  130.96299744    4.90999985    2.53999996
   14.86138916  131.50900269    4.90999985    2.53999996
   14.86472225  144.22200012    4.90999985    2.53999996
   14.86805534  148.68099976    4.90999985    2.53999996
   14.87138939  127.00299835    4.90999985    2.53999996
   14.87444496  129.96400452    4.90999985    2.53999996
   14.87666702  144.71800232    4.90999985    2.53999996
   14.87805557  138.07299805    4.90999985    2.53999996
   14.88138866  145.38000488    4.90999985    2.53999996
   14.88444424  141.24000549    4.90999985    2.53999996
   14.88777733  142.94099426    4.90999985    2.53999996
   14.89083290  137.05200195    4.90999985    2.53999996
   14.89416695  150.42999268    4.90999985    2.53999996
   14.90027714  150.42999268    4.90999985    2.53999996
   14.90444374  139.35699463    4.90999985    2.53999996
   14.90749931  135.25700378    4.90999985    2.53999996
   14.90999985  144.68299866    4.90999985    2.53999996
   14.91111088  152.33099365    4.90999985    2.53999996
   14.91444397  155.16700745    4.90999985    2.53999996
   14.91750050  140.76600647    4.90999985    2.53999996
   14.92083359  148.53100586    4.90999985    2.53999996
   14.92416668  144.91499329    4.90999985    2.53999996
   14.92722225  140.20300293    4.90999985    2.53999996
   14.93055630  148.06300354    4.90999985    2.53999996
   14.93388939  151.60899353    4.90999985    2.53999996
   14.93694496  159.67399597    4.90999985    2.53999996
   14.94305515  159.67399597    4.90999985    2.53999996
   14.96138859  153.56799316    4.90999985    2.53999996
   14.96472168  156.75900269    4.90999985    2.53999996
   14.96805477  144.96400452    4.90999985    2.53999996
   14.97111034  145.49099731    4.90999985    2.53999996
   14.97444439  153.42199707    4.90999985    2.53999996
   14.97777748  159.78199768    4.90999985    2.53999996
   14.98083305  142.93299866    4.90999985    2.53999996
   14.98611164  142.93299866    4.90999985    2.53999996
   14.99027824  134.16000366    4.90999985    2.53999996
   14.99361134  145.03399658    4.90999985    2.53999996
   14.99444485  125.91799927    4.90999985    2.53999996
   15.09749985   -1.00000000   -1.00000000   -1.00000000
   15.19666672   -1.00000000   -1.00000000   -1.00000000
   15.30083370   -1.00000000   -1.00000000   -1.00000000
   15.33472157  141.53700256    4.90999985    2.53999996
   15.33777714  140.86799622    4.90999985    2.53999996
   15.34111118  138.73599243    4.90999985    2.53999996
   15.34444427  142.37500000    4.90999985    2.53999996
   15.34749985  135.54899597    4.90999985    2.53999996
   15.35083389  139.47999573    4.90999985    2.53999996
   15.35500050  139.47999573    4.90999985    2.53999996
   15.35916710  136.31799316    4.90999985    2.53999996
   15.36222267  151.61300659    4.90999985    2.53999996
   15.36555576  148.52600098    4.90999985    2.53999996
   15.36777782  138.49200439    4.90999985    2.53999996
   15.36916637  130.37699890    4.90999985    2.53999996
   15.37250042  132.26899719    4.90999985    2.53999996
   15.37555599  137.84399414    4.90999985    2.53999996
   15.37888908  138.60699463    4.90999985    2.53999996
   15.38222218  138.23899841    4.90999985    2.53999996
   15.38527775  136.84700012    4.90999985    2.53999996
   15.38861084  132.51899719    4.90999985    2.53999996
   15.39166641  131.53300476    4.90999985    2.53999996
   15.39777756  131.53300476    4.90999985    2.53999996
   15.40194416  141.98399353    4.90999985    2.53999996
   15.40499973  129.16499329    4.90999985    2.53999996
   15.40833282  136.74800110    4.90999985    2.53999996
   15.41166592  133.81500244    4.90999985    2.53999996
   15.41472149  142.08900452    4.90999985    2.53999996
   15.41805553  145.81599426    4.90999985    2.53999996
   15.42138958  143.48800659    4.90999985    2.53999996
   15.42444515  134.70799255    4.90999985    2.53999996
   15.42777824  148.19900513    4.90999985    2.53999996
   15.43083382  144.03199768    4.90999985    2.53999996
   15.43416691  161.08900452    4.90999985    2.53999996
   15.43472195  164.88200378    4.90999985    2.53999996
   15.44055557  164.88200378    4.90999985    2.53999996
   15.44472218  130.49000549    4.90999985    2.53999996
   15.44805527  136.97500610    4.90999985    2.53999996
   15.45111084  139.68099976    4.90999985    2.53999996
   15.45444393  125.07199860    4.90999985    2.53999996
   15.45777798  133.00900269    4.90999985    2.53999996
   15.46083355  128.98199463    4.90999985    2.53999996
   15.46416664  140.23599243    4.90999985    2.53999996
   15.46749973  138.13000488    4.90999985    2.53999996
   15.46805477  119.16100311    4.90999985    2.53999996
   15.47111034  133.60600281    4.90999985    2.53999996
   15.47416592  143.89399719    4.90999985    2.53999996
   15.47749996  135.18699646    4.90999985    2.53999996
   15.48361111  135.18699646    4.90999985    2.53999996
   15.48750019  137.88999939    4.90999985    2.53999996
   15.49083328  126.98000336    4.90999985    2.53999996
   15.49416733  139.28900146    4.90999985    2.53999996
   15.49722290  136.99099731    4.90999985    2.53999996
   15.50055599  139.71099854    4.90999985    2.53999996
   15.50138855  135.11999512    4.90999985    2.53999996
   15.50416660  137.23800659    4.90999985    2.53999996
   15.50722218  133.40400696    4.90999985    2.53999996
   15.51055527  134.58299255    4.90999985    2.53999996
   15.51388931  143.14799500    4.90999985    2.53999996
   15.51694393  132.34399414    4.90999985    2.53999996
   15.52027798  137.62399292    4.90999985    2.53999996
   15.52638817  137.62399292    4.90999985    2.53999996
   15.53055573  132.40800476    4.90999985    2.53999996
   15.53361130  134.97099304    4.90999985    2.53999996
   15.53472233  139.37300110    4.90999985    2.53999996
   15.53750038  136.62300110    4.90999985    2.53999996
   15.54055595  136.93400574    4.90999985    2.53999996
   15.54388905  118.22699738    4.90999985    2.53999996
   15.54722309  127.35900116    4.90999985    2.53999996
   15.55027771  138.71499634    4.90999985    2.53999996
   15.55361176  138.96299744    4.90999985    2.53999996
   15.55694485  122.82099915    4.90999985    2.53999996
   15.56000042  133.66400146    4.90999985    2.53999996
   15.56333351  130.87500000    4.90999985    2.53999996
   15.56916618  130.87500000    4.90999985    2.53999996
   15.57333374  144.10299683    4.90999985    2.53999996
   15.57638836  130.84199524    4.90999985    2.53999996
   15.57972240  139.07299805    4.90999985    2.53999996
   15.58305550  148.07299805    4.90999985    2.53999996
   15.58611107  147.11099243    4.90999985    2.53999996
   15.58944416  138.86900330    4.90999985    2.53999996
   15.59277725  130.11300659    4.90999985    2.53999996
   15.59583282  137.08000183    4.90999985    2.53999996
   15.59916592  135.44599915    4.90999985    2.53999996
   15.60138893  151.70700073    4.90999985    2.53999996
   15.60277843  143.49000549    4.90999985    2.53999996
   15.60583401  148.08000183    4.90999985    2.53999996
   15.61194515  148.08000183    4.90999985    2.53999996
   15.61611176  136.72399902    4.90999985    2.53999996
   15.61944485  139.49400330    4.90999985    2.53999996
   15.62250042  140.53100586    4.90999985    2.53999996
   15.62583351  146.86700439    4.90999985    2.53999996
   15.62916660  143.36700439    4.90999985    2.53999996
   15.63222218  114.47599792    4.90999985    2.53999996
   15.63472176  137.83399963    4.90999985    2.53999996
   15.63611126  151.63200378    4.90999985    2.53999996
   15.63916683  137.97900391    4.90999985    2.53999996
   15.64249992  124.03199768    4.90999985    2.53999996
   15.64583302  128.64599609    4.90999985    2.53999996
   15.64888859  132.71600342    4.90999985    2.53999996
   15.65499973  132.71600342    4.90999985    2.53999996
   15.65888882  136.17500305    4.90999985    2.53999996
   15.66222191  131.30400085    4.90999985    2.53999996
   15.66555500  138.13600159    4.90999985    2.53999996
   15.66805553  134.85000610    4.90999985    2.53999996
   15.66916656  129.08399963    4.90999985    2.53999996
   15.67222214  125.27100372    4.90999985    2.53999996
   15.67555618  132.80200195    4.90999985    2.53999996
   15.67888927  142.73399353    4.90999985    2.53999996
   15.68194485  149.40499878    4.90999985    2.53999996
   15.68527794  129.63000488    4.90999985    2.53999996
   15.68833351  142.89399719    4.90999985    2.53999996
   15.69166660  149.39999390    4.90999985    2.53999996
   15.69777775  149.39999390    4.90999985    2.53999996
   15.70194435  144.68600464    4.90999985    2.53999996
   15.70499992  136.05099487    4.90999985    2.53999996
   15.70833302  139.11900330    4.90999985    2.53999996
   15.71166611  125.39099884    4.90999985    2.53999996
   15.71472168  142.01400757    4.90999985    2.53999996
   15.71805477  140.28900146    4.90999985    2.53999996
   15.72138882  133.39999390    4.90999985    2.53999996
   15.72444439  130.70700073    4.90999985    2.53999996
   15.72777748  132.94799805    4.90999985    2.53999996
   15.73083305  143.16700745    4.90999985    2.53999996
   15.73416710  140.08000183    4.90999985    2.53999996
   15.73472214  151.15600586    4.90999985    2.53999996
   15.74055576  151.15600586    4.90999985    2.53999996
   15.74472237  144.50900269    4.90999985    2.53999996
   15.74777794  148.66400146    4.90999985    2.53999996
   15.75111103  141.62100220    4.90999985    2.53999996
   15.75444412  137.31500244    4.90999985    2.53999996
   15.75749969  129.36599731    4.90999985    2.53999996
   15.76083374  135.32099915    4.90999985    2.53999996
   15.76416683  135.30900574    4.90999985    2.53999996
   15.76722240  132.94400024    4.90999985    2.53999996
   15.76805496  139.60200500    4.90999985    2.53999996
   15.77083302  136.96499634    4.90999985    2.53999996
   15.77388859  125.80500031    4.90999985    2.53999996
   15.77722168  135.65699768    4.90999985    2.53999996
   15.78333378  135.65699768    4.90999985    2.53999996
   15.78750038  137.10699463    4.90999985    2.53999996
   15.79083347  133.11500549    4.90999985    2.53999996
   15.79388905  140.80900574    4.90999985    2.53999996
   15.79722309  142.95700073    4.90999985    2.53999996
   15.80055618  147.68899536    4.90999985    2.53999996
   15.80138874  143.69900513    4.90999985    2.53999996
   15.80416679  136.26699829    4.90999985    2.53999996
   15.80722237  125.34799957    4.90999985    2.53999996
   15.81055546  139.23800659    4.90999985    2.53999996
   15.81388950  136.54800415    4.90999985    2.53999996
   15.81694412  134.26400757    4.90999985    2.53999996
   15.82027817  152.55200195    4.90999985    2.53999996
   15.82638836  152.55200195    4.90999985    2.53999996
   15.83027744  148.17799377    4.90999985    2.53999996
   15.83361053  149.77600098    4.90999985    2.53999996
   15.83472157  141.85000610    4.90999985    2.53999996
   15.83722210  139.84199524    4.90999985    2.53999996
   15.84027767  148.83999634    4.90999985    2.53999996
   15.84361076  137.49400330    4.90999985    2.53999996
   15.84694386  148.63999939    4.90999985    2.53999996
   15.85000038  134.93400574    4.90999985    2.53999996
   15.85333347  139.84300232    4.90999985    2.53999996
   15.85666752  157.23399353    4.90999985    2.53999996
   15.85972214  147.20700073    4.90999985    2.53999996
   15.86305618  146.60600281    4.90999985    2.53999996
   15.86916637  146.60600281    4.90999985    2.53999996
   15.87333393  148.05099487    4.90999985    2.53999996
   15.87638855  140.68200684    4.90999985    2.53999996
   15.87972260  148.36000061    4.90999985    2.53999996
   15.88305569  150.32099915    4.90999985    2.53999996
   15.88611126  168.72300720    4.90999985    2.53999996
   15.88944435  149.77600098    4.90999985    2.53999996
   15.89277744  150.86099243    4.90999985    2.53999996
   15.89583302  151.42999268    4.90999985    2.53999996
   15.89916611  159.97200012    4.90999985    2.53999996
   15.90138817  145.25799561    4.90999985    2.53999996
   15.90277767  148.11099243    4.90999985    2.53999996
   15.90611076  163.22900391    4.90999985    2.53999996
   15.91194439  163.22900391    4.90999985    2.53999996
   15.91611099  164.97799683    4.90999985    2.53999996
   15.91944504  158.36799622    4.90999985    2.53999996
   15.92250061  149.71600342    4.90999985    2.53999996
   15.92583370  174.30400085    4.90999985    2.53999996
   15.92916679  190.84199524    4.90999985    2.53999996
   15.93222237  215.65600586    4.90999985    2.53999996
   15.93472195  218.48899841    4.90999985    2.53999996
   15.93611145  209.43699646    4.90999985    2.53999996
   15.93944454  246.25599670    4.90999985    2.53999996
   15.94250011  296.88500977    4.90999985    2.53999996
   15.94583321  269.20599365    4.90999985    2.53999996
   15.94888878  262.68200684    4.90999985    2.53999996
   15.95472240  262.68200684    4.90999985    2.53999996
   15.95888901  280.44799805    4.90999985    2.53999996
   15.96222210  242.21499634    4.90999985    2.53999996
   15.96527767  258.17800903    4.90999985    2.53999996
   15.96805477  234.69299316    4.90999985    2.53999996
   15.96916580  232.93099976    4.90999985    2.53999996
   15.97249985  235.61599731    4.90999985    2.53999996
   15.97555542  222.90299988    4.90999985    2.53999996
   15.97888851  210.58000183    4.90999985    2.53999996
   15.98194408  234.02900696    4.90999985    2.53999996
   15.98527813  227.89900208    4.90999985    2.53999996
   15.98861122  221.93800354    4.90999985    2.53999996
   15.99166679  236.35000610    4.90999985    2.53999996
   15.99777794  236.35000610    4.90999985    2.53999996
   16.00194359  216.25900269    4.90999985    2.53999996
   16.00499916  199.89900208    4.90999985    2.53999996
   16.00833321  195.20500183    4.90999985    2.53999996
   16.01138878  192.58299255    4.90999985    2.53999996
   16.01472282  190.74400330    4.90999985    2.53999996
   16.01805496  180.75799561    4.90999985    2.53999996
   16.02111053  177.08299255    4.90999985    2.53999996
   16.02444458  178.06399536    4.90999985    2.53999996
   16.02777672  150.96499634    4.90999985    2.53999996
   16.03083229  169.91600037    4.90999985    2.53999996
   16.03416634  165.50700378    4.90999985    2.53999996
   16.03472137  176.99099731    4.90999985    2.53999996
   16.04055595  176.99099731    4.90999985    2.53999996
   16.04472160  197.35699463    4.90999985    2.53999996
   16.04777718  179.00999451    4.90999985    2.53999996
   16.05111122  182.21699524    4.90999985    2.53999996
   16.05416679  172.20599365    4.90999985    2.53999996
   16.05749893  153.93200684    4.90999985    2.53999996
   16.06083298  176.62699890    4.90999985    2.53999996
   16.06388855  187.14599609    4.90999985    2.53999996
   16.06722260  183.07499695    4.90999985    2.53999996
   16.06805611  191.74000549    4.90999985    2.53999996
   16.07083511  175.69400024    4.90999985    2.53999996
   16.07416725  149.17700195    4.90999985    2.53999996
   16.07722282  163.09100342    4.90999985    2.53999996
   16.08333397  163.09100342    4.90999985    2.53999996
   16.08750153  167.15699768    4.90999985    2.53999996
   16.09055710  148.22999573    4.90999985    2.53999996
   16.09388924  147.09399414    4.90999985    2.53999996
   16.09722328  143.59700012    4.90999985    2.53999996
   16.10055542  158.62100220    4.90999985    2.53999996
   16.10138893  169.26600647    4.90999985    2.53999996
   16.10416794  156.77400208    4.90999985    2.53999996
   16.10750008  165.17599487    4.90999985    2.53999996
   16.11055565  152.35000610    4.90999985    2.53999996
   16.11388969  125.11399841    4.90999985    2.53999996
   16.11722183  166.96000671    4.90999985    2.53999996
   16.12027740  149.04600525    4.90999985    2.53999996
   16.12611198  149.04600525    4.90999985    2.53999996
   16.13027763  149.25100708    4.90999985    2.53999996
   16.13361168  167.52299500    4.90999985    2.53999996
   16.13500023  134.21400452    4.90999985    2.53999996
   16.13750076  153.89799500    4.90999985    2.53999996
   16.14055634  136.83700562    4.90999985    2.53999996
   16.14388847  153.32099915    4.90999985    2.53999996
   16.14694405  132.79600525    4.90999985    2.53999996
   16.15027809  130.53500366    4.90999985    2.53999996
   16.15361023  152.55200195    4.90999985    2.53999996
   16.15666580  179.02099609    4.90999985    2.53999996
   16.15999985  130.80999756    4.90999985    2.53999996
   16.16333389  152.13000488    4.90999985    2.53999996
   16.16888809  152.13000488    4.90999985    2.53999996
   16.17305565  144.85899353    4.90999985    2.53999996
   16.17638779  132.62800598    4.90999985    2.53999996
   16.17972183  141.36700439    4.90999985    2.53999996
   16.18277740  166.15400696    4.90999985    2.53999996
   16.18610954  165.87100220    4.90999985    2.53999996
   16.18916512  131.91900635    4.90999985    2.53999996
   16.19249916  142.03500366    4.90999985    2.53999996
   16.19583321  145.49800110    4.90999985    2.53999996
   16.19888878  169.59599304    4.90999985    2.53999996
   16.20138931  150.92100525    4.90999985    2.53999996
   16.20250130  146.49499512    4.90999985    2.53999996
   16.20583344  146.11099243    4.90999985    2.53999996
   16.21194458  146.11099243    4.90999985    2.53999996
   16.21611214  153.05099487    4.90999985    2.53999996
   16.21916771  158.33099365    4.90999985    2.53999996
   16.22249985  138.78300476    4.90999985    2.53999996
   16.22583389  152.76199341    4.90999985    2.53999996
   16.22888947  154.69999695    4.90999985    2.53999996
   16.23222351  143.97399902    4.90999985    2.53999996
   16.23472214  153.97700500    4.90999985    2.53999996
   16.23583412  147.33700562    4.90999985    2.53999996
   16.23916626  136.01800537    4.90999985    2.53999996
   16.24222183  127.32399750    4.90999985    2.53999996
   16.24555588  151.25999451    4.90999985    2.53999996
   16.24888992  130.80999756    4.90999985    2.53999996
   16.25472260  130.80999756    4.90999985    2.53999996
   16.25888824  116.38200378    4.90999985    2.53999996
   16.26222229  149.64799500    4.90999985    2.53999996
   16.26527786  156.67799377    4.90999985    2.53999996
   16.26805496  135.39500427    4.90999985    2.53999996
   16.26888847  171.14399719    4.90999985    2.53999996
   16.27222252  161.84500122    4.90999985    2.53999996
   16.27527809  148.20100403    4.90999985    2.53999996
   16.27861023  188.42599487    4.90999985    2.53999996
   16.28194427  152.25799561    4.90999985    2.53999996
   16.28499985  154.52299500    4.90999985    2.53999996
   16.28833199  147.63400269    4.90999985    2.53999996
   16.29138756  154.25999451    4.90999985    2.53999996
   16.29749870  154.25999451    4.90999985    2.53999996
   16.30166626  160.35000610    4.90999985    2.53999996
   16.30499840  157.81700134    4.90999985    2.53999996
   16.30805397  143.12699890    4.90999985    2.53999996
   16.31138802  143.49600220    4.90999985    2.53999996
   16.31472206  156.96000671    4.90999985    2.53999996
   16.31777954  160.69599915    4.90999985    2.53999996
   16.32111168  158.67500305    4.90999985    2.53999996
   16.32444572  154.97000122    4.90999985    2.53999996
   16.32750130  144.17900085    4.90999985    2.53999996
   16.33083344  155.40499878    4.90999985    2.53999996
   16.33388901  161.87100220    4.90999985    2.53999996
   16.33472252  161.06199646    4.90999985    2.53999996
   16.35555649  161.06199646    4.90999985    2.53999996
   16.35972214  163.03199768    4.90999985    2.53999996
   16.36305618  137.83799744    4.90999985    2.53999996
   16.36638832  158.31799316    4.90999985    2.53999996
   16.36805534  182.99600220    4.90999985    2.53999996
   16.37000084  157.73500061    4.90999985    2.53999996
   16.37333298  160.20599365    4.90999985    2.53999996
   16.37638855  173.30700684    4.90999985    2.53999996
   16.37972260  163.14999390    4.90999985    2.53999996
   16.38305473  151.57200623    4.90999985    2.53999996
   16.38611031  173.97200012    4.90999985    2.53999996
   16.38944435  138.69599915    4.90999985    2.53999996
   16.39249992  168.09399414    4.90999985    2.53999996
   16.39833260  168.09399414    4.90999985    2.53999996
   16.40250015  162.91400146    4.90999985    2.53999996
   16.40555573  171.58000183    4.90999985    2.53999996
   16.40888786  191.47200012    4.90999985    2.53999996
   16.41222191  189.46000671    4.90999985    2.53999996
   16.41527748  179.78700256    4.90999985    2.53999996
   16.41860962  162.57699585    4.90999985    2.53999996
   16.42166519  181.79699707    4.90999985    2.53999996
   16.42499924  192.49899292    4.90999985    2.53999996
   16.42833328  161.06700134    4.90999985    2.53999996
   16.43138885  180.22999573    4.90999985    2.53999996
   16.43472099  161.81100464    4.90999985    2.53999996
   16.43527603  177.40800476    4.90999985    2.53999996
   16.44111061  177.40800476    4.90999985    2.53999996
   16.44527626  179.48599243    4.90999985    2.53999996
   16.44861031  153.62199402    4.90999985    2.53999996
   16.45166779  177.63099670    4.90999985    2.53999996
   16.45499992  165.63499451    4.90999985    2.53999996
   16.45833397  178.59300232    4.90999985    2.53999996
   16.46138954  166.43699646    4.90999985    2.53999996
   16.46472359  155.38499451    4.90999985    2.53999996
   16.46777916  149.21699524    4.90999985    2.53999996
   16.46861076  176.96699524    4.90999985    2.53999996
   16.47166634  148.43899536    4.90999985    2.53999996
   16.47472191  157.09500122    4.90999985    2.53999996
   16.47805595  150.91299438    4.90999985    2.53999996
   16.48388863  150.91299438    4.90999985    2.53999996
   16.48805618  154.22399902    4.90999985    2.53999996
   16.49138832  174.50500488    4.90999985    2.53999996
   16.49472237  139.92900085    4.90999985    2.53999996
   16.49777794  143.80099487    4.90999985    2.53999996
   16.50111198  150.65600586    4.90999985    2.53999996
   16.50194359  161.92399597    4.90999985    2.53999996
   16.50472260  129.34800720    4.90999985    2.53999996
   16.50777817  143.34100342    4.90999985    2.53999996
   16.51111031  172.99499512    4.90999985    2.53999996
   16.51416588  160.91000366    4.90999985    2.53999996
   16.51749992  173.60600281    4.90999985    2.53999996
   16.52083397  160.73199463    4.90999985    2.53999996
   16.52694511  160.73199463    4.90999985    2.53999996
   16.53083229  169.92399597    4.90999985    2.53999996
   16.53416634  160.41999817    4.90999985    2.53999996
   16.53527641  153.52200317    4.90999985    2.53999996
   16.53805542  170.36599731    4.90999985    2.53999996
   16.54111099  144.74299622    4.90999985    2.53999996
   16.54444313  154.59100342    4.90999985    2.53999996
   16.54749870  151.75300598    4.90999985    2.53999996
   16.55083275  164.07200623    4.90999985    2.53999996
   16.55416679  155.53399658    4.90999985    2.53999996
   16.55722237  180.87300110    4.90999985    2.53999996
   16.56055450  178.28500366    4.90999985    2.53999996
   16.56388855  163.48599243    4.90999985    2.53999996
   16.56972313  163.48599243    4.90999985    2.53999996
   16.57389069  152.49499512    4.90999985    2.53999996
   16.57694626  157.01499939    4.90999985    2.53999996
   16.58027840  167.60400391    4.90999985    2.53999996
   16.58361244  167.81900024    4.90999985    2.53999996
   16.58666801  163.98199463    4.90999985    2.53999996
   16.59000015  137.11000061    4.90999985    2.53999996
   16.59333420  161.87600708    4.90999985    2.53999996
   16.59638977  149.23399353    4.90999985    2.53999996
   16.59972191  153.75799561    4.90999985    2.53999996
   16.60194397  154.93699646    4.90999985    2.53999996
   16.60333443  130.34700012    4.90999985    2.53999996
   16.60639000  150.83700562    4.90999985    2.53999996
   16.61250114  150.83700562    4.90999985    2.53999996
   16.61666679  148.10800171    4.90999985    2.53999996
   16.62000084  171.14300537    4.90999985    2.53999996
   16.62305641  138.02799988    4.90999985    2.53999996
   16.62638855  141.56100464    4.90999985    2.53999996
   16.62972260  159.26100159    4.90999985    2.53999996
   16.63277817  135.81799316    4.90999985    2.53999996
   16.63527679  144.43600464    4.90999985    2.53999996
   16.63666725  142.43600464    4.90999985    2.53999996
   16.63972282  145.52200317    4.90999985    2.53999996
   16.64305496  125.92900085    4.90999985    2.53999996
   16.64638901  151.72200012    4.90999985    2.53999996
   16.64944458  157.65199280    4.90999985    2.53999996
   16.65527725  157.65199280    4.90999985    2.53999996
   16.65944481  146.42700195    4.90999985    2.53999996
   16.66277695  158.94299316    4.90999985    2.53999996
   16.66583252  149.56599426    4.90999985    2.53999996
   16.66860962  165.43899536    4.90999985    2.53999996
   16.66972160  139.76800537    4.90999985    2.53999996
   16.67277718  150.76899719    4.90999985    2.53999996
   16.67611122  138.75199890    4.90999985    2.53999996
   16.67944336  163.63099670    4.90999985    2.53999996
   16.68249893  146.36900330    4.90999985    2.53999996
   16.68583298  143.56199646    4.90999985    2.53999996
   16.68916512  160.60600281    4.90999985    2.53999996
   16.69222069  138.63299561    4.90999985    2.53999996
   16.69833183  138.63299561    4.90999985    2.53999996
   16.70222282  157.59500122    4.90999985    2.53999996
   16.70555687  161.01199341    4.90999985    2.53999996
   16.70888901  158.48300171    4.90999985    2.53999996
   16.71194458  150.21899414    4.90999985    2.53999996
   16.71527863  134.79800415    4.90999985    2.53999996
   16.71861076  155.73500061    4.90999985    2.53999996
   16.72166634  148.08099365    4.90999985    2.53999996
   16.72500038  132.22500610    4.90999985    2.53999996
   16.72833443  150.22500610    4.90999985    2.53999996
   16.73139000  150.84100342    4.90999985    2.53999996
   16.73472214  133.90299988    4.90999985    2.53999996
   16.73527718  146.12800598    4.90999985    2.53999996
   16.74111176  146.12800598    4.90999985    2.53999996
   16.74527740  134.09800720    4.90999985    2.53999996
   16.74833298  149.09599304    4.90999985    2.53999996
   16.75166702  138.52999878    4.90999985    2.53999996
   16.75499916  129.61599731    4.90999985    2.53999996
   16.75805473  133.59700012    4.90999985    2.53999996
   16.76138878  142.30499268    4.90999985    2.53999996
   16.76444435  145.29800415    4.90999985    2.53999996
   16.76777840  163.37800598    4.90999985    2.53999996
   16.76861000  128.70300293    4.90999985    2.53999996
   16.77138901  133.85299683    4.90999985    2.53999996
   16.77444458  152.95599365    4.90999985    2.53999996
   16.77777672  133.55099487    4.90999985    2.53999996
   16.78388786  133.55099487    4.90999985    2.53999996
   16.78805542  147.52099609    4.90999985    2.53999996
   16.79138756  138.41900635    4.90999985    2.53999996
   16.79444313  132.78900146    4.90999985    2.53999996
   16.79777718  142.36700439    4.90999985    2.53999996
   16.80111122  141.44799805    4.90999985    2.53999996
   16.80194283  133.46499634    4.90999985    2.53999996
   16.80472183  130.27799988    4.90999985    2.53999996
   16.80777740  134.56199646    4.90999985    2.53999996
   16.81110954  143.97799683    4.90999985    2.53999996
   16.81444359  146.46699524    4.90999985    2.53999996
   16.81750107  146.56799316    4.90999985    2.53999996
   16.82083511  159.27499390    4.90999985    2.53999996
   16.82666779  159.27499390    4.90999985    2.53999996
   16.83083344  136.88099670    4.90999985    2.53999996
   16.83416748  136.00799561    4.90999985    2.53999996
   16.83527756  151.93899536    4.90999985    2.53999996
   16.83777809  144.74099731    4.90999985    2.53999996
   16.84083366  128.30999756    4.90999985    2.53999996
   16.84416771  141.43299866    4.90999985    2.53999996
   16.84749985  147.97999573    4.90999985    2.53999996
   16.85055542  143.69599915    4.90999985    2.53999996
   16.85388947  139.40199280    4.90999985    2.53999996
   16.85722351  142.48100281    4.90999985    2.53999996
   16.86027908  150.31300354    4.90999985    2.53999996
   16.86361122  148.83999634    4.90999985    2.53999996
   16.86972237  148.83999634    4.90999985    2.53999996
   16.87361145  145.29299927    4.90999985    2.53999996
   16.87694550  134.77699280    4.90999985    2.53999996
   16.88027763  152.49299622    4.90999985    2.53999996
   16.88333321  168.98500061    4.90999985    2.53999996
   16.88666725  167.82600403    4.90999985    2.53999996
   16.88999939  173.47700500    4.90999985    2.53999996
   16.89305496  175.81500244    4.90999985    2.53999996
   16.89638901  197.61399841    4.90999985    2.53999996
   16.89944458  184.58299255    4.90999985    2.53999996
   16.90194321  164.46200562    4.90999985    2.53999996
   16.90333366  156.13699341    4.90999985    2.53999996
   16.90638924  155.46699524    4.90999985    2.53999996
   16.91250038  155.46699524    4.90999985    2.53999996
   16.91666603  144.73599243    4.90999985    2.53999996
   16.91972160  142.78500366    4.90999985    2.53999996
   16.92305565  151.88699341    4.90999985    2.53999996
   16.92638779  139.67799377    4.90999985    2.53999996
   16.92944336  138.66400146    4.90999985    2.53999996
   16.93277740  177.92999268    4.90999985    2.53999996
   16.93527603  145.63800049    4.90999985    2.53999996
   16.93638802  152.38200378    4.90999985    2.53999996
   16.93944359  165.20500183    4.90999985    2.53999996
   16.94277763  151.58700562    4.90999985    2.53999996
   16.94610977  158.99699402    4.90999985    2.53999996
   16.94916534  163.41799927    4.90999985    2.53999996
   16.95527840  163.41799927    4.90999985    2.53999996
   16.95944595  154.38999939    4.90999985    2.53999996
   16.96277809  162.72799683    4.90999985    2.53999996
   16.96583366  155.32800293    4.90999985    2.53999996
   16.96861076  149.82200623    4.90999985    2.53999996
   16.96972275  150.72999573    4.90999985    2.53999996
   16.97277832  153.33599854    4.90999985    2.53999996
   16.97611237  136.54200745    4.90999985    2.53999996
   16.97944450  136.88000488    4.90999985    2.53999996
   16.98250008  146.39799500    4.90999985    2.53999996
   16.98583412  146.18200684    4.90999985    2.53999996
   16.98916626  141.01499939    4.90999985    2.53999996
   16.99222183  142.13299561    4.90999985    2.53999996
   16.99805641  142.13299561    4.90999985    2.53999996
   17.00222206  129.99699402    4.90999985    2.53999996
   17.00555611  128.37100220    4.90999985    2.53999996
   17.00861168  135.02900696    4.90999985    2.53999996
   17.01194382  149.88499451    4.90999985    2.53999996
   17.01527786  160.28399658    4.90999985    2.53999996
   17.01833344  132.13000488    4.90999985    2.53999996
   17.02166557  127.58799744    4.90999985    2.53999996
   17.02499962  144.53399658    4.90999985    2.53999996
   17.02805519  138.78999329    4.90999985    2.53999996
   17.03166580  136.90800476    4.90999985    2.53999996
   17.03499985  117.84500122    4.90999985    2.53999996
   17.03555489  136.58900452    4.90999985    2.53999996
   17.04111099  136.58900452    4.90999985    2.53999996
   17.04527664  139.46000671    4.90999985    2.53999996
   17.04833221  137.76199341    4.90999985    2.53999996
   17.05166626  141.49899292    4.90999985    2.53999996
   17.05472183  131.14599609    4.90999985    2.53999996
   17.05805397  136.85400391    4.90999985    2.53999996
   17.06138802  132.92999268    4.90999985    2.53999996
   17.06444359  124.53199768    4.90999985    2.53999996
   17.06777954  133.19500732    4.90999985    2.53999996
   17.06888962  135.04800415    4.90999985    2.53999996
   17.07139015  128.07699585    4.90999985    2.53999996
   17.07472229  122.94200134    4.90999985    2.53999996
   17.07805634  140.33700562    4.90999985    2.53999996
   17.08388901  140.33700562    4.90999985    2.53999996
   17.08805656  128.31500244    4.90999985    2.53999996
   17.09111214  131.49400330    4.90999985    2.53999996
   17.09444427  137.21899414    4.90999985    2.53999996
   17.09777832  131.25599670    4.90999985    2.53999996
   17.10083389  142.17500305    4.90999985    2.53999996
   17.10222244  156.00300598    4.90999985    2.53999996
   17.10444450  146.55299377    4.90999985    2.53999996
   17.10777855  137.60499573    4.90999985    2.53999996
   17.11111069  142.68800354    4.90999985    2.53999996
   17.11416626  143.90899658    4.90999985    2.53999996
   17.11750031  148.28199768    4.90999985    2.53999996
   17.12055588  155.28100586    4.90999985    2.53999996
   17.12666702  155.28100586    4.90999985    2.53999996
   17.13083267  128.76899719    4.90999985    2.53999996
   17.13416672  152.27200317    4.90999985    2.53999996
   17.13555527  129.77299500    4.90999985    2.53999996
   17.13750076  143.60699463    4.90999985    2.53999996
   17.14083290  143.08900452    4.90999985    2.53999996
   17.14416695  137.49400330    4.90999985    2.53999996
   17.14722252  133.51300049    4.90999985    2.53999996
   17.15055466  146.46200562    4.90999985    2.53999996
   17.15361023  148.13400269    4.90999985    2.53999996
   17.15694427  143.51600647    4.90999985    2.53999996
   17.16027832  148.45700073    4.90999985    2.53999996
   17.16333389  139.77099609    4.90999985    2.53999996
   17.16944313  139.77099609    4.90999985    2.53999996
   17.17361069  133.23800659    4.90999985    2.53999996
   17.17694473  131.33099365    4.90999985    2.53999996
   17.18027687  130.75199890    4.90999985    2.53999996
   17.18333244  139.89999390    4.90999985    2.53999996
   17.18666649  127.36000061    4.90999985    2.53999996
   17.18999863  124.20999908    4.90999985    2.53999996
   17.19305420  138.95300293    4.90999985    2.53999996
   17.19638824  136.57600403    4.90999985    2.53999996
   17.19944382  139.01600647    4.90999985    2.53999996
   17.20222282  128.78900146    4.90999985    2.53999996
   17.20305634  137.60600281    4.90999985    2.53999996
   17.20639038  144.28799438    4.90999985    2.53999996
   17.21250153  144.28799438    4.90999985    2.53999996
   17.21638870  133.92799377    4.90999985    2.53999996
   17.21972275  137.44799805    4.90999985    2.53999996
   17.22305679  141.00100708    4.90999985    2.53999996
   17.22611237  144.85099792    4.90999985    2.53999996
   17.22944450  138.24299622    4.90999985    2.53999996
   17.23277855  141.82800293    4.90999985    2.53999996
   17.23555565  121.97399902    4.90999985    2.53999996
   17.23611069  140.92300415    4.90999985    2.53999996
   17.23944473  132.20500183    4.90999985    2.53999996
   17.24277878  131.68400574    4.90999985    2.53999996
   17.24583435  139.43899536    4.90999985    2.53999996
   17.24916649  138.14100647    4.90999985    2.53999996
   17.25527763  138.14100647    4.90999985    2.53999996
   17.25944519  146.14999390    4.90999985    2.53999996
   17.26250076  146.38000488    4.90999985    2.53999996
   17.26583290  143.74000549    4.90999985    2.53999996
   17.26888847  149.16200256    4.90999985    2.53999996
   17.26944351  140.74000549    4.90999985    2.53999996
   17.27277756  144.02999878    4.90999985    2.53999996
   17.27611160  134.72099304    4.90999985    2.53999996
   17.27944374  145.88499451    4.90999985    2.53999996
   17.28249931  143.42700195    4.90999985    2.53999996
   17.28583336  138.52299500    4.90999985    2.53999996
   17.28888893  132.49600220    4.90999985    2.53999996
   17.29222107  153.61900330    4.90999985    2.53999996
   17.29805565  153.61900330    4.90999985    2.53999996
   17.30222130  139.87500000    4.90999985    2.53999996
   17.30555534  131.23100281    4.90999985    2.53999996
   17.30861092  136.43699646    4.90999985    2.53999996
   17.31194305  146.18499756    4.90999985    2.53999996
   17.31499863  151.64700317    4.90999985    2.53999996
   17.31833458  142.75100708    4.90999985    2.53999996
   17.32166672  136.07299805    4.90999985    2.53999996
   17.32472229  139.38299561    4.90999985    2.53999996
   17.32805634  153.22200012    4.90999985    2.53999996
   17.33139038  141.64300537    4.90999985    2.53999996
   17.33444595  129.27299500    4.90999985    2.53999996
   17.33555603  144.04400635    4.90999985    2.53999996
   17.34083366  144.04400635    4.90999985    2.53999996
   17.34500122  139.99299622    4.90999985    2.53999996
   17.34833336  141.73800659    4.90999985    2.53999996
   17.35138893  147.94299316    4.90999985    2.53999996
   17.36916733  137.63299561    4.90999985    2.53999996
   17.37138939  152.65199280    4.90999985    2.53999996
   17.37472153  139.40299988    4.90999985    2.53999996
   17.37805557  132.08299255    4.90999985    2.53999996
   17.38388824  132.08299255    4.90999985    2.53999996
   17.38805580  138.47500610    4.90999985    2.53999996
   17.39138794  128.59700012    4.90999985    2.53999996
   17.39444351  132.92599487    4.90999985    2.53999996
   17.39777756  134.62399292    4.90999985    2.53999996
   17.40111160  136.93800354    4.90999985    2.53999996
   17.40222168  134.58000183    4.90999985    2.53999996
   17.40472221  143.08000183    4.90999985    2.53999996
   17.40805435  144.28399658    4.90999985    2.53999996
   17.41110992  140.08399963    4.90999985    2.53999996
   17.41444397  137.62899780    4.90999985    2.53999996
   17.41777802  142.53900146    4.90999985    2.53999996
   17.42083359  138.71600342    4.90999985    2.53999996
   17.42666626  138.71600342    4.90999985    2.53999996
   17.43083191  134.92900085    4.90999985    2.53999996
   17.43416595  158.45100403    4.90999985    2.53999996
   17.43555450  129.59800720    4.90999985    2.53999996
   17.43777657  150.58900452    4.90999985    2.53999996
   17.44111061  141.37899780    4.90999985    2.53999996
   17.44416618  139.23399353    4.90999985    2.53999996
   17.44749832  155.93899536    4.90999985    2.53999996
   17.45083427  130.74299622    4.90999985    2.53999996
   17.45388985  159.64599609    4.90999985    2.53999996
   17.45722389  142.63600159    4.90999985    2.53999996
   17.46111107  131.30200195    4.90999985    2.53999996
   17.46444511  151.04800415    4.90999985    2.53999996
   17.46972275  151.04800415    4.90999985    2.53999996
   17.47389030  133.63400269    4.90999985    2.53999996
   17.47694588  143.91499329    4.90999985    2.53999996
   17.48027802  136.14300537    4.90999985    2.53999996
   17.48333359  146.84500122    4.90999985    2.53999996
   17.48666763  156.07200623    4.90999985    2.53999996
   17.48999977  142.05200195    4.90999985    2.53999996
   17.49305534  149.94400024    4.90999985    2.53999996
   17.49638939  156.53199768    4.90999985    2.53999996
   17.49972153  164.53999329    4.90999985    2.53999996
   17.50250053  164.67300415    4.90999985    2.53999996
   17.50333405  150.29899597    4.90999985    2.53999996
   17.50666618  153.97300720    4.90999985    2.53999996
   17.51250076  153.97300720    4.90999985    2.53999996
   17.51666641  134.35600281    4.90999985    2.53999996
   17.51972198  138.22000122    4.90999985    2.53999996
   17.52305603  164.90299988    4.90999985    2.53999996
   17.52638817  150.12699890    4.90999985    2.53999996
   17.52944374  148.50799561    4.90999985    2.53999996
   17.53277779  175.83900452    4.90999985    2.53999996
   17.53583336  177.26600647    4.90999985    2.53999996
   17.53638840  154.08799744    4.90999985    2.53999996
   17.53972244  187.35600281    4.90999985    2.53999996
   17.54305458  172.97300720    4.90999985    2.53999996
   17.54611015  174.77499390    4.90999985    2.53999996
   17.54944420  165.56700134    4.90999985    2.53999996
   17.55527687  165.56700134    4.90999985    2.53999996
   17.55944443  154.30599976    4.90999985    2.53999996
   17.56277657  191.21099854    4.90999985    2.53999996
   17.56583214  177.58299255    4.90999985    2.53999996
   17.56916809  191.11000061    4.90999985    2.53999996
   17.56944466  143.68800354    4.90999985    2.53999996
   17.57277870  164.26899719    4.90999985    2.53999996
   17.57583427  188.18400574    4.90999985    2.53999996
   17.57916832  164.09399414    4.90999985    2.53999996
   17.58250046  165.64900208    4.90999985    2.53999996
   17.58555603  185.61900330    4.90999985    2.53999996
   17.58889008  164.45899963    4.90999985    2.53999996
   17.59222221  165.22799683    4.90999985    2.53999996
   17.59805679  165.22799683    4.90999985    2.53999996
   17.60250092  157.22300720    4.90999985    2.53999996
   17.60277748  125.24500275    4.90999985    2.53999996
   17.60611153  180.76699829    4.90999985    2.53999996
   17.60916710  146.73599243    4.90999985    2.53999996
   17.61250114  181.00999451    4.90999985    2.53999996
   17.61583328  141.62800598    4.90999985    2.53999996
   17.61888885  170.10699463    4.90999985    2.53999996
   17.62222290  165.24800110    4.90999985    2.53999996
   17.62555504  161.98300171    4.90999985    2.53999996
   17.62861061  160.39700317    4.90999985    2.53999996
   17.63194466  162.71299744    4.90999985    2.53999996
   17.63527679  156.20500183    4.90999985    2.53999996
   17.63583374  143.63900757    4.90999985    2.53999996
   17.64111137  143.63900757    4.90999985    2.53999996
   17.64527702  148.56799316    4.90999985    2.53999996
   17.64833260  166.48599243    4.90999985    2.53999996
   17.65166664  136.88299561    4.90999985    2.53999996
   17.65472221  143.60499573    4.90999985    2.53999996
   17.65805435  137.44999695    4.90999985    2.53999996
   17.66138840  139.77900696    4.90999985    2.53999996
   17.66444397  143.98899841    4.90999985    2.53999996
   17.66805458  135.75100708    4.90999985    2.53999996
   17.66916656  142.30999756    4.90999985    2.53999996
   17.67138863  134.81199646    4.90999985    2.53999996
   17.67472076  142.19500732    4.90999985    2.53999996
   17.67805481  142.78399658    4.90999985    2.53999996
   17.68388748  142.78399658    4.90999985    2.53999996
   17.68805504  132.73100281    4.90999985    2.53999996
   17.69111061  132.50599670    4.90999985    2.53999996
   17.69444275  129.14500427    4.90999985    2.53999996
   17.69777679  144.38900757    4.90999985    2.53999996
   17.70083427  138.65600586    4.90999985    2.53999996
   17.70250130  136.21400452    4.90999985    2.53999996
   17.70444489  132.84700012    4.90999985    2.53999996
   17.70777893  134.02900696    4.90999985    2.53999996
   17.71111107  144.30299377    4.90999985    2.53999996
   17.71416664  136.72300720    4.90999985    2.53999996
   17.71750069  134.08299255    4.90999985    2.53999996
   17.72055626  135.02400208    4.90999985    2.53999996
   17.72666740  135.02400208    4.90999985    2.53999996
   17.73083305  129.97399902    4.90999985    2.53999996
   17.73416710  127.13800049    4.90999985    2.53999996
   17.73583412  140.54600525    4.90999985    2.53999996
   17.73750114  142.63000488    4.90999985    2.53999996
   17.74083328  132.29400635    4.90999985    2.53999996
   17.74416733  138.43400574    4.90999985    2.53999996
   17.74722290  136.96499634    4.90999985    2.53999996
   17.75055504  140.75700378    4.90999985    2.53999996
   17.75361061  133.80299377    4.90999985    2.53999996
   17.75694466  136.66900635    4.90999985    2.53999996
   17.76027870  131.68499756    4.90999985    2.53999996
   17.76333427  130.75100708    4.90999985    2.53999996
   17.76944351  130.75100708    4.90999985    2.53999996
   17.77361107  128.87699890    4.90999985    2.53999996
   17.77694511  131.52299500    4.90999985    2.53999996
   17.78000069  135.83000183    4.90999985    2.53999996
   17.78333282  128.66499329    4.90999985    2.53999996
   17.78666687  132.89900208    4.90999985    2.53999996
   17.78972244  135.75900269    4.90999985    2.53999996
   17.79305458  139.58799744    4.90999985    2.53999996
   17.79638863  134.40199280    4.90999985    2.53999996
   17.79944420  144.07299805    4.90999985    2.53999996
   17.80249977  136.48100281    4.90999985    2.53999996
   17.80305481  139.53999329    4.90999985    2.53999996
   17.80638885  136.65699768    4.90999985    2.53999996
   17.81250000  136.65699768    4.90999985    2.53999996
   17.81638718  141.23599243    4.90999985    2.53999996
   17.81972313  141.41600037    4.90999985    2.53999996
   17.82305717  139.35099792    4.90999985    2.53999996
   17.82611275  137.85600281    4.90999985    2.53999996
   17.82944489  143.58599854    4.90999985    2.53999996
   17.83277893  135.45700073    4.90999985    2.53999996
   17.83583450  138.52000427    4.90999985    2.53999996
   17.83638954  130.74299622    4.90999985    2.53999996
   17.83972359  145.93600464    4.90999985    2.53999996
   17.84305573  139.38900757    4.90999985    2.53999996
   17.84611130  136.69099426    4.90999985    2.53999996
   17.84944534  137.94200134    4.90999985    2.53999996
   17.85527802  137.94200134    4.90999985    2.53999996
   17.85944557  137.82800293    4.90999985    2.53999996
   17.86250114  135.00500488    4.90999985    2.53999996
   17.86583328  123.94100189    4.90999985    2.53999996
   17.86916733  133.59899902    4.90999985    2.53999996
   17.86944389  129.83999634    4.90999985    2.53999996
   17.87277794  146.34800720    4.90999985    2.53999996
   17.87611198  134.86599731    4.90999985    2.53999996
   17.87916756  130.78599548    4.90999985    2.53999996
   17.88249969  128.03300476    4.90999985    2.53999996
   17.88555527  129.31100464    4.90999985    2.53999996
   17.88888931  136.49499512    4.90999985    2.53999996
   17.89222145  135.38099670    4.90999985    2.53999996
   17.89805603  135.38099670    4.90999985    2.53999996
   17.90222168  138.27099609    4.90999985    2.53999996
   17.90277672  143.84300232    4.90999985    2.53999996
   17.90611076  135.33999634    4.90999985    2.53999996
   17.90916634  131.40100098    4.90999985    2.53999996
   17.91250038  142.19299316    4.90999985    2.53999996
   17.91583252  144.70799255    4.90999985    2.53999996
   17.91888809  135.08200073    4.90999985    2.53999996
   17.92222214  139.64799500    4.90999985    2.53999996
   17.92527771  135.01899719    4.90999985    2.53999996
   17.92860985  141.94000244    4.90999985    2.53999996
   17.93194389  135.85099792    4.90999985    2.53999996
   17.93499947  143.10000610    4.90999985    2.53999996
   17.93610954  142.09599304    4.90999985    2.53999996
   17.94083214  142.09599304    4.90999985    2.53999996
   17.94499969  147.93299866    4.90999985    2.53999996
   17.94833183  141.13999939    4.90999985    2.53999996
   17.95138931  135.48199463    4.90999985    2.53999996
   17.95472336  147.25100708    4.90999985    2.53999996
   17.95805550  132.64900208    4.90999985    2.53999996
   17.96138954  135.61399841    4.90999985    2.53999996
   17.96444511  129.16900635    4.90999985    2.53999996
   17.96777916  137.35099792    4.90999985    2.53999996
   17.96944427  137.55900574    4.90999985    2.53999996
   17.97138977  136.89500427    4.90999985    2.53999996
   17.97444534  127.26100159    4.90999985    2.53999996
   17.97777748  135.58299255    4.90999985    2.53999996
   17.98388863  135.58299255    4.90999985    2.53999996
   17.98777771  136.07899475    4.90999985    2.53999996
   17.99111176  128.43400574    4.90999985    2.53999996
   17.99444389  140.14799500    4.90999985    2.53999996
   17.99749947  138.57699585    4.90999985    2.53999996
   18.00083351  128.03599548    4.90999985    2.53999996
   18.00277710  149.16099548    4.90999985    2.53999996
   18.00444412  141.72799683    4.90999985    2.53999996
   18.00749969  141.65800476    4.90999985    2.53999996
   18.01083374  144.38499451    4.90999985    2.53999996
   18.01388931  135.23100281    4.90999985    2.53999996
   18.01722145  137.25500488    4.90999985    2.53999996
   18.02055550  138.06599426    4.90999985    2.53999996
   18.02666664  138.06599426    4.90999985    2.53999996
   18.03083229  140.91000366    4.90999985    2.53999996
   18.03388786  127.33999634    4.90999985    2.53999996
   18.03610992  131.27200317    4.90999985    2.53999996
   18.03777695  133.97700500    4.90999985    2.53999996
   18.04083252  132.42700195    4.90999985    2.53999996
   18.04416656  137.98500061    4.90999985    2.53999996
   18.04749870  130.31100464    4.90999985    2.53999996
   18.05055428  131.60000610    4.90999985    2.53999996
   18.05388832  121.82299805    4.90999985    2.53999996
   18.05694389  128.85000610    4.90999985    2.53999996
   18.06027794  129.76100159    4.90999985    2.53999996
   18.06361008  134.00599670    4.90999985    2.53999996
   18.06944466  134.00599670    4.90999985    2.53999996
   18.07361221  129.99400330    4.90999985    2.53999996
   18.07694626  133.87899780    4.90999985    2.53999996
   18.08000183  136.49800110    4.90999985    2.53999996
   18.08333397  139.68499756    4.90999985    2.53999996
   18.08638954  133.33999634    4.90999985    2.53999996
   18.08972359  140.03199768    4.90999985    2.53999996
   18.09305573  138.71600342    4.90999985    2.53999996
   18.09611130  141.42700195    4.90999985    2.53999996
   18.09944534  144.35800171    4.90999985    2.53999996
   18.10277748  145.13200378    4.90999985    2.53999996
   18.10444450  137.83099365    4.90999985    2.53999996
   18.10639000  135.74200439    4.90999985    2.53999996
   18.11222267  135.74200439    4.90999985    2.53999996
   18.11638832  143.38099670    4.90999985    2.53999996
   18.11972237  133.76699829    4.90999985    2.53999996
   18.12305641  141.14199829    4.90999985    2.53999996
   18.12611198  144.65899658    4.90999985    2.53999996
   18.12944412  139.78199768    4.90999985    2.53999996
   18.13249969  144.03199768    4.90999985    2.53999996
   18.13583374  136.83099365    4.90999985    2.53999996
   18.13777733  139.04499817    4.90999985    2.53999996
   18.13944435  138.58299255    4.90999985    2.53999996
   18.14277840  136.41400146    4.90999985    2.53999996
   18.14583397  133.61500549    4.90999985    2.53999996
   18.14916611  134.79400635    4.90999985    2.53999996
   18.15527725  134.79400635    4.90999985    2.53999996
   18.15916634  134.63299561    4.90999985    2.53999996
   18.16250038  116.93499756    4.90999985    2.53999996
   18.16583252  116.78900146    4.90999985    2.53999996
   18.16888809  122.65100098    4.90999985    2.53999996
   18.17138863  125.85600281    4.90999985    2.53999996
   18.17277718  125.33499908    4.90999985    2.53999996
   18.17583275  111.29599762    4.90999985    2.53999996
   18.17916679  139.05900574    4.90999985    2.53999996
   18.18249893  128.12399292    4.90999985    2.53999996
   18.18555450  125.19000244    4.90999985    2.53999996
   18.18888855  121.14900208    4.90999985    2.53999996
   18.19222069  138.23100281    4.90999985    2.53999996
   18.19805527  138.23100281    4.90999985    2.53999996
   18.20222282  122.98200226    4.90999985    2.53999996
   18.20472336  131.46800232    4.90999985    2.53999996
   18.20583344  132.47099304    4.90999985    2.53999996
   18.20888901  135.69099426    4.90999985    2.53999996
   18.21222305  136.87800598    4.90999985    2.53999996
   18.21555710  130.56500244    4.90999985    2.53999996
   18.21861076  139.05499268    4.90999985    2.53999996
   18.22194481  131.67799377    4.90999985    2.53999996
   18.22500038  135.61500549    4.90999985    2.53999996
   18.22833443  136.60000610    4.90999985    2.53999996
   18.23166656  134.08200073    4.90999985    2.53999996
   18.23472214  134.08999634    4.90999985    2.53999996
   18.24083328  134.08999634    4.90999985    2.53999996
   18.24500084  142.08399963    4.90999985    2.53999996
   18.24833298  142.43400574    4.90999985    2.53999996
   18.25138855  133.18099976    4.90999985    2.53999996
   18.25472260  132.12300110    4.90999985    2.53999996
   18.25777817  131.70799255    4.90999985    2.53999996
   18.26111031  135.25799561    4.90999985    2.53999996
   18.26444435  133.46899414    4.90999985    2.53999996
   18.26749992  138.63999939    4.90999985    2.53999996
   18.27111053  136.27900696    4.90999985    2.53999996
   18.27166557  141.31300354    4.90999985    2.53999996
   18.27472115  138.41700745    4.90999985    2.53999996
   18.27805519  133.97200012    4.90999985    2.53999996
   18.28361130  133.97200012    4.90999985    2.53999996
   18.28777695  129.23300171    4.90999985    2.53999996
   18.29111099  137.70100403    4.90999985    2.53999996
   18.29444313  127.54599762    4.90999985    2.53999996
   18.29749870  126.60700226    4.90999985    2.53999996
   18.30083275  127.67800140    4.90999985    2.53999996
   18.30388832  126.00000000    4.90999985    2.53999996
   18.30499840  129.52900696    4.90999985    2.53999996
   18.30777740  128.74899292    4.90999985    2.53999996
   18.31110954  124.59300232    4.90999985    2.53999996
   18.31416512  135.81399536    4.90999985    2.53999996
   18.31750107  131.88699341    4.90999985    2.53999996
   18.32083511  135.01400757    4.90999985    2.53999996
   18.32666779  135.01400757    4.90999985    2.53999996
   18.33055687  131.22500610    4.90999985    2.53999996
   18.33388901  128.07000732    4.90999985    2.53999996
   18.33722305  134.66400146    4.90999985    2.53999996
   18.33861160  134.68899536    4.90999985    2.53999996
   18.34083366  132.64799500    4.90999985    2.53999996
   18.34388924  137.84599304    4.90999985    2.53999996
   18.34722328  134.83599854    4.90999985    2.53999996
   18.35055542  134.13200378    4.90999985    2.53999996
   18.35361099  131.64799500    4.90999985    2.53999996
   18.35694504  130.14900208    4.90999985    2.53999996
   18.36027908  131.85099792    4.90999985    2.53999996
   18.36333466  133.77900696    4.90999985    2.53999996
   18.36944389  133.77900696    4.90999985    2.53999996
   18.38777733  134.73800659    4.90999985    2.53999996
   18.39111137  131.17500305    4.90999985    2.53999996
   18.39416695  130.63200378    4.90999985    2.53999996
   18.39749908  126.46900177    4.90999985    2.53999996
   18.40083313  130.61999512    4.90999985    2.53999996
   18.40388870  133.69500732    4.90999985    2.53999996
   18.40722275  132.38400269    4.90999985    2.53999996
   18.41250038  132.38400269    4.90999985    2.53999996
   18.41666603  134.50300598    4.90999985    2.53999996
   18.42000008  130.73599243    4.90999985    2.53999996
   18.42083359  133.52000427    4.90999985    2.53999996
   18.42361069  135.25300598    4.90999985    2.53999996
   18.42666626  137.98399353    4.90999985    2.53999996
   18.43000031  140.35699463    4.90999985    2.53999996
   18.43333244  135.85600281    4.90999985    2.53999996
   18.43638802  136.60499573    4.90999985    2.53999996
   18.43972206  136.62600708    4.90999985    2.53999996
   18.44277763  144.06300354    4.90999985    2.53999996
   18.44610977  128.43499756    4.90999985    2.53999996
   18.44944382  137.17799377    4.90999985    2.53999996
   18.45527840  137.17799377    4.90999985    2.53999996
   18.45944595  130.37100220    4.90999985    2.53999996
   18.46277809  129.03999329    4.90999985    2.53999996
   18.46583366  133.35400391    4.90999985    2.53999996
   18.46916771  132.14199829    4.90999985    2.53999996
   18.47249985  133.27600098    4.90999985    2.53999996
   18.47555542  134.43699646    4.90999985    2.53999996
   18.47888947  131.96299744    4.90999985    2.53999996
   18.48194504  132.72900391    4.90999985    2.53999996
   18.48527718  131.14900208    4.90999985    2.53999996
   18.48750114  133.68400574    4.90999985    2.53999996
   18.48888969  131.03100586    4.90999985    2.53999996
   18.49194527  129.87699890    4.90999985    2.53999996
   18.49833298  129.87699890    4.90999985    2.53999996
   18.50222206  130.42700195    4.90999985    2.53999996
   18.50555611  130.67900085    4.90999985    2.53999996
   18.50888824  127.31600189    4.90999985    2.53999996
   18.51194382  130.32099915    4.90999985    2.53999996
   18.51527786  134.73399353    4.90999985    2.53999996
   18.51861000  137.86599731    4.90999985    2.53999996
   18.52083397  132.58299255    4.90999985    2.53999996
   18.52222252  134.19299316    4.90999985    2.53999996
   18.52527809  132.11500549    4.90999985    2.53999996
   18.52861023  132.15600586    4.90999985    2.53999996
   18.53194427  134.71000671    4.90999985    2.53999996
   18.53499985  129.58900452    4.90999985    2.53999996
   18.54111099  129.58900452    4.90999985    2.53999996
   18.54527664  135.20100403    4.90999985    2.53999996
   18.54833221  125.79499817    4.90999985    2.53999996
   18.55166626  135.50700378    4.90999985    2.53999996
   18.55416679  132.32800293    4.90999985    2.53999996
   18.55527687  133.88299561    4.90999985    2.53999996
   18.55833244  137.55400085    4.90999985    2.53999996
   18.56166649  135.96800232    4.90999985    2.53999996
   18.56499863  132.41299438    4.90999985    2.53999996
   18.56805611  136.62600708    4.90999985    2.53999996
   18.57139015  136.00599670    4.90999985    2.53999996
   18.57472229  136.82099915    4.90999985    2.53999996
   18.57777786  147.16900635    4.90999985    2.53999996
   18.58388901  147.16900635    4.90999985    2.53999996
   18.58805656  134.41099548    4.90999985    2.53999996
   18.59111214  133.60800171    4.90999985    2.53999996
   18.59444427  138.33700562    4.90999985    2.53999996
   18.59777832  148.28399658    4.90999985    2.53999996
   18.60111237  136.69299316    4.90999985    2.53999996
   18.60416794  137.77099609    4.90999985    2.53999996
   18.60750008  132.85000610    4.90999985    2.53999996
   18.61083412  141.68499756    4.90999985    2.53999996
   18.61388969  138.95399475    4.90999985    2.53999996
   18.61722183  134.66700745    4.90999985    2.53999996
   18.62055588  132.83999634    4.90999985    2.53999996
   18.62111092  128.53700256    4.90999985    2.53999996
   18.62666702  128.53700256    4.90999985    2.53999996
   18.63083267  142.88000488    4.90999985    2.53999996
   18.63416672  142.66900635    4.90999985    2.53999996
   18.63722229  149.17500305    4.90999985    2.53999996
   18.64055634  146.01400757    4.90999985    2.53999996
   18.64388847  144.05999756    4.90999985    2.53999996
   18.64694405  135.98599243    4.90999985    2.53999996
   18.65027809  135.35600281    4.90999985    2.53999996
   18.65361023  147.49299622    4.90999985    2.53999996
   18.65444374  143.40699768    4.90999985    2.53999996
   18.65694427  142.80099487    4.90999985    2.53999996
   18.66027832  137.01699829    4.90999985    2.53999996
   18.66361046  133.14799500    4.90999985    2.53999996
   18.66944313  133.14799500    4.90999985    2.53999996
   18.67361069  136.81599426    4.90999985    2.53999996
   18.67694473  132.13600159    4.90999985    2.53999996
   18.68027687  131.46699524    4.90999985    2.53999996
   18.68333244  134.19000244    4.90999985    2.53999996
   18.68666649  139.76699829    4.90999985    2.53999996
   18.68777657  138.67500305    4.90999985    2.53999996
   18.69027710  141.23500061    4.90999985    2.53999996
   18.69361115  154.04699707    4.90999985    2.53999996
   18.69694328  153.93200684    4.90999985    2.53999996
   18.70000076  143.95700073    4.90999985    2.53999996
   18.70333481  136.58799744    4.90999985    2.53999996
   18.70639038  137.60099792    4.90999985    2.53999996
   18.71250153  137.60099792    4.90999985    2.53999996
   18.71666718  135.93400574    4.90999985    2.53999996
   18.71972275  135.15299988    4.90999985    2.53999996
   18.72111130  135.96899414    4.90999985    2.53999996
   18.72333336  134.79400635    4.90999985    2.53999996
   18.72666740  136.60699463    4.90999985    2.53999996
   18.73000145  138.39500427    4.90999985    2.53999996
   18.73305511  140.50599670    4.90999985    2.53999996
   18.73638916  143.06799316    4.90999985    2.53999996
   18.73972321  132.05799866    4.90999985    2.53999996
   18.74277878  143.26699829    4.90999985    2.53999996
   18.74611092  156.74099731    4.90999985    2.53999996
   18.74916649  156.60400391    4.90999985    2.53999996
   18.75527763  156.60400391    4.90999985    2.53999996
   18.75944519  141.64500427    4.90999985    2.53999996
   18.76250076  141.07400513    4.90999985    2.53999996
   18.76583290  136.29400635    4.90999985    2.53999996
   18.76916695  134.91099548    4.90999985    2.53999996
   18.77222252  131.41000366    4.90999985    2.53999996
   18.77555466  130.99200439    4.90999985    2.53999996
   18.77888870  128.19799805    4.90999985    2.53999996
   18.78194427  143.53399658    4.90999985    2.53999996
   18.78527641  140.44000244    4.90999985    2.53999996
   18.78777695  157.02799988    4.90999985    2.53999996
   18.78888893  174.73599243    4.90999985    2.53999996
   18.79222107  136.83200073    4.90999985    2.53999996
   18.79805565  136.83200073    4.90999985    2.53999996
   18.80222130  155.92799377    4.90999985    2.53999996
   18.80555534  138.45700073    4.90999985    2.53999996
   18.80861092  141.73500061    4.90999985    2.53999996
   18.81194305  138.15499878    4.90999985    2.53999996
   18.81527710  147.98899841    4.90999985    2.53999996
   18.81833458  151.87699890    4.90999985    2.53999996
   18.82111168  146.52900696    4.90999985    2.53999996
   18.82194519  194.35499573    4.90999985    2.53999996
   18.82527924  137.06300354    4.90999985    2.53999996
   18.82861137  180.27900696    4.90999985    2.53999996
   18.83166695  145.46000671    4.90999985    2.53999996
   18.83500099  149.28999329    4.90999985    2.53999996
   18.84083366  149.28999329    4.90999985    2.53999996
   18.84500122  149.30999756    4.90999985    2.53999996
   18.84833336  171.48599243    4.90999985    2.53999996
   18.85166740  174.44799805    4.90999985    2.53999996
   18.85444450  157.59700012    4.90999985    2.53999996
   18.85499954  145.14799500    4.90999985    2.53999996
   18.85833359  156.78799438    4.90999985    2.53999996
   18.86166763  162.35200500    4.90999985    2.53999996
   18.86472321  135.96499634    4.90999985    2.53999996
   18.86805534  135.14799500    4.90999985    2.53999996
   18.87138939  159.23599243    4.90999985    2.53999996
   18.87444496  156.50199890    4.90999985    2.53999996
   18.87777710  139.02299500    4.90999985    2.53999996
   18.88388824  139.02299500    4.90999985    2.53999996
   18.88805580  147.33500671    4.90999985    2.53999996
   18.89111137  158.97200012    4.90999985    2.53999996
   18.89444351  142.77200317    4.90999985    2.53999996
   18.89777756  153.60800171    4.90999985    2.53999996
   18.90083313  146.26899719    4.90999985    2.53999996
   18.90416718  153.97399902    4.90999985    2.53999996
   18.90722275  157.16700745    4.90999985    2.53999996
   18.91055489  147.50199890    4.90999985    2.53999996
   18.91388893  150.27499390    4.90999985    2.53999996
   18.91694450  162.87899780    4.90999985    2.53999996
   18.92027664  161.46600342    4.90999985    2.53999996
   18.92111015  183.17500305    4.90999985    2.53999996
   18.92666626  183.17500305    4.90999985    2.53999996
   18.93083191  168.32600403    4.90999985    2.53999996
   18.93388748  185.27499390    4.90999985    2.53999996
   18.93722153  156.82400513    4.90999985    2.53999996
   18.94055557  167.83999634    4.90999985    2.53999996
   18.94361115  149.46099854    4.90999985    2.53999996
   18.94694328  149.19999695    4.90999985    2.53999996
   18.95027924  145.84599304    4.90999985    2.53999996
   18.95333481  145.55000305    4.90999985    2.53999996
   18.95444489  154.65699768    4.90999985    2.53999996
   18.95694542  148.07200623    4.90999985    2.53999996
   18.96027946  173.15899658    4.90999985    2.53999996
   18.96361160  140.44400024    4.90999985    2.53999996
   18.96944427  140.44400024    4.90999985    2.53999996
   18.97361183  158.11799622    4.90999985    2.53999996
   18.97694588  146.40499878    4.90999985    2.53999996
   18.98000145  161.50000000    4.90999985    2.53999996
   18.98333359  213.90299988    4.90999985    2.53999996
   18.98666763  194.52699280    4.90999985    2.53999996
   18.98777771  217.78599548    4.90999985    2.53999996
   18.98999977  166.81799316    4.90999985    2.53999996
   18.99333382  220.71299744    4.90999985    2.53999996
   18.99666786  166.93800354    4.90999985    2.53999996
   18.99972153  170.22999573    4.90999985    2.53999996
   19.00305557  161.46299744    4.90999985    2.53999996
   19.00638962  188.40800476    4.90999985    2.53999996
   19.01222229  188.40800476    4.90999985    2.53999996
   19.01638794  134.34399414    4.90999985    2.53999996
   19.01972198  156.53500366    4.90999985    2.53999996
   19.02111053  178.26800537    4.90999985    2.53999996
   19.02333260  177.69700623    4.90999985    2.53999996
   19.02666664  238.81700134    4.90999985    2.53999996
   19.03000069  206.32000732    4.90999985    2.53999996
   19.03305435  164.02499390    4.90999985    2.53999996
   19.03638840  177.92999268    4.90999985    2.53999996
   19.03972244  164.58099365    4.90999985    2.53999996
   19.04277802  175.70500183    4.90999985    2.53999996
   19.04611015  190.25799561    4.90999985    2.53999996
   19.04916573  177.06100464    4.90999985    2.53999996
   19.05527687  177.06100464    4.90999985    2.53999996
   19.05944443  213.39300537    4.90999985    2.53999996
   19.06250000  221.85699463    4.90999985    2.53999996
   19.06583214  305.47799683    4.90999985    2.53999996
   19.06888962  241.70300293    4.90999985    2.53999996
   19.07222366  307.90200806    4.90999985    2.53999996
   19.07555580  152.11799622    4.90999985    2.53999996
   19.07861137   97.59649658    4.90999985    2.53999996
   19.08194542  390.85598755    4.90999985    2.53999996
   19.08388901  406.73300171    4.90999985    2.53999996
   19.08527756  409.63198853    4.90999985    2.53999996
   19.08666801  105.02899933    4.90999985    2.53999996
   19.08666801  241.70300293    4.90999985    2.53999996
   19.08694458  307.90200806    4.90999985    2.53999996
   19.08694458  152.11799622    4.90999985    2.53999996
   19.08694458   97.59649658    4.90999985    2.53999996
   19.08722305  390.85598755    4.90999985    2.53999996
   19.08722305  177.06100464    4.90999985    2.53999996
   19.08722305  213.39300537    4.90999985    2.53999996
   19.08750153  221.85699463    4.90999985    2.53999996
   19.08750153  305.47799683    4.90999985    2.53999996
   19.08805656   -1.00000000   -1.00000000   -1.00000000
   19.09138870   -1.00000000    4.90999985    2.53999996
   19.09444427   71.94080353    4.90999985    2.53999996
   19.09777832   -1.00000000    4.90999985    2.53999996
   19.10083389   -1.00000000    4.90999985    2.53999996
   19.10750008   -1.00000000    4.90999985    2.53999996
   19.11166763   -1.00000000    4.90999985    2.53999996
   19.11472321   -1.00000000    4.90999985    2.53999996
   19.11805534   -1.00000000    4.90999985    2.53999996
   19.12166595   -1.00000000    4.90999985    2.53999996
   19.12500000   -1.00000000    4.90999985    2.53999996
   19.12805557   -1.00000000    4.90999985    2.53999996
   19.13138962   -1.00000000    4.90999985    2.53999996
   19.13472176   -1.00000000    4.90999985    2.53999996
   19.13777733   -1.00000000    4.90999985    2.53999996
   19.14111137   -1.00000000    4.90999985    2.53999996
   19.14416695   -1.00000000    4.90999985    2.53999996
   19.15027809   -1.00000000    4.90999985    2.53999996
   19.15444374   -1.00000000    4.90999985    2.53999996
   19.15777779   -1.00000000    4.90999985    2.53999996
   19.16083336   -1.00000000    4.90999985    2.53999996
   19.16416550   -1.00000000    4.90999985    2.53999996
   19.16722107   -1.00000000    4.90999985    2.53999996
   19.17055511   -1.00000000    4.90999985    2.53999996
   19.17388916   -1.00000000    4.90999985    2.53999996
   19.17694473   -1.00000000    4.90999985    2.53999996
   19.18027687   -1.00000000    4.90999985    2.53999996
   19.18361092   -1.00000000    4.90999985    2.53999996
   19.18666649   -1.00000000    4.90999985    2.53999996
   19.19305420   -1.00000000    4.90999985    2.53999996
   19.19722176   -1.00000000    4.90999985    2.53999996
   19.20055580   -1.00000000    4.90999985    2.53999996
   19.20361137   -1.00000000    4.90999985    2.53999996
   19.20694542   -1.00000000    4.90999985    2.53999996
   19.21027946   -1.00000000    4.90999985    2.53999996
   19.21333504   -1.00000000    4.90999985    2.53999996
   19.21666718   -1.00000000    4.90999985    2.53999996
   19.21972275   -1.00000000    4.90999985    2.53999996
   19.22333336   -1.00000000    4.90999985    2.53999996
   19.22666740   -1.00000000    4.90999985    2.53999996
   19.23000145   -1.00000000    4.90999985    2.53999996
   19.23999977   -1.00000000    4.90999985    2.53999996
   19.24333382   -1.00000000    4.90999985    2.53999996
   19.24638939   -1.00000000    4.90999985    2.53999996
   19.24972153   -1.00000000    4.90999985    2.53999996
   19.25305557   -1.00000000    4.90999985    2.53999996
   19.25666618   -1.00000000    4.90999985    2.53999996
   19.25972176   -1.00000000    4.90999985    2.53999996
   19.26305580   -1.00000000    4.90999985    2.53999996
   19.26611137   -1.00000000    4.90999985    2.53999996
   19.26944351   -1.00000000    4.90999985    2.53999996
   19.27277756   -1.00000000    4.90999985    2.53999996
   19.28277779   -1.00000000    4.90999985    2.53999996
   19.28610992   -1.00000000    4.90999985    2.53999996
   19.28972244   -1.00000000    4.90999985    2.53999996
   19.29277802   -1.00000000    4.90999985    2.53999996
   19.29611015   -1.00000000    4.90999985    2.53999996
   19.29916573   -1.00000000    4.90999985    2.53999996
   19.30249977   -1.00000000    4.90999985    2.53999996
   19.30583191   -1.00000000    4.90999985    2.53999996
   19.30888748   -1.00000000    4.90999985    2.53999996
   19.31222153   -1.00000000    4.90999985    2.53999996
   19.31555557   -1.00000000    4.90999985    2.53999996
   19.32583427   -1.00000000    4.90999985    2.53999996
   19.32888985   -1.00000000    4.90999985    2.53999996
   19.33222389   -1.00000000    4.90999985    2.53999996
   19.33527756   -1.00000000    4.90999985    2.53999996
   19.33861160   -1.00000000    4.90999985    2.53999996
   19.34194565   -1.00000000    4.90999985    2.53999996
   19.34500122   -1.00000000    4.90999985    2.53999996
   19.34833336   -1.00000000    4.90999985    2.53999996
   19.35166740   -1.00000000    4.90999985    2.53999996
   19.35499954   -1.00000000    4.90999985    2.53999996
   19.35833359   -1.00000000    4.90999985    2.53999996
   19.36444473   -1.00000000    4.90999985    2.53999996
   19.36861038   -1.00000000    4.90999985    2.53999996
   19.37194443   -1.00000000    4.90999985    2.53999996
   19.37500000   -1.00000000    4.90999985    2.53999996
   19.37833405   -1.00000000    4.90999985    2.53999996
   19.38166618   -1.00000000    4.90999985    2.53999996
   19.38472176   -1.00000000    4.90999985    2.53999996
   19.40472221  194.34199524    4.90999985    2.53999996
   19.40861130  194.34199524    4.90999985    2.53999996
   19.41277695  167.40600586    4.90999985    2.53999996
   19.41611099  158.05400085    4.90999985    2.53999996
   19.41944313  153.50900269    4.90999985    2.53999996
   19.42083359  156.98699951    4.90999985    2.53999996
   19.42305565  157.08000183    4.90999985    2.53999996
   19.42611122  149.80000305    4.90999985    2.53999996
   19.42944336  141.66700745    4.90999985    2.53999996
   19.43249893  153.03900146    4.90999985    2.53999996
   19.43583298  150.89300537    4.90999985    2.53999996
   19.43916512  155.00900269    4.90999985    2.53999996
   19.44222069  150.30799866    4.90999985    2.53999996
   19.44555473  151.78799438    4.90999985    2.53999996
   19.45166779  151.78799438    4.90999985    2.53999996
   19.45583344  153.10800171    4.90999985    2.53999996
   19.45888901  148.51199341    4.90999985    2.53999996
   19.46222305  151.42399597    4.90999985    2.53999996
   19.46527863  156.28300476    4.90999985    2.53999996
   19.46861076  155.24899292    4.90999985    2.53999996
   19.47194481  156.41900635    4.90999985    2.53999996
   19.47500038  153.11300659    4.90999985    2.53999996
   19.47833443  180.26699829    4.90999985    2.53999996
   19.48166656  213.94700623    4.90999985    2.53999996
   19.48472214  202.53300476    4.90999985    2.53999996
   19.48750114  297.34500122    4.90999985    2.53999996
   19.48861122  271.65899658    4.90999985    2.53999996
   19.49444389  271.65899658    4.90999985    2.53999996
   19.49861145   -1.00000000    4.90999985    2.53999996
   19.50166702   -1.00000000    4.90999985    2.53999996
   19.50499916   -1.00000000    4.90999985    2.53999996
   19.50833321   -1.00000000    4.90999985    2.53999996
   19.51138878  254.82699585    4.90999985    2.53999996
   19.51472282  187.92500305    4.90999985    2.53999996
   19.51805496  159.91499329    4.90999985    2.53999996
   19.52083397  163.30000305    4.90999985    2.53999996
   19.52166557  136.43200684    4.90999985    2.53999996
   19.52472115  152.03300476    4.90999985    2.53999996
   19.52805519  157.38499451    4.90999985    2.53999996
   19.53138924  174.47799683    4.90999985    2.53999996
   19.53722191  174.47799683    4.90999985    2.53999996
   19.54138756  209.15199280    4.90999985    2.53999996
   19.54472160  286.33700562    4.90999985    2.53999996
   19.54777718  115.83100128    4.90999985    2.53999996
   19.55111122   -1.00000000    4.90999985    2.53999996
   19.55444336   -1.00000000    4.90999985    2.53999996
   19.55777740   -1.00000000    4.90999985    2.53999996
   19.56110954   -1.00000000    4.90999985    2.53999996
   19.56416512   -1.00000000    4.90999985    2.53999996
   19.56750107   -1.00000000    4.90999985    2.53999996
   19.57055664   -1.00000000    4.90999985    2.53999996
   19.57389069   -1.00000000    4.90999985    2.53999996
   19.58000183   -1.00000000    4.90999985    2.53999996
   19.58416748  151.29600525    4.90999985    2.53999996
   19.58750153  150.87699890    4.90999985    2.53999996
   19.58805656  152.74699402    4.90999985    2.53999996
   19.59111214  149.93600464    4.90999985    2.53999996
   19.59444427  149.77200317    4.90999985    2.53999996
   19.59777832  170.82400513    4.90999985    2.53999996
   19.60083389  157.77000427    4.90999985    2.53999996
   19.60416794  170.63699341    4.90999985    2.53999996
   19.60722351  161.12899780    4.90999985    2.53999996
   19.61055565  156.21499634    4.90999985    2.53999996
   19.61388969  159.44200134    4.90999985    2.53999996
   19.61694527  167.12899780    4.90999985    2.53999996
   19.62305641  167.12899780    4.90999985    2.53999996
   19.62722206  197.41499329    4.90999985    2.53999996
   19.63027763  164.42999268    4.90999985    2.53999996
   19.63361168  160.73100281    4.90999985    2.53999996
   19.63666725  154.50500488    4.90999985    2.53999996
   19.63999939  151.13000488    4.90999985    2.53999996
   19.64333344  154.99000549    4.90999985    2.53999996
   19.64638901  155.62699890    4.90999985    2.53999996
   19.64972115  153.67199707    4.90999985    2.53999996
   19.65277672  154.87500000    4.90999985    2.53999996
   19.65416718  146.85499573    4.90999985    2.53999996
   19.65666580  159.06799316    4.90999985    2.53999996
   19.65972137  159.50199890    4.90999985    2.53999996
   19.66583252  159.50199890    4.90999985    2.53999996
   19.67000008  162.01400757    4.90999985    2.53999996
   19.67305565  151.78100586    4.90999985    2.53999996
   19.67638779  153.86000061    4.90999985    2.53999996
   19.67972183  155.09199524    4.90999985    2.53999996
   19.68277740  156.81900024    4.90999985    2.53999996
   19.68610954  162.54800415    4.90999985    2.53999996
   19.68750000  167.54600525    4.90999985    2.53999996
   19.68972206  160.50199890    4.90999985    2.53999996
   19.69277763  163.55400085    4.90999985    2.53999996
   19.69610977  174.12600708    4.90999985    2.53999996
   19.69944382  162.44599915    4.90999985    2.53999996
   19.70250130  154.54200745    4.90999985    2.53999996
   19.70861244  154.54200745    4.90999985    2.53999996
   19.71277809  154.84199524    4.90999985    2.53999996
   19.71611214  155.37199402    4.90999985    2.53999996
   19.71916771  151.69000244    4.90999985    2.53999996
   19.72111130  152.85800171    4.90999985    2.53999996
   19.72305679  153.78199768    4.90999985    2.53999996
   19.72611237  155.35299683    4.90999985    2.53999996
   19.72944450  156.46899414    4.90999985    2.53999996
   19.73250008  169.50700378    4.90999985    2.53999996
   19.73583412  175.88299561    4.90999985    2.53999996
   19.73916626  187.90100098    4.90999985    2.53999996
   19.74222183  235.15600586    4.90999985    2.53999996
   19.74555588  245.06500244    4.90999985    2.53999996
   19.75138855  245.06500244    4.90999985    2.53999996
   19.75555611  104.54299927    4.90999985    2.53999996
   19.75888824  115.95800018    4.90999985    2.53999996
   19.76222229   85.07779694    4.90999985    2.53999996
   19.76527786  137.45199585    4.90999985    2.53999996
   19.76861000  108.18800354    4.90999985    2.53999996
   19.77166557  145.00999451    4.90999985    2.53999996
   19.77499962  116.69100189    4.90999985    2.53999996
   19.77833366  130.21099854    4.90999985    2.53999996
   19.78138924  113.53700256    4.90999985    2.53999996
   19.78472137   50.28860092    4.90999985    2.53999996
   19.78777695   49.47209930    4.90999985    2.53999996
   19.78833199   37.17459869    4.90999985    2.53999996
   19.79444313   37.17459869    4.90999985    2.53999996
   19.79861069   -1.00000000    4.90999985    2.53999996
   19.80166626   -1.00000000    4.90999985    2.53999996
   19.80499840   -1.00000000    4.90999985    2.53999996
   19.80805397   -1.00000000    4.90999985    2.53999996
   19.81138802   -1.00000000    4.90999985    2.53999996
   19.81472206   -1.00000000    4.90999985    2.53999996
   19.81777954   -1.00000000    4.90999985    2.53999996
   19.82111168   49.10340118    4.90999985    2.53999996
   19.82139015   55.18590164    4.90999985    2.53999996
   19.82472229   84.59660339    4.90999985    2.53999996
   19.82805634  172.42799377    4.90999985    2.53999996
   19.83111191  226.03799438    4.90999985    2.53999996
   19.83722305  226.03799438    4.90999985    2.53999996
   19.84138870  129.02799988    4.90999985    2.53999996
   19.84444427  140.39599609    4.90999985    2.53999996
   19.84777832   87.30609894    4.90999985    2.53999996
   19.85111237   -1.00000000    4.90999985    2.53999996
   19.85416794   -1.00000000    4.90999985    2.53999996
   19.85805511   -1.00000000    4.90999985    2.53999996
   19.86111069   -1.00000000    4.90999985    2.53999996
   19.86444473   75.06549835    4.90999985    2.53999996
   19.86777878   56.20809937    4.90999985    2.53999996
   19.87083435   -1.00000000    4.90999985    2.53999996
   19.87416649   -1.00000000    4.90999985    2.53999996
   19.88000107   -1.00000000    4.90999985    2.53999996
   19.88416672   -1.00000000    4.90999985    2.53999996
   19.88722229   -1.00000000    4.90999985    2.53999996
   19.89083290   -1.00000000    4.90999985    2.53999996
   19.89416695   -1.00000000    4.90999985    2.53999996
   19.89749908   -1.00000000    4.90999985    2.53999996
   19.90055466   -1.00000000    4.90999985    2.53999996
   19.90388870   -1.00000000    4.90999985    2.53999996
   19.90722275   -1.00000000    4.90999985    2.53999996
   19.91027832   -1.00000000    4.90999985    2.53999996
   19.91361046   -1.00000000    4.90999985    2.53999996
   19.91666603   -1.00000000    4.90999985    2.53999996
   19.92694473   -1.00000000    4.90999985    2.53999996
   19.93000031   -1.00000000    4.90999985    2.53999996
   19.93333244   -1.00000000    4.90999985    2.53999996
   19.93666649   -1.00000000    4.90999985    2.53999996
   19.93972206   -1.00000000    4.90999985    2.53999996
   19.94305420   -1.00000000    4.90999985    2.53999996
   19.94638824   -1.00000000    4.90999985    2.53999996
   19.94944382   -1.00000000    4.90999985    2.53999996
   19.95277786   -1.00000000    4.90999985    2.53999996
   19.95611191   -1.00000000    4.90999985    2.53999996
   19.95944595   -1.00000000    4.90999985    2.53999996
   19.96972275   -1.00000000    4.90999985    2.53999996
   19.97305679   -1.00000000    4.90999985    2.53999996
   19.97611237   -1.00000000    4.90999985    2.53999996
   19.97944450   -1.00000000    4.90999985    2.53999996
   19.98277855   -1.00000000    4.90999985    2.53999996
   19.98583412   -1.00000000    4.90999985    2.53999996
   19.98916626   -1.00000000    4.90999985    2.53999996
   19.99250031   -1.00000000    4.90999985    2.53999996
   19.99583435   -1.00000000    4.90999985    2.53999996
   19.99888992   -1.00000000    4.90999985    2.53999996
   20.00222206   -1.00000000    4.90999985    2.53999996
   20.01250076   -1.00000000    4.90999985    2.53999996
   20.01583290   -1.00000000    4.90999985    2.53999996
   20.01916695   -1.00000000    4.90999985    2.53999996
   20.02277756   -1.00000000    4.90999985    2.53999996
   20.02583313   -1.00000000    4.90999985    2.53999996
   20.02916718   -1.00000000    4.90999985    2.53999996
   20.03222275   -1.00000000    4.90999985    2.53999996
   20.03555489   -1.00000000    4.90999985    2.53999996
   20.03888893   -1.00000000    4.90999985    2.53999996
   20.04194450   -1.00000000    4.90999985    2.53999996
   20.04527664   -1.00000000    4.90999985    2.53999996
   20.05555534   -1.00000000    4.90999985    2.53999996
   20.05861092   -1.00000000    4.90999985    2.53999996
   20.06194305   -1.00000000    4.90999985    2.53999996
   20.06499863   -1.00000000    4.90999985    2.53999996
   20.06833458   -1.00000000    4.90999985    2.53999996
   20.07166672   -1.00000000    4.90999985    2.53999996
   20.07472229   -1.00000000    4.90999985    2.53999996
   20.07805634   -1.00000000    4.90999985    2.53999996
   20.08139038   -1.00000000    4.90999985    2.53999996
   20.08444595   -1.00000000    4.90999985    2.53999996
   20.08777809   -1.00000000    4.90999985    2.53999996
   20.09833336   -1.00000000    4.90999985    2.53999996
   20.10138893   -1.00000000    4.90999985    2.53999996
   20.10472298   -1.00000000    4.90999985    2.53999996
   20.10805511   -1.00000000    4.90999985    2.53999996
   20.11111069   -1.00000000    4.90999985    2.53999996
   20.11444473   -1.00000000    4.90999985    2.53999996
   20.11777878   -1.00000000    4.90999985    2.53999996
   20.12083435   -1.00000000    4.90999985    2.53999996
   20.12444496   -1.00000000    4.90999985    2.53999996
   20.12777710   -1.00000000    4.90999985    2.53999996
   20.13083267   -1.00000000    4.90999985    2.53999996
   20.14111137   -1.00000000    4.90999985    2.53999996
   20.14444351   -1.00000000    4.90999985    2.53999996
   20.14749908   -1.00000000    4.90999985    2.53999996
   20.15083313   -1.00000000    4.90999985    2.53999996
   20.15416718   -1.00000000    4.90999985    2.53999996
   20.15749931   -1.00000000    4.90999985    2.53999996
   20.16083336   -1.00000000    4.90999985    2.53999996
