    HOUR (UT)   FLARE FACTOR    SKY TESTER    SUN TESTER
   12.03861141   -1.00000000   -1.00000000   -1.00000000
   12.08111095  173.85400391    2.96000004    1.76999998
   12.08444405  186.39500427    2.96000004    1.76999998
   12.08777714  197.50399780    3.00000000    1.78999996
   12.09083271  179.97200012    3.00000000    1.78999996
   12.09416676  216.89599609    3.00000000    1.78999996
   12.09722233  199.77000427    3.00000000    1.80999994
   12.10138893  199.77000427    3.00000000    1.80999994
   12.10555553  202.62600708    3.00000000    1.80999994
   12.10888958  204.32600403    3.00000000    1.80999994
   12.11194515  173.13000488    2.98000002    1.80999994
   12.11444473  190.82400513    2.96000004    1.80999994
   12.11555576  188.87100220    2.96000004    1.80999994
   12.11888885  197.57499695    2.94000006    1.83000004
   12.12194443  178.55599976    2.93000007    1.83000004
   12.12527752  174.03900146    2.93000007    1.83000004
   12.12833309  181.71800232    2.91000009    1.83000004
   12.13166714  204.55299377    2.91000009    1.85000002
   12.13472176  178.19400024    2.91000009    1.85000002
   12.13805580  168.53199768    2.89000010    1.85000002
   12.14444447  168.53199768    2.86999989    1.85000002
   12.14833355  181.10899353    2.86999989    1.85000002
   12.15166664  176.64599609    2.86999989    1.85000002
   12.15472221  180.80499268    2.84999990    1.85000002
   12.15805531  164.52499390    2.84999990    1.86000001
   12.16138840  163.70500183    2.82999992    1.86000001
   12.16444397  164.98300171    2.80999994    1.86000001
   12.16777802  166.65600586    2.80999994    1.86000001
   12.17083359  167.33900452    2.76999998    1.86000001
   12.17416668  170.76199341    2.75000000    1.86000001
   12.17722225  177.27900696    2.73000002    1.86000001
   12.18055630  179.87600708    2.71000004    1.88000000
   12.18111134  160.49499512    2.71000004    1.88000000
   12.18722248  160.49499512    2.66000009    1.88000000
   12.19138908  171.72799683    2.64000010    1.88000000
   12.19472218  168.56599426    2.59999990    1.88000000
   12.19805527  161.83999634    2.57999992    1.88000000
   12.20111084  163.14100647    2.55999994    1.89999998
   12.20444393  161.79299927    2.51999998    1.88000000
   12.20777798  163.27200317    2.51999998    1.89999998
   12.21083355  174.61000061    2.48000002    1.91999996
   12.21416664  162.17199707    2.48000002    1.89999998
   12.21472168  157.87399292    2.48000002    1.89999998
   12.21749973  160.12699890    2.46000004    1.89999998
   12.22083282  155.21800232    2.44000006    1.89999998
   12.22388840  159.67300415    2.42000008    1.89999998
   12.22999954  159.67300415    2.40000010    1.91999996
   12.23416710  165.01400757    2.39000010    1.91999996
   12.23722267  154.23899841    2.36999989    1.91999996
   12.24055576  167.10699463    2.34999990    1.94000006
   12.24388885  159.48800659    2.34999990    1.94000006
   12.24694443  176.04800415    2.32999992    1.94000006
   12.24805546  166.76899719    2.32999992    1.94000006
   12.25055599  164.88200378    2.32999992    1.94000006
   12.25388908  160.79499817    2.32999992    1.94000006
   12.25694466  164.47099304    2.30999994    1.94000006
   12.26027775  171.30000305    2.30999994    1.94000006
   12.26361084  186.99600220    2.28999996    1.94000006
   12.26666641  165.27000427    2.28999996    1.94000006
   12.27277756  165.27000427    2.26999998    1.96000004
   12.27694416  151.76899719    2.26999998    1.98000002
   12.28027725  160.89799500    2.25000000    1.98000002
   12.28138828  158.61700439    2.25000000    1.96000004
   12.28361130  162.14199829    2.25000000    1.96000004
   12.28694534  148.90100098    2.25000000    1.96000004
   12.29000092  156.55700684    2.25000000    1.98000002
   12.29333401  159.82099915    2.25000000    1.96000004
   12.29666710  153.66200256    2.25000000    1.98000002
   12.29972267  175.68299866    2.25000000    1.96000004
   12.30305576  154.87300110    2.25000000    1.98000002
   12.30611134  153.30400085    2.26999998    1.98000002
   12.30944443  159.58599854    2.26999998    1.98000002
   12.31583309  159.58599854    2.26999998    2.00000000
   12.31972218  152.42500305    2.26999998    1.98000002
   12.32305527  155.97999573    2.26999998    2.00000000
   12.32611084  149.52000427    2.25000000    2.00000000
   12.32944393  143.19799805    2.25000000    2.00000000
   12.33277798  154.50700378    2.23000002    2.00000000
   12.33583260  152.26300049    2.25000000    2.00000000
   12.33916664  151.75500488    2.23000002    2.00000000
   12.34222221  147.49000549    2.21000004    2.00000000
   12.34555531  153.19500732    2.21000004    2.01999998
   12.34805489  161.34199524    2.21000004    2.01999998
   12.34916592  166.57899475    2.21000004    2.01999998
   12.35249996  160.68499756    2.23000002    2.01999998
   12.35861111  160.68499756    2.23000002    2.01999998
   12.36277771  163.17399597    2.25000000    2.01999998
   12.36583328  154.15199280    2.26999998    2.03999996
   12.36916637  147.50900269    2.26999998    2.03999996
   12.37222195  150.77499390    2.28999996    2.03999996
   12.37555599  148.34399414    2.28999996    2.03999996
   12.37861156  147.65699768    2.30999994    2.03999996
   12.38138866  144.41499329    2.32999992    2.05999994
   12.38222218  146.63299561    2.32999992    2.05999994
   12.38555527  144.99099731    2.34999990    2.05999994
   12.38861084  132.86199951    2.34999990    2.05999994
   12.39222240  134.55599976    2.34999990    2.03999996
   12.39555550  147.47300720    2.34999990    2.05999994
   12.40138817  147.47300720    2.32999992    2.05999994
   12.40555477  143.60400391    2.30999994    2.05999994
   12.40888882  144.36700439    2.30999994    2.05999994
   12.41194439  149.26499939    2.28999996    2.07999992
   12.41472149  139.45899963    2.28999996    2.07999992
   12.41555500  146.89599609    2.28999996    2.07999992
   12.41888905  152.28199768    2.26999998    2.05999994
   12.42194462  142.05900574    2.26999998    2.05999994
   12.42527771  148.93400574    2.25000000    2.07999992
   12.42861176  142.31100464    2.25000000    2.07999992
   12.43166733  147.31500244    2.25000000    2.07999992
   12.43500042  151.97999573    2.23000002    2.07999992
   12.43805599  142.10499573    2.23000002    2.07999992
   12.44416714  142.10499573    2.23000002    2.07999992
   12.44833374  142.40100098    2.23000002    2.07999992
   12.45166683  140.36099243    2.21000004    2.09999990
   12.45472240  160.13499451    2.19000006    2.09999990
   12.45805550  144.74600220    2.17000008    2.09999990
   12.46111107  138.01899719    2.15000010    2.09999990
   12.46444416  136.02999878    2.13000011    2.09999990
   12.46749973  134.05999756    2.09999990    2.09999990
   12.47083282  137.00500488    2.09999990    2.09999990
   12.47416592  133.86900330    2.07999992    2.09999990
   12.47722149  142.49699402    2.05999994    2.09999990
   12.48055553  134.43299866    2.05999994    2.11999989
   12.48138809  141.47099304    2.05999994    2.09999990
   12.48694515  141.47099304    2.05999994    2.09999990
   12.49111176  139.94200134    2.03999996    2.11999989
   12.49444485  139.02499390    2.05999994    2.11999989
   12.49750042  157.97599792    2.05999994    2.11999989
   12.50083351  182.24099731    2.07999992    2.11999989
   12.50416660  169.60200500    2.05999994    2.11999989
   12.50722218  150.59700012    2.07999992    2.11999989
   12.51055527  181.59700012    2.05999994    2.11999989
   12.51361084  160.60099792    2.05999994    2.11999989
   12.51472187  180.53300476    2.07999992    2.11999989
   12.51722240  203.30000305    2.05999994    2.11999989
   12.52055550  183.00300598    2.05999994    2.13000011
   12.52361107  196.92900085    2.05999994    2.13000011
   12.52999973  196.92900085    2.03999996    2.13000011
   12.53416729  182.39100647    2.01999998    2.13000011
   12.53722286  169.06500244    2.00000000    2.13000011
   12.54055595  174.22399902    1.98000002    2.13000011
   12.54361153  181.91299438    1.94000006    2.13000011
   12.54694462  188.45199585    1.91999996    2.13000011
   12.54805565  195.07000732    1.89999998    2.13000011
   12.55027771  164.70500183    1.88000000    2.13000011
   12.55361176  165.22200012    1.88000000    2.15000010
   12.55694485  164.69900513    1.86000001    2.15000010
   12.56000042  165.47599792    1.86000001    2.15000010
   12.56333351  167.12199402    1.86000001    2.15000010
   12.56638908  158.80999756    1.86000001    2.15000010
   12.57277775  158.80999756    1.83000004    2.15000010
   12.57694435  161.31199646    1.80999994    2.17000008
   12.57999992  139.46499634    1.76999998    2.17000008
   12.58138847  168.70300293    1.75000000    2.17000008
   12.58361053  166.25500488    1.71000004    2.17000008
   12.58694458  156.75500488    1.66999996    2.17000008
   12.59027767  213.06399536    1.61000001    2.17000008
   12.59333324  193.01499939    1.58000004    2.17000008
   12.59666634  180.16499329    1.55999994    2.19000006
   12.59972191  202.38800049    1.53999996    2.19000006
   12.60333347  185.09599304    1.55999994    2.19000006
   12.60666752  179.24600220    1.58000004    2.19000006
   12.60972214  195.14100647    1.60000002    2.19000006
   12.61555576  195.14100647    1.63000000    2.19000006
   12.61972237  201.77900696    1.64999998    2.19000006
   12.62305546  196.18600464    1.69000006    2.19000006
   12.62611103  184.15899658    1.71000004    2.19000006
   12.62944412  194.54400635    1.75000000    2.19000006
   12.63249969  177.34800720    1.75000000    2.21000004
   12.63583279  179.37199402    1.76999998    2.19000006
   12.63888836  176.32699585    1.78999996    2.19000006
   12.64222240  184.06599426    1.80999994    2.19000006
   12.64555550  169.45300293    1.80999994    2.19000006
   12.64805508  149.14100647    1.80999994    2.21000004
   12.64888859  153.29400635    1.80999994    2.21000004
   12.65222168  176.48800659    1.80999994    2.19000006
   12.65833282  176.48800659    1.80999994    2.21000004
   12.66249943  156.43899536    1.76999998    2.21000004
   12.66583252  171.52299500    1.75000000    2.21000004
   12.66888905  163.23500061    1.75000000    2.21000004
   12.67222214  168.97399902    1.73000002    2.21000004
   12.67555618  168.10699463    1.73000002    2.21000004
   12.67861176  142.18400574    1.73000002    2.23000002
   12.68138885  168.44400024    1.73000002    2.23000002
   12.68222237  172.53199768    1.73000002    2.23000002
   12.68555546  172.20399475    1.75000000    2.23000002
   12.68888855  193.37100220    1.76999998    2.23000002
   12.69194412  178.36399841    1.76999998    2.23000002
   12.69527817  182.27600098    1.78999996    2.23000002
   12.70138836  182.27600098    1.76999998    2.23000002
   12.70527744  184.61799622    1.75000000    2.23000002
   12.70861053  190.62800598    1.75000000    2.23000002
   12.71194458  194.33500671    1.73000002    2.23000002
   12.71472168  196.43600464    1.71000004    2.23000002
   12.71527767  181.84599304    1.71000004    2.23000002
   12.71861076  173.63800049    1.66999996    2.23000002
   12.72194386  174.87899780    1.66999996    2.23000002
   12.72499943  176.63900757    1.64999998    2.23000002
   12.72833252  183.38200378    1.64999998    2.25000000
   12.73138809  196.85200500    1.64999998    2.25000000
   12.73472214  188.58299255    1.64999998    2.25000000
   12.73777771  185.22399902    1.64999998    2.25000000
   12.74416733  185.22399902    1.66999996    2.25000000
   12.74833393  175.34500122    1.69000006    2.25000000
   12.75138855  185.28999329    1.71000004    2.25000000
   12.75472260  189.16499329    1.71000004    2.25000000
   12.75777817  180.33799744    1.73000002    2.25000000
   12.76111126  179.22000122    1.75000000    2.25000000
   12.76444435  190.56700134    1.75000000    2.25000000
   12.76749992  191.95199585    1.75000000    2.25000000
   12.77083302  180.81199646    1.76999998    2.25000000
   12.77388859  185.01400757    1.76999998    2.25000000
   12.77722168  181.85299683    1.76999998    2.26999998
   12.78055573  196.03700256    1.75000000    2.25000000
   12.78138828  186.49299622    1.75000000    2.25000000
   12.78694534  186.49299622    1.75000000    2.26999998
   12.79111195  183.24800110    1.73000002    2.25000000
   12.79444504  172.28500366    1.73000002    2.26999998
   12.79750061  176.29800415    1.69000006    2.26999998
   12.80083370  174.86500549    1.69000006    2.26999998
   12.80388927  175.33999634    1.66999996    2.26999998
   12.80722237  174.68699646    1.63000000    2.26999998
   12.81027794  179.08599854    1.61000001    2.28999996
   12.81361103  188.16799927    1.58000004    2.26999998
   12.81472206  173.43600464    1.55999994    2.26999998
   12.81694412  179.85200500    1.55999994    2.26999998
   12.82027817  177.16900635    1.51999998    2.28999996
   12.82361126  177.35600281    1.50000000    2.28999996
   12.82972240  177.35600281    1.48000002    2.28999996
   12.83388901  178.81300354    1.46000004    2.28999996
   12.83722210  178.65400696    1.48000002    2.28999996
   12.84027767  179.01899719    1.50000000    2.28999996
   12.84361076  180.96200562    1.50000000    2.28999996
   12.84666634  177.05400085    1.51999998    2.28999996
   12.84805489  175.25100708    1.51999998    2.28999996
   12.85055637  173.65299988    1.53999996    2.28999996
   12.85361195  179.46000671    1.55999994    2.28999996
   12.85694504  189.00999451    1.55999994    2.28999996
   12.86000061  183.22099304    1.55999994    2.28999996
   12.86333370  188.86099243    1.55999994    2.28999996
   12.86638927  183.30799866    1.53999996    2.28999996
   12.87277794  183.30799866    1.53999996    2.28999996
   12.87666702  160.34399414    1.53999996    2.30999994
   12.88000011  172.36700439    1.53999996    2.30999994
   12.88138866  179.16000366    1.53999996    2.30999994
   12.88361073  179.99699402    1.53999996    2.30999994
   12.88694477  188.51800537    1.55999994    2.30999994
   12.89027786  185.93400574    1.55999994    2.30999994
   12.89333344  171.60299683    1.55999994    2.30999994
   12.89666653  178.51899719    1.58000004    2.30999994
   12.89972210  176.30799866    1.58000004    2.30999994
   12.90305519  175.15499878    1.60000002    2.30999994
   12.90611076  176.55799866    1.61000001    2.30999994
   12.90944386  184.51800537    1.61000001    2.30999994
   12.91555500  184.51800537    1.60000002    2.30999994
   12.91972256  169.52999878    1.61000001    2.32999992
   12.92277813  159.23599243    1.63000000    2.32999992
   12.92611122  174.58900452    1.64999998    2.32999992
   12.92916679  174.29400635    1.66999996    2.32999992
   12.93249989  162.14199829    1.69000006    2.32999992
   12.93555546  176.65800476    1.73000002    2.32999992
   12.93888855  170.05299377    1.75000000    2.32999992
   12.94222260  177.55999756    1.76999998    2.32999992
   12.94527817  167.65699768    1.78999996    2.32999992
   12.94805527  168.58799744    1.78999996    2.32999992
   12.94916630  161.65800476    1.78999996    2.32999992
   12.95222187  171.06799316    1.78999996    2.32999992
   12.95833302  171.06799316    1.78999996    2.32999992
   12.96249962  172.05099487    1.76999998    2.32999992
   12.96555519  158.96200562    1.76999998    2.32999992
   12.96888828  175.93800354    1.75000000    2.32999992
   12.97222137  180.14199829    1.73000002    2.32999992
   12.97527695  170.07400513    1.71000004    2.32999992
   12.97861099  162.56599426    1.69000006    2.32999992
   12.98138809  161.52999878    1.66999996    2.32999992
   12.98222160  165.35600281    1.63000000    2.34999990
   12.98527813  168.66799927    1.61000001    2.32999992
   12.98861122  165.78199768    1.60000002    2.34999990
   12.99166679  162.30700684    1.58000004    2.34999990
   12.99499989  160.93299866    1.53999996    2.34999990
   13.00111103  160.93299866    1.48000002    2.34999990
   13.00527763  172.37100220    1.44000006    2.34999990
   13.00861073  168.86199951    1.44000006    2.36999989
   13.01166630  162.27600098    1.41999996    2.34999990
   13.01472187  169.71000671    1.39999998    2.36999989
   13.01555538  160.04400635    1.39999998    2.36999989
   13.01861095  149.71000671    1.38000000    2.36999989
   13.02194405  158.63499451    1.38000000    2.34999990
   13.02499962  159.57099915    1.38000000    2.34999990
   13.02833271  163.63000488    1.34000003    2.34999990
   13.03138828  160.23899841    1.34000003    2.34999990
   13.03472233  166.64599609    1.33000004    2.34999990
   13.03805637  164.26899719    1.33000004    2.36999989
   13.04444504  164.26899719    1.30999994    2.36999989
   13.04861164  200.36300659    1.30999994    2.36999989
   13.05166721  164.62699890    1.28999996    2.36999989
   13.05500031  175.87500000    1.26999998    2.36999989
   13.05805588  171.46800232    1.25000000    2.36999989
   13.06138897  165.68200684    1.25000000    2.36999989
   13.06444454  158.51300049    1.23000002    2.36999989
   13.06777763  169.37800598    1.23000002    2.36999989
   13.07111073  177.81399536    1.23000002    2.36999989
   13.07416630  177.03500366    1.25000000    2.36999989
   13.07750034  177.67700195    1.25000000    2.36999989
   13.08055592  169.33599854    1.26999998    2.36999989
   13.08138847  173.70700073    1.26999998    2.36999989
   13.10222244  173.70700073    1.25000000    2.39000010
   13.10611153  166.42399597    1.23000002    2.39000010
   13.10944462  174.94500732    1.23000002    2.39000010
   13.11250019  172.31599426    1.23000002    2.39000010
   13.11472225  165.65899658    1.21000004    2.36999989
   13.11638927  171.21899414    1.21000004    2.36999989
   13.11944485  154.95399475    1.23000002    2.39000010
   13.12277794  167.75199890    1.23000002    2.39000010
   13.12583351  159.89599609    1.23000002    2.39000010
   13.12916660  170.00999451    1.23000002    2.39000010
   13.13222218  181.78399658    1.21000004    2.39000010
   13.13555527  161.14900208    1.19000006    2.39000010
   13.13888836  163.86099243    1.19000006    2.39000010
   13.14472198  163.86099243    1.14999998    2.39000010
   13.14888859  160.71400452    1.13000000    2.39000010
   13.15222168  157.91099548    1.13000000    2.39000010
   13.15527725  154.54800415    1.14999998    2.40000010
   13.15861034  163.03399658    1.14999998    2.39000010
   13.16194439  194.84899902    1.14999998    2.39000010
   13.16499996  166.01499939    1.16999996    2.39000010
   13.16833401  172.76800537    1.16999996    2.39000010
   13.17138958  157.59199524    1.16999996    2.39000010
   13.17472267  180.91299438    1.16999996    2.39000010
   13.17777824  168.27999878    1.16999996    2.39000010
   13.18111134  168.38699341    1.16999996    2.39000010
   13.18166733  165.58999634    1.16999996    2.39000010
   13.18777752  165.58999634    1.14999998    2.40000010
   13.19166660  163.09800720    1.14999998    2.40000010
   13.19499969  155.85000610    1.14999998    2.40000010
   13.19833374  177.10699463    1.16999996    2.40000010
   13.20138836  166.15299988    1.16999996    2.40000010
   13.20472240  161.05200195    1.16999996    2.40000010
   13.20777798  168.53599548    1.16999996    2.40000010
   13.21111107  171.40199280    1.16999996    2.40000010
   13.21416664  174.72500610    1.16999996    2.40000010
   13.21500015  161.99400330    1.16999996    2.40000010
   13.21777725  162.07200623    1.16999996    2.40000010
   13.22111034  167.88000488    1.16999996    2.40000010
   13.22444439  166.27000427    1.16999996    2.40000010
   13.23055553  166.27000427    1.14999998    2.40000010
   13.23472214  176.25000000    1.14999998    2.40000010
   13.23777771  163.79800415    1.14999998    2.40000010
   13.24111176  170.18200684    1.14999998    2.40000010
   13.24416733  164.88699341    1.16999996    2.40000010
   13.24750042  161.89399719    1.19000006    2.40000010
   13.24833393  169.26899719    1.19000006    2.42000008
   13.25111103  165.88800049    1.19000006    2.40000010
   13.25444412  157.63499451    1.19000006    2.42000008
   13.25777817  162.69400024    1.19000006    2.40000010
   13.26083374  169.49400330    1.16999996    2.42000008
   13.26416683  169.66099548    1.16999996    2.42000008
   13.26722240  164.64700317    1.14999998    2.42000008
   13.27333355  164.64700317    1.13000000    2.40000010
   13.27750015  168.72999573    1.13000000    2.42000008
   13.28083324  164.07099915    1.11000001    2.42000008
   13.28166676  169.25999451    1.11000001    2.42000008
   13.28416729  160.37399292    1.09000003    2.40000010
   13.28750038  169.88900757    1.09000003    2.42000008
   13.29083347  162.13200378    1.11000001    2.42000008
   13.29388905  159.90699768    1.11000001    2.40000010
   13.29722309  165.20100403    1.13000000    2.42000008
   13.30027771  153.58099365    1.13000000    2.42000008
   13.30361176  164.16600037    1.13000000    2.42000008
   13.30666733  161.03399658    1.13000000    2.42000008
   13.31000042  168.40800476    1.11000001    2.42000008
   13.31611156  168.40800476    1.09000003    2.42000008
   13.32027817  163.63600159    1.11000001    2.42000008
   13.32361126  158.23800659    1.07000005    2.42000008
   13.32666683  151.73100281    1.05999994    2.42000008
   13.32999992  156.30499268    1.05999994    2.42000008
   13.33305550  156.50700378    1.03999996    2.44000006
   13.33638859  165.91000366    1.03999996    2.44000006
   13.33972168  159.61000061    1.03999996    2.42000008
   13.34277725  161.52600098    1.05999994    2.42000008
   13.34611034  160.77000427    1.05999994    2.42000008
   13.34833336  170.62199402    1.05999994    2.42000008
   13.34944439  156.10299683    1.05999994    2.42000008
   13.35277843  159.51499939    1.03999996    2.42000008
   13.35916710  159.51499939    1.05999994    2.44000006
   13.36305618  163.77699280    1.05999994    2.44000006
   13.36638927  166.27200317    1.05999994    2.44000006
   13.36972237  155.80099487    1.03999996    2.44000006
   13.37277794  162.91200256    1.03999996    2.42000008
   13.37611103  159.92999268    1.05999994    2.44000006
   13.37916660  156.90899658    1.05999994    2.44000006
   13.38166714  161.17199707    1.05999994    2.44000006
   13.38305569  154.67399597    1.05999994    2.44000006
   13.38611126  164.88999939    1.03999996    2.44000006
   13.38944435  165.34800720    1.03999996    2.44000006
   13.39249992  164.59399414    1.01999998    2.44000006
   13.39583302  150.86000061    1.00000000    2.44000006
   13.40194416  150.86000061    1.00000000    2.44000006
   13.40611076  159.42199707    1.00000000    2.46000004
   13.40916634  164.97900391    1.00000000    2.46000004
   13.41249943  167.15899658    1.00000000    2.46000004
   13.41499996  164.49400330    1.00000000    2.46000004
   13.41638851  163.16600037    1.01999998    2.44000006
   13.41944504  163.98599243    1.00000000    2.46000004
   13.42277813  155.89399719    1.00000000    2.44000006
   13.42583370  151.88200378    1.01999998    2.46000004
   13.42916679  156.74099731    0.98000002    2.46000004
   13.43222237  158.73100281    0.98000002    2.46000004
   13.43555546  166.48699951    0.98000002    2.46000004
   13.43888855  163.67199707    0.98000002    2.46000004
   13.44472218  163.67199707    0.98000002    2.46000004
   13.44888878  159.89700317    0.98000002    2.46000004
   13.45222187  160.82000732    1.00000000    2.46000004
   13.45527744  160.42500305    0.98000002    2.46000004
   13.45861053  164.79299927    1.00000000    2.46000004
   13.46166611  157.38999939    1.01999998    2.46000004
   13.46500015  165.13400269    1.00000000    2.46000004
   13.46805477  160.71499634    1.01999998    2.46000004
   13.47138882  157.23500061    1.01999998    2.46000004
   13.47444439  156.58099365    1.01999998    2.46000004
   13.47777748  155.90400696    1.03999996    2.46000004
   13.48111057  164.24899292    1.03999996    2.46000004
   13.48166656  159.74299622    1.03999996    2.46000004
   13.48750019  159.74299622    1.05999994    2.46000004
   13.49166679  153.77400208    1.05999994    2.46000004
   13.49499989  158.36599731    1.05999994    2.46000004
   13.49805546  158.99400330    1.05999994    2.46000004
   13.50138855  154.79499817    1.05999994    2.46000004
   13.50444412  152.88800049    1.03999996    2.46000004
   13.50777817  148.63699341    1.03999996    2.46000004
   13.51111126  153.35400391    1.03999996    2.46000004
   13.51416683  150.08200073    1.03999996    2.46000004
   13.51500034  158.23699951    1.03999996    2.46000004
   13.51805496  167.82400513    1.03999996    2.46000004
   13.52111053  153.02099609    1.03999996    2.46000004
   13.52444458  158.21000671    1.05999994    2.46000004
   13.53055573  158.21000671    1.05999994    2.46000004
   13.53444481  162.53500366    1.05999994    2.48000002
   13.53777790  158.03599548    1.07000005    2.48000002
   13.54111195  155.30499268    1.05999994    2.48000002
   13.54416752  158.61500549    1.05999994    2.48000002
   13.54750061  163.13900757    1.03999996    2.48000002
   13.54833412  159.57000732    1.03999996    2.48000002
   13.55111122  162.39799500    1.03999996    2.46000004
   13.55416679  157.04800415    1.03999996    2.46000004
   13.55749989  146.40600586    1.03999996    2.46000004
   13.56055546  156.14300537    1.05999994    2.46000004
   13.56388950  155.34199524    1.05999994    2.48000002
   13.56694412  153.14100647    1.03999996    2.46000004
   13.57333374  153.14100647    1.03999996    2.48000002
   13.57750034  157.92199707    1.03999996    2.48000002
   13.58055592  155.51300049    1.01999998    2.48000002
   13.58166695  161.84899902    1.01999998    2.48000002
   13.58444405  159.94099426    1.00000000    2.48000002
   13.58749962  169.63600159    1.00000000    2.48000002
   13.59083271  160.30700684    0.98000002    2.48000002
   13.59388828  154.18600464    0.95999998    2.48000002
   13.59722233  166.61000061    0.95999998    2.48000002
   13.60027790  157.09700012    0.98000002    2.48000002
   13.60361195  170.57200623    1.00000000    2.48000002
   13.60694504  173.68400574    1.00000000    2.48000002
   13.61000061  171.68800354    1.00000000    2.48000002
   13.61611176  171.68800354    1.01999998    2.48000002
   13.62027836  180.30499268    1.00000000    2.48000002
   13.62333393  160.03199768    1.00000000    2.48000002
   13.62666702  182.17300415    1.00000000    2.48000002
   13.63000011  175.46400452    1.00000000    2.48000002
   13.63305569  148.68699646    1.01999998    2.48000002
   13.63638878  161.70700073    1.01999998    2.48000002
   13.63944435  170.19500732    1.00000000    2.48000002
   13.64277744  171.09700012    1.01999998    2.48000002
   13.64583302  174.56900024    1.03999996    2.48000002
   13.64833355  141.21400452    1.03999996    2.48000002
   13.64972210  146.50700378    1.05999994    2.48000002
   13.65277767  161.96099854    1.05999994    2.48000002
   13.65888882  161.96099854    1.05999994    2.50000000
   13.66305542  152.38499451    1.03999996    2.50000000
   13.66638851  161.73699951    1.05999994    2.50000000
   13.66944504  167.36799622    1.03999996    2.50000000
   13.67277813  181.42799377    1.03999996    2.50000000
   13.67583370  169.05099487    1.03999996    2.48000002
   13.67916679  170.52000427    1.05999994    2.50000000
   13.68166733  153.59599304    1.09000003    2.50000000
   13.68277836  168.80799866    1.09000003    2.50000000
   13.68583298  155.20599365    1.09000003    2.48000002
   13.68916702  157.08599854    1.11000001    2.50000000
   13.69222260  157.84700012    1.13000000    2.50000000
   13.69555569  141.76400757    1.11000001    2.50000000
   13.70194435  141.76400757    1.09000003    2.50000000
   13.70583344  165.49800110    1.05999994    2.50000000
   13.70916653  181.26499939    1.05999994    2.50000000
   13.71222210  176.45300293    1.05999994    2.50000000
   13.71500015  164.37199402    1.03999996    2.50000000
   13.71611118  165.63499451    1.03999996    2.50000000
   13.71916580  162.52200317    1.03999996    2.50000000
   13.72249985  153.90199280    1.03999996    2.48000002
   13.72555542  173.14100647    1.03999996    2.50000000
   13.72888851  159.54299927    1.03999996    2.50000000
   13.73194408  164.64100647    1.03999996    2.50000000
   13.73527813  165.18200684    1.05999994    2.50000000
   13.73861122  165.21499634    1.05999994    2.50000000
   13.74472237  165.21499634    1.07000005    2.50000000
   13.74888897  152.93800354    1.07000005    2.50000000
   13.75194454  149.15600586    1.09000003    2.51999998
   13.75527763  142.43800354    1.07000005    2.51999998
   13.75833321  147.97700500    1.07000005    2.51999998
   13.76166630  161.36300659    1.07000005    2.50000000
   13.76472187  159.97300720    1.07000005    2.50000000
   13.76805496  164.20100403    1.03999996    2.50000000
   13.77138901  152.90299988    1.01999998    2.50000000
   13.77444458  157.41700745    1.00000000    2.50000000
   13.77777767  160.67300415    0.98000002    2.51999998
   13.78083324  175.62199402    0.98000002    2.50000000
   13.78166676  152.12300110    0.98000002    2.51999998
   13.78750038  152.12300110    1.00000000    2.51999998
   13.79166698  162.61000061    1.01999998    2.51999998
   13.79472256  161.24000549    1.01999998    2.51999998
   13.79805565  154.29699707    1.00000000    2.51999998
   13.80138874  159.85299683    1.00000000    2.50000000
   13.80444431  161.06500244    0.98000002    2.51999998
   13.80777836  151.34399414    0.98000002    2.51999998
   13.81083393  168.06799316    1.00000000    2.51999998
   13.81416702  160.97000122    0.98000002    2.51999998
   13.81500053  150.36199951    1.00000000    2.51999998
   13.81777763  142.08700562    0.98000002    2.51999998
   13.82083321  151.77900696    0.98000002    2.51999998
   13.82416630  148.92100525    1.00000000    2.51999998
   13.83027744  148.92100525    1.01999998    2.51999998
   13.83444405  144.24400330    1.01999998    2.51999998
   13.83777714  156.07600403    1.03999996    2.53999996
   13.84083271  157.28900146    1.05999994    2.51999998
   13.84416676  150.57800293    1.07000005    2.51999998
   13.84722233  153.74200439    1.05999994    2.53999996
   13.84833336  152.09700012    1.05999994    2.51999998
   13.85111141  167.93600464    1.03999996    2.51999998
   13.85416698  146.27400208    1.00000000    2.51999998
   13.85750008  165.67100525    1.00000000    2.51999998
   13.86055565  157.39300537    1.00000000    2.51999998
   13.86388969  168.23399353    0.95999998    2.51999998
   13.86722279  152.39100647    0.95999998    2.51999998
   13.87333393  152.39100647    0.98000002    2.53999996
   13.87722206  153.23399353    1.00000000    2.51999998
   13.88055611  140.72399902    1.03999996    2.51999998
   13.88166714  154.35499573    1.07000005    2.51999998
   13.88416672  131.53300476    1.07000005    2.51999998
   13.88722229  128.40499878    1.09000003    2.53999996
   13.89055538  146.88099670    1.09000003    2.51999998
   13.89361095  141.95500183    1.09000003    2.51999998
   13.89694405  136.68400574    1.11000001    2.51999998
   13.90027714  164.34599304    1.09000003    2.51999998
   13.90333271  150.63600159    1.09000003    2.53999996
   13.90666676  139.96099854    1.05999994    2.53999996
   13.90972137  145.97500610    1.01999998    2.53999996
   13.91611099  145.97500610    0.95999998    2.53999996
   13.92027855  148.10200500    0.92000002    2.53999996
   13.92333412  152.48100281    0.86000001    2.55999994
   13.92666721  161.77499390    0.81999999    2.53999996
   13.92972279  151.45300293    0.81999999    2.53999996
   13.93305588  145.82200623    0.81999999    2.53999996
   13.93638897  150.40199280    0.81999999    2.53999996
   13.93944454  157.62500000    0.81999999    2.53999996
   13.94277763  151.83599854    0.81999999    2.53999996
   13.94583321  149.64300537    0.81999999    2.53999996
   13.94833374  156.20899963    0.83999997    2.53999996
   13.94944477  146.98699951    0.81999999    2.53999996
   13.95249939  146.32299805    0.81999999    2.53999996
   13.95888901  146.32299805    0.81999999    2.53999996
   13.96305561  159.09199524    0.81999999    2.53999996
   13.96611118  154.11999512    0.81999999    2.53999996
   13.96944427  136.39300537    0.86000001    2.53999996
   13.97277737  148.57699585    0.83999997    2.53999996
   13.97583294  146.67199707    0.83999997    2.53999996
   13.97916603  152.30999756    0.83999997    2.53999996
   13.98166656  151.32099915    0.79000002    2.53999996
   13.98277760  158.59700012    0.79000002    2.53999996
   13.98583317  153.15800476    0.80000001    2.55999994
   13.98916721  159.32899475    0.79000002    2.55999994
   13.99222279  154.44000244    0.79000002    2.55999994
   13.99555588  153.75599670    0.80000001    2.55999994
   14.00166702  153.75599670    0.81999999    2.55999994
   14.00583363  165.99800110    0.80000001    2.53999996
   14.00916672  157.28500366    0.81999999    2.53999996
   14.01222229  148.04400635    0.81999999    2.55999994
   14.01500034  160.73800659    0.81999999    2.55999994
   14.01583290  171.72000122    0.81999999    2.55999994
   14.01888847  162.44500732    0.81999999    2.53999996
   14.02222157  148.62199402    0.81999999    2.55999994
   14.02527714  138.90400696    0.83999997    2.55999994
   14.02861118  161.59399414    0.81999999    2.53999996
   14.03194427  158.63299561    0.81999999    2.55999994
   14.03500080  144.80200195    0.81999999    2.53999996
   14.03833389  163.58299255    0.81999999    2.53999996
   14.04472256  163.58299255    0.79000002    2.55999994
   14.04861164  139.00100708    0.75000000    2.53999996
   14.05194473  150.21600342    0.75000000    2.53999996
   14.05500031  152.40299988    0.75000000    2.53999996
   14.05833340  164.71499634    0.75000000    2.55999994
   14.06166649  146.58599854    0.73000002    2.55999994
   14.06472206  159.22000122    0.73000002    2.55999994
   14.06805515  147.34700012    0.73000002    2.55999994
   14.07111073  154.72300720    0.73000002    2.55999994
   14.07444477  156.14999390    0.73000002    2.53999996
   14.07750034  171.82699585    0.75000000    2.55999994
   14.08083344  153.03399658    0.75000000    2.55999994
   14.08166695  157.46699524    0.75000000    2.55999994
   14.08749962  157.46699524    0.76999998    2.55999994
   14.09166622  158.99499512    0.76999998    2.55999994
   14.09472179  159.71899414    0.75000000    2.55999994
   14.09805489  168.35000610    0.75000000    2.55999994
   14.11555576  166.42199707    0.79000002    2.55999994
   14.11777782  147.99099731    0.76999998    2.55999994
   14.12083340  149.51199341    0.79000002    2.55999994
   14.12416649  137.22399902    0.79000002    2.55999994
   14.13055611  137.22399902    0.81999999    2.55999994
   14.13472176  154.12699890    0.81999999    2.55999994
   14.13777733  159.55200195    0.83999997    2.55999994
   14.14111137  153.08500671    0.83999997    2.55999994
   14.14416695  155.03100586    0.83999997    2.55999994
   14.14750004  165.77200317    0.86000001    2.55999994
   14.14888859  162.98199463    0.86000001    2.55999994
   14.15111065  157.15600586    0.86000001    2.55999994
   14.15416622  144.15400696    0.86000001    2.55999994
   14.15749931  152.70199585    0.83999997    2.57999992
   14.16055489  161.49499512    0.81999999    2.55999994
   14.16388893  151.97599792    0.83999997    2.55999994
   14.16694450  167.67999268    0.86000001    2.55999994
   14.17333412  167.67999268    0.88000000    2.55999994
   14.17750072  143.49099731    0.88000000    2.55999994
   14.18055630  151.83200073    0.86000001    2.55999994
   14.18222237  146.32600403    0.86000001    2.55999994
   14.18444443  156.76100159    0.86000001    2.55999994
   14.18750000  158.76800537    0.86000001    2.55999994
   14.19083309  162.45300293    0.86000001    2.55999994
   14.19388866  160.53199768    0.88000000    2.55999994
   14.19722271  135.37399292    0.88000000    2.57999992
   14.20027733  154.54400635    0.88000000    2.57999992
   14.20361137  153.05200195    0.86000001    2.55999994
   14.20694447  148.26499939    0.83999997    2.55999994
   14.21000004  150.26800537    0.81999999    2.55999994
   14.21611118  150.26800537    0.80000001    2.57999992
   14.22027779  146.32800293    0.80000001    2.57999992
   14.22361088  155.20799255    0.80000001    2.57999992
   14.22666645  159.28599548    0.81999999    2.57999992
   14.22999954  149.99600220    0.81999999    2.57999992
   14.23305511  155.60099792    0.81999999    2.55999994
   14.23638916  154.62300110    0.81999999    2.57999992
   14.23944473  170.64599609    0.83999997    2.57999992
   14.24277782  157.80700684    0.86000001    2.57999992
   14.24611092  111.54599762    0.83999997    2.57999992
   14.24888897  156.10000610    0.81999999    2.55999994
   14.24972248  150.82899475    0.80000001    2.57999992
   14.25277805  154.34500122    0.79000002    2.57999992
   14.25888920  154.34500122    0.79000002    2.55999994
   14.26305580  140.21099854    0.76999998    2.57999992
   14.26638889  161.66200256    0.76999998    2.57999992
   14.26944447  166.83599854    0.76999998    2.57999992
   14.27277756  137.83700562    0.79000002    2.57999992
   14.27611065  153.52499390    0.76999998    2.57999992
   14.27916622  144.98699951    0.75000000    2.57999992
   14.28222179  147.79200745    0.75000000    2.59999990
   14.28277779  147.81199646    0.75000000    2.59999990
   14.28583336  151.28599548    0.76999998    2.57999992
   14.28916740  157.11000061    0.76999998    2.57999992
   14.29250050  150.32499695    0.76999998    2.57999992
   14.29555607  152.28500366    0.76999998    2.57999992
   14.30194473  152.28500366    0.76999998    2.57999992
   14.30611134  159.08000183    0.76999998    2.57999992
   14.30916691  146.12100220    0.76999998    2.57999992
   14.31250000  127.41699982    0.80000001    2.57999992
   14.31555557  159.12800598    0.81999999    2.57999992
   14.31611156  156.29100037    0.81999999    2.57999992
   14.31916618  147.55400085    0.80000001    2.59999990
   14.32250023  154.52400208    0.81999999    2.57999992
   14.32555580  147.55400085    0.83999997    2.57999992
   14.32888889  152.50000000    0.83999997    2.57999992
   14.33222198  146.79800415    0.83999997    2.57999992
   14.33527756  162.27499390    0.81999999    2.59999990
   14.33861065  137.30499268    0.80000001    2.59999990
   14.34472179  137.30499268    0.80000001    2.57999992
   14.34888840  148.88600159    0.80000001    2.57999992
   14.34944439  137.39300537    0.80000001    2.57999992
   14.35249996  145.27400208    0.80000001    2.57999992
   14.35583401  145.72300720    0.81999999    2.57999992
   14.35888958  148.49400330    0.83999997    2.57999992
   14.36222267  149.59300232    0.86000001    2.57999992
   14.36555576  138.75100708    0.86000001    2.57999992
   14.36861134  136.57899475    0.86000001    2.57999992
   14.37194443  141.64999390    0.83999997    2.57999992
   14.37500000  149.34599304    0.81999999    2.59999990
   14.37833309  188.03799438    0.83999997    2.57999992
   14.38138866  139.82200623    0.83999997    2.57999992
   14.38222218  138.51499939    0.83999997    2.57999992
   14.38749981  138.51499939    0.79000002    2.57999992
   14.39166641  148.03399658    0.80000001    2.57999992
   14.39499950  144.76499939    0.80000001    2.57999992
   14.39805508  138.15600586    0.80000001    2.57999992
   14.40138817  157.41299438    0.80000001    2.57999992
   14.40444374  150.65299988    0.80000001    2.59999990
   14.40777779  151.44900513    0.80000001    2.59999990
   14.41083336  150.74800110    0.80000001    2.59999990
   14.41416645  150.29299927    0.80000001    2.57999992
   14.41555500  151.36999512    0.80000001    2.57999992
   14.41777802  144.98800659    0.76999998    2.59999990
   14.42083359  138.60400391    0.73000002    2.59999990
   14.42416668  146.46400452    0.70999998    2.59999990
   14.43027782  146.46400452    0.70999998    2.59999990
   14.43444443  148.64999390    0.73000002    2.59999990
   14.43777752  148.44400024    0.73000002    2.59999990
   14.44083309  150.70500183    0.73000002    2.57999992
   14.44416714  153.13200378    0.73000002    2.59999990
   14.44750023  144.86700439    0.73000002    2.57999992
   14.44888878  152.17399597    0.73000002    2.57999992
   14.45111084  152.25700378    0.75000000    2.59999990
   14.45416641  142.22000122    0.76999998    2.57999992
   14.45749950  140.34599304    0.79000002    2.59999990
   14.46083355  157.35699463    0.79000002    2.59999990
   14.46388912  136.77600098    0.76999998    2.59999990
   14.46722221  153.49299622    0.76999998    2.59999990
   14.47333336  153.49299622    0.75000000    2.59999990
   14.47749996  157.84700012    0.73000002    2.59999990
   14.48055553  150.25599670    0.73000002    2.59999990
   14.48222160  156.69900513    0.73000002    2.59999990
   14.48416710  144.38499451    0.75000000    2.59999990
   14.48722267  155.78999329    0.76999998    2.57999992
   14.49055576  156.29400635    0.79000002    2.59999990
   14.49361134  151.14999390    0.79000002    2.59999990
   14.49694443  151.98599243    0.79000002    2.59999990
   14.50027752  149.49600220    0.75000000    2.59999990
   14.50333309  149.33000183    0.75000000    2.59999990
   14.50694466  151.22599792    0.75000000    2.59999990
   14.51000023  148.80299377    0.79000002    2.59999990
   14.51611137  148.80299377    0.79000002    2.59999990
   14.52027798  150.79800415    0.79000002    2.59999990
   14.52333355  154.17900085    0.76999998    2.59999990
   14.52666664  155.99699402    0.75000000    2.59999990
   14.52972221  148.42399597    0.75000000    2.59999990
   14.53305531  168.57400513    0.79000002    2.59999990
   14.53638935  151.34500122    0.80000001    2.59999990
   14.53944492  151.63999939    0.81999999    2.59999990
   14.54277802  150.49099731    0.81999999    2.59999990
   14.54583359  157.10000610    0.86000001    2.61999989
   14.54888916  160.99899292    0.89999998    2.59999990
   14.54972267  159.49200439    0.89999998    2.59999990
   14.55277824  157.82200623    1.01999998    2.59999990
   14.55888939  157.82200623    1.30999994    2.57999992
   14.56305599  156.69200134    1.60000002    2.57999992
   14.56638908  152.01300049    1.91999996    2.59999990
   14.56944466  154.53900146    2.40000010    2.59999990
   14.57277775  162.67100525    2.67000008    2.55999994
   14.57583332  150.80999756    3.05999994    2.57999992
   14.57916641  155.59700012    3.20000005    2.57999992
   14.58222198  144.55700684    3.45000005    2.61999989
   14.58277798  149.39500427    3.45000005    2.61999989
   14.58583260  162.03700256    2.80999994    2.59999990
   14.58916664  136.99299622    2.48000002    2.59999990
   14.59222221  150.89100647    2.48000002    2.59999990
   14.59555531  151.42500305    3.01999998    2.59999990
   14.60166740  151.42500305    2.69000006    2.61999989
   14.60583401  159.24699402    1.78999996    2.61999989
   14.60916710  159.48199463    2.30999994    2.61999989
   14.61222267  154.19500732    2.98000002    2.59999990
   14.61555576  163.42799377    4.26999998    2.59999990
   14.61611176  154.75300598    4.26999998    2.59999990
   14.61916637  152.90299988    4.90999985    2.57999992
   14.62250042  148.08900452    4.90999985    2.55999994
   14.62583351  149.51100159    4.90999985    2.51999998
   14.62888908  147.76800537    4.90999985    2.51999998
   14.63222218  155.47099304    4.90999985    2.48000002
   14.63527775  165.69099426    4.90999985    2.50000000
   14.63861084  164.13099670    4.90999985    2.42000008
   14.64472198  164.13099670    4.90999985    2.34999990
   14.64861107  154.54200745    4.90999985    2.53999996
   14.64916611  167.78700256    4.90999985    2.53999996
   14.65249920  158.13400269    4.90999985    2.53999996
   14.65583324  175.20899963    4.90999985    2.53999996
   14.65888882  148.41799927    4.90999985    2.50000000
   14.66222191  157.14700317    4.90999985    2.55999994
   14.66527748  156.89100647    4.90999985    2.51999998
   14.66861153  167.08299255    4.90999985    2.48000002
   14.67166710  158.00999451    4.90999985    2.48000002
   14.67500019  162.82400513    4.90999985    2.48000002
   14.67833328  167.26300049    4.90999985    2.42000008
   14.68138885  160.13400269    4.90999985    2.42000008
   14.68249989  170.23899841    4.90999985    2.40000010
   14.68750000  170.23899841    4.90999985    2.39000010
   14.69166660  174.37600708    4.90999985    2.28999996
   14.69472218  175.52900696    4.90999985    2.30999994
   14.69805527  205.03999329    4.90999985    2.32999992
   14.70111084  224.38200378    4.90999985    2.34999990
   14.70444393  268.91699219    4.90999985    2.28999996
   14.70777798  279.18600464    4.90999985    2.23000002
   14.71083355  375.75399780    4.90999985    2.25000000
   14.71416664  347.32000732    4.90999985    2.03999996
   14.71583271  518.61102295    4.90999985    2.01999998
   14.71777725  518.90997314    4.90999985    1.88000000
   14.71972179  361.90200806    4.90999985    1.91999996
   14.72111034  422.72601318    4.90999985    1.96000004
   14.72249985  373.90399170    4.90999985    2.05999994
   14.72416592  463.66400146    4.90999985    2.05999994
   14.72527695  424.25299072    4.90999985    2.00000000
   14.72666645  270.52801514    4.90999985    2.00000000
   14.72666645  375.75399780    4.90999985    2.25000000
   14.72694397  347.32000732    4.90999985    2.03999996
   14.72694397  518.90997314    4.90999985    1.88000000
   14.72694397  174.37600708    4.90999985    2.28999996
   14.72722149  175.52900696    4.90999985    2.30999994
   14.72722149  205.03999329    4.90999985    2.32999992
   14.72722149  224.38200378    4.90999985    2.34999990
   14.72749996  268.91699219    4.90999985    2.28999996
   14.72749996  279.18600464    4.90999985    2.23000002
   14.73194408  279.18600464    4.90999985    2.26999998
   14.73583317  248.70100403    4.90999985    2.42000008
   14.73916721  196.24200439    4.90999985    2.36999989
   14.74222279  208.80599976    4.90999985    2.30999994
   14.74555588  212.67799377    4.90999985    2.36999989
   14.74888897  207.31100464    4.90999985    2.36999989
   14.75194454  196.26499939    4.90999985    2.36999989
   14.75527763  219.32099915    4.90999985    2.40000010
   14.75833321  210.01800537    4.90999985    2.48000002
   14.76055527  161.68099976    4.90999985    2.46000004
   14.76222229  205.40299988    4.90999985    2.48000002
   14.76527786  177.86799622    4.90999985    2.50000000
   14.76861095  214.16000366    4.90999985    2.50000000
   14.77444458  214.16000366    4.90999985    2.51999998
   14.77861118  180.96000671    4.90999985    2.46000004
   14.78194427  210.99299622    4.90999985    2.44000006
   14.78500080  173.48899841    4.90999985    2.51999998
   14.78833389  202.75599670    4.90999985    2.50000000
   14.79166698  206.47599792    4.90999985    2.46000004
   14.79388905  165.47399902    4.90999985    2.46000004
   14.79527855  174.32000732    4.90999985    2.46000004
   14.79833412  174.61099243    4.57999992    2.46000004
   14.80166721  172.28999329    3.78999996    2.55999994
   14.80472279  183.55099487    3.66000009    2.55999994
   14.80805588  189.10099792    3.11999989    2.57999992
   14.81138897  172.21099854    2.51999998    2.59999990
   14.81750011  172.21099854    1.85000002    2.61999989
   14.82138920  169.29100037    3.36999989    2.64000010
   14.82472229  157.73699951    4.21999979    2.61999989
   14.82722187  160.28999329    4.90999985    2.59999990
   14.82861137  165.05099487    4.90999985    2.57999992
   14.83166695  193.81500244    4.90999985    2.55999994
   14.83500004  181.30799866    4.90999985    2.51999998
   14.83805561  217.26699829    4.90999985    2.32999992
   14.84138870  225.98599243    4.90999985    2.26999998
   14.84444427  203.62199402    4.90999985    2.25000000
   14.84777737  186.66700745    4.90999985    2.32999992
   14.85111141  171.98899841    4.90999985    2.42000008
   14.85416698  200.34100342    4.90999985    2.42000008
   14.86027813  200.34100342    4.90999985    2.23000002
   14.86444473  192.13699341    4.90999985    2.17000008
   14.86750031  267.16598511    4.90999985    2.15000010
   14.87083340  280.96499634    4.90999985    2.19000006
   14.87388897  167.03199768    4.90999985    2.25000000
   14.87722206  161.79100037    4.90999985    2.23000002
   14.88055611  160.63600159    4.90999985    2.51999998
   14.88361073  223.61599731    4.90999985    2.25000000
   14.88694477  207.42900085    4.90999985    2.09999990
   14.89000034  191.04499817    4.90999985    2.17000008
   14.89333344  180.40600586    4.90999985    2.28999996
   14.89527798  173.57299805    4.90999985    2.26999998
   14.89694405  193.07200623    4.90999985    2.26999998
   14.90305519  193.07200623    4.90999985    2.59999990
   14.90722179  173.95500183    3.70000005    2.57999992
   14.91055489  165.22900391    2.64000010    2.57999992
   14.91361046  168.95799255    1.75000000    2.59999990
   14.91694450  163.89900208    1.48000002    2.61999989
   14.92000008  176.41499329    1.34000003    2.61999989
   14.92333412  174.31500244    1.26999998    2.59999990
   14.92638874  159.23100281    1.03999996    2.59999990
   14.92861176  172.74899292    0.98000002    2.61999989
   14.93027782  161.50999451    0.95999998    2.59999990
   14.93333340  161.86999512    0.94000000    2.61999989
   14.93666649  169.19900513    0.95999998    2.61999989
   14.93972206  151.16900635    1.00000000    2.61999989
   14.94583321  151.16900635    0.98000002    2.61999989
   14.94999981  159.16700745    0.89999998    2.61999989
   14.95333290  179.94400024    0.81999999    2.61999989
   14.95638847  171.75599670    0.81999999    2.61999989
   14.95972157  160.30400085    0.80000001    2.64000010
   14.96222210  162.02999878    0.80000001    2.64000010
   14.96333313  151.05499268    0.80000001    2.64000010
   14.96666622  159.99000549    0.79000002    2.61999989
   14.96999931  165.33799744    0.75000000    2.61999989
   14.97305489  163.89399719    0.80000001    2.61999989
   14.97638798  151.38400269    0.81999999    2.61999989
   14.97944355  167.67199707    0.81999999    2.61999989
   14.98277760  165.61500549    0.81999999    2.61999989
   14.98888874  165.61500549    0.98000002    2.61999989
   14.99277782  153.36199951    1.16999996    2.61999989
   14.99555588  155.13099670    1.23000002    2.61999989
   14.99638939  165.30499268    1.25000000    2.61999989
   14.99972248  159.15400696    1.23000002    2.64000010
   15.00305557  153.50399780    1.03999996    2.61999989
   15.00611115  157.27600098    1.00000000    2.61999989
   15.00944424  161.92900085    0.88000000    2.61999989
   15.01249981  168.06399536    0.81999999    2.61999989
   15.01583290  142.28100586    0.79000002    2.61999989
   15.01888847  157.99499512    0.79000002    2.61999989
   15.02222157  149.84199524    0.79000002    2.61999989
   15.02555561  143.43200684    0.79000002    2.61999989
   15.03166676  143.43200684    0.76999998    2.61999989
   15.03583336  150.74099731    0.86000001    2.61999989
   15.03888893  142.89300537    0.86000001    2.61999989
   15.04222298  156.04400635    0.86000001    2.61999989
   15.04527855  151.81599426    0.95999998    2.61999989
   15.04861164  158.42999268    1.34000003    2.61999989
   15.05194473  145.40400696    2.15000010    2.59999990
   15.05500031  122.56900024    2.76999998    2.57999992
   15.05833340  138.68200684    2.86999989    2.55999994
   15.06138897  139.02400208    3.16000009    2.51999998
   15.06250000  155.94799805    3.39000010    2.51999998
   15.06527805  138.21899414    4.21999979    2.53999996
   15.06833363  142.60200500    4.30999994    2.53999996
   15.07444477  142.60200500    4.26000023    2.57999992
   15.07861137  133.20500183    4.34999990    2.57999992
   15.08194447  138.24000549    4.13999987    2.59999990
   15.08500004  136.48399353    3.48000002    2.57999992
   15.08833313  144.55900574    3.25000000    2.55999994
   15.09138870  133.66000366    3.64000010    2.57999992
   15.09472179  129.87199402    4.19999981    2.53999996
   15.09583282  140.21800232    4.34999990    2.55999994
   15.09833336  148.49699402    4.21999979    2.55999994
   15.10138893  142.50199890    3.36999989    2.53999996
   15.10472298  135.92100525    2.98000002    2.57999992
   15.10777855  142.81900024    2.50000000    2.57999992
   15.11111164  138.10299683    2.25000000    2.59999990
   15.13305569   83.08740234    2.03999996    2.55999994
   15.13361073   89.70829773    2.01999998    2.57999992
   15.13666630  135.71499634    1.85000002    2.59999990
   15.14000034  127.84300232    1.03999996    2.61999989
   15.14305496  135.80200195    0.83999997    2.61999989
   15.14638901  137.01800537    0.81999999    2.61999989
   15.14972210  148.14300537    0.89999998    2.64000010
   15.15277767  133.40899658    1.05999994    2.61999989
   15.15611076  140.03900146    1.05999994    2.61999989
   15.16027737  140.03900146    1.50000000    2.57999992
   15.16444397  134.93400574    1.55999994    2.57999992
   15.16611099  149.17100525    1.55999994    2.57999992
   15.16805553  143.16000366    1.73000002    2.57999992
   15.17138958  142.99899292    0.67000002    2.64000010
   15.17444515  138.21800232    0.61000001    2.64000010
   15.17777824  134.69799805    0.61000001    2.64000010
   15.18083382  142.28500366    0.61000001    2.64000010
   15.18416691  138.75700378    0.58999997    2.61999989
   15.18722248  139.38499451    0.56999999    2.61999989
   15.19055557  142.23399353    0.58999997    2.64000010
   15.19361115  139.53500366    0.56999999    2.64000010
   15.19694424  136.65199280    0.55000001    2.64000010
   15.20305538  136.65199280    0.55000001    2.61999989
   15.20722198  135.23199463    0.56999999    2.61999989
   15.21027756  144.44700623    0.55000001    2.61999989
   15.21361065  134.03599548    0.55000001    2.61999989
   15.21666622  135.47300720    0.56999999    2.61999989
   15.21999931  135.95700073    0.56999999    2.61999989
   15.22333336  135.24200439    0.58999997    2.64000010
   15.22638798  137.94400024    0.58999997    2.64000010
   15.22972202  144.21000671    0.58999997    2.61999989
   15.23277760  145.20599365    0.63000000    2.64000010
   15.23388958  130.78999329    0.67000002    2.61999989
   15.23666668  141.80000305    0.67000002    2.61999989
   15.24000072  140.65299988    0.67000002    2.64000010
   15.24583340  140.65299988    0.67000002    2.64000010
   15.25000000  142.55499268    0.69000000    2.61999989
   15.25333309  133.61300659    0.69000000    2.61999989
   15.25638866  136.96800232    0.70999998    2.61999989
   15.25972176  125.24500275    0.69000000    2.64000010
   15.26277733  136.74800110    0.69000000    2.64000010
   15.26611137  136.05499268    0.69000000    2.61999989
   15.26722240  138.19299316    0.69000000    2.61999989
   15.26972198  126.68000031    0.67000002    2.61999989
   15.27277756  132.35400391    0.67000002    2.61999989
   15.27611065  133.67799377    0.67000002    2.61999989
   15.27916622  131.62500000    0.63000000    2.64000010
   15.28249931  133.10600281    0.61000001    2.61999989
   15.28861141  133.10600281    0.56999999    2.64000010
   15.29277802  132.90899658    0.56999999    2.64000010
   15.29611111  137.52900696    0.56999999    2.64000010
   15.29916668  131.02699280    0.56999999    2.64000010
   15.30083370  139.74499512    0.56999999    2.64000010
   15.30277824  129.22200012    0.55000001    2.64000010
   15.30611134  129.60400391    0.56999999    2.64000010
   15.30944443  137.30599976    0.56999999    2.64000010
   15.31250000  135.34599304    0.56999999    2.64000010
   15.31583309  139.33299255    0.56999999    2.64000010
   15.31888866  146.65100098    0.55000001    2.64000010
   15.32222176  133.93499756    0.55000001    2.64000010
   15.32527733  131.14500427    0.55000001    2.64000010
   15.33166695  131.14500427    0.56999999    2.64000010
   15.33583260  132.00300598    0.58999997    2.64000010
   15.33916664  135.57899475    0.61000001    2.64000010
   15.34222221  134.97999573    0.61000001    2.64000010
   15.34555531  130.71000671    0.61000001    2.64000010
   15.34861088  135.80999756    0.61000001    2.64000010
   15.35194492  132.64399719    0.63000000    2.64000010
   15.35527802  127.82599640    0.61000001    2.64000010
   15.35833359  133.57899475    0.61000001    2.64000010
   15.45638847   -1.00000000   -1.00000000   -1.00000000
   15.62666702   -1.00000000   -1.00000000   -1.00000000
   15.81083393   -1.00000000   -1.00000000   -1.00000000
   15.93138885  103.72299957    0.47999999    2.64000010
   15.93444443  147.33299255    0.46000001    2.66000009
   15.93777752  172.38600159    0.47999999    2.66000009
   15.94111156  168.10600281    0.47999999    2.66000009
   15.94416714  175.61300659    0.50000000    2.66000009
   15.94750023  164.05900574    0.47999999    2.64000010
   15.95166683  164.05900574    0.47999999    2.66000009
   15.95583344  160.39399719    0.47999999    2.66000009
   15.95888901  160.82299805    0.47999999    2.66000009
   15.96222210  154.18200684    0.46000001    2.66000009
   15.96472168  151.07099915    0.46000001    2.66000009
   15.96583271  164.47500610    0.46000001    2.66000009
   15.96916580  177.18699646    0.47999999    2.66000009
   15.97222137  149.12100220    0.47999999    2.66000009
   15.97555542  146.86199951    0.47999999    2.66000009
   15.97888851  161.09300232    0.47999999    2.66000009
   15.98194408  145.24000549    0.47999999    2.66000009
   15.98527813  151.36199951    0.47999999    2.66000009
   15.98861122  157.59599304    0.47999999    2.66000009
   15.99444485  157.59599304    0.50000000    2.66000009
   15.99861145  129.80599976    0.47999999    2.66000009
   16.00194359  122.35900116    0.47999999    2.66000009
   16.00499916  134.03999329    0.47999999    2.66000009
   16.00833321  140.02099609    0.47999999    2.67000008
   16.01138878  146.65699768    0.47999999    2.67000008
   16.01472282  142.10800171    0.47999999    2.66000009
   16.01805496  145.84100342    0.50000000    2.66000009
   16.02111053  138.38499451    0.47999999    2.66000009
   16.02444458  142.50900269    0.47999999    2.66000009
   16.02777672  141.32600403    0.46000001    2.67000008
   16.03083229  137.00700378    0.46000001    2.66000009
   16.03138924  134.95399475    0.46000001    2.66000009
   16.03722191  134.95399475    0.46000001    2.66000009
   16.04138756  145.69999695    0.46000001    2.66000009
   16.04472160  140.85200500    0.47999999    2.66000009
   16.04777718  143.19299316    0.46000001    2.66000009
   16.05111122  141.13499451    0.46000001    2.66000009
   16.05444336  150.10600281    0.46000001    2.66000009
   16.05749893  150.88999939    0.44000000    2.66000009
   16.06083298  149.29400635    0.44000000    2.66000009
   16.06388855  144.78799438    0.44000000    2.66000009
   16.06472206  153.19500732    0.44000000    2.66000009
   16.06750107  146.39799500    0.44000000    2.66000009
   16.07083511  153.51300049    0.44000000    2.66000009
   16.07389069  149.88099670    0.44000000    2.66000009
   16.08027840  149.88099670    0.41999999    2.66000009
   16.08444595  142.36799622    0.41999999    2.66000009
   16.08750153  142.32400513    0.41999999    2.66000009
   16.09083366  120.81900024    0.44000000    2.66000009
   16.09388924  138.38200378    0.44000000    2.66000009
   16.09722328  139.09599304    0.44000000    2.66000009
   16.09833336  146.36599731    0.44000000    2.66000009
   16.10083389  150.59700012    0.44000000    2.66000009
   16.10416794  154.49899292    0.44000000    2.66000009
   16.10722351  152.62300110    0.44000000    2.66000009
   16.11055565  142.64500427    0.44000000    2.66000009
   16.11388969  144.19900513    0.44000000    2.66000009
   16.11694527  151.20100403    0.44000000    2.66000009
   16.12305641  151.20100403    0.46000001    2.66000009
   16.12722206  146.92199707    0.44000000    2.66000009
   16.13027763  153.90899658    0.44000000    2.66000009
   16.13138962  148.29200745    0.44000000    2.66000009
   16.13388824  139.39599609    0.44000000    2.66000009
   16.13722229  143.62399292    0.44000000    2.66000009
   16.14027786  142.60299683    0.44000000    2.66000009
   16.14361191  151.24200439    0.46000001    2.66000009
   16.14694405  137.04299927    0.46000001    2.66000009
   16.14999962  158.14199829    0.46000001    2.66000009
   16.15333366  144.65800476    0.46000001    2.66000009
   16.15638924  155.88400269    0.46000001    2.66000009
   16.15972137  144.78900146    0.46000001    2.66000009
   16.16583252  144.78900146    0.46000001    2.66000009
   16.17000008  151.27099609    0.46000001    2.64000010
   16.17333221  134.59800720    0.47999999    2.66000009
   16.17638779  141.41700745    0.50000000    2.67000008
   16.17972183  122.45099640    0.50000000    2.67000008
   16.18277740  157.29299927    0.51999998    2.66000009
   16.18610954  145.02600098    0.50000000    2.66000009
   16.18944359  166.58500671    0.51999998    2.66000009
   16.19249916  137.10200500    0.52999997    2.66000009
   16.19583321  140.93800354    0.52999997    2.66000009
   16.19805527  142.52299500    0.52999997    2.66000009
   16.19944382  128.13299561    0.51999998    2.66000009
   16.20277786  130.16799927    0.51999998    2.66000009
   16.20861244  130.16799927    0.52999997    2.66000009
   16.21277809  137.87800598    0.56999999    2.66000009
   16.21611214  137.74699402    0.55000001    2.66000009
   16.21916771  140.00700378    0.55000001    2.66000009
   16.22249985  134.59100342    0.51999998    2.66000009
   16.22583389  133.21499634    0.50000000    2.66000009
   16.22888947  138.01800537    0.47999999    2.66000009
   16.23166656  141.17300415    0.50000000    2.66000009
   16.23250008  132.16700745    0.50000000    2.66000009
   16.23583412  135.73800659    0.51999998    2.64000010
   16.23888969  134.82899475    0.51999998    2.64000010
   16.24222183  144.35400391    0.55000001    2.67000008
   16.24555588  127.45500183    0.61000001    2.66000009
   16.25166702  127.45500183    0.64999998    2.66000009
   16.25555611  155.82499695    0.64999998    2.66000009
   16.25888824  136.90600586    0.64999998    2.66000009
   16.26222229  140.75599670    0.63000000    2.66000009
   16.26499939  141.82000732    0.61000001    2.66000009
   16.26583290  124.85900116    0.61000001    2.66000009
   16.26916695  137.84500122    0.58999997    2.66000009
   16.27249908  137.99200439    0.61000001    2.66000009
   16.27555466  142.10000610    0.61000001    2.66000009
   16.27888870  138.96699524    0.61000001    2.67000008
   16.28194427  137.75799561    0.61000001    2.66000009
   16.28527641  132.79100037    0.63000000    2.66000009
   16.28861046  138.12899780    0.64999998    2.67000008
   16.29444313  138.12899780    0.63000000    2.66000009
   16.29861069  126.79900360    0.58999997    2.66000009
   16.30166626  140.43200684    0.61000001    2.64000010
   16.30499840  138.38400269    0.58999997    2.66000009
   16.30833244  139.38900757    0.56999999    2.67000008
   16.31138802  132.05499268    0.56999999    2.67000008
   16.31472206  125.70200348    0.55000001    2.66000009
   16.31777954  129.41700745    0.51999998    2.66000009
   16.32111168  133.80299377    0.50000000    2.66000009
   16.32444572  121.98200226    0.50000000    2.66000009
   16.32750130  133.28199768    0.47999999    2.67000008
   16.33083344  129.46899414    0.47999999    2.67000008
   16.33166695  128.74099731    0.46000001    2.66000009
   16.33722305  128.74099731    0.44000000    2.67000008
   16.34138870  124.25099945    0.46000001    2.66000009
   16.34444427  121.63899994    0.44000000    2.69000006
   16.34777832  127.29199982    0.44000000    2.66000009
   16.35111237  120.86599731    0.44000000    2.66000009
   16.35416794  132.49800110    0.44000000    2.66000009
   16.35750008  131.15699768    0.41999999    2.67000008
   16.36083412  129.63400269    0.41999999    2.66000009
   16.36388969  113.48300171    0.41999999    2.67000008
   16.36499977  133.55200195    0.41999999    2.67000008
   16.36750031  138.82600403    0.41999999    2.66000009
   16.37083435  129.11999512    0.41999999    2.66000009
   16.37388992  138.84199524    0.41999999    2.66000009
   16.38000107  138.84199524    0.41999999    2.67000008
   16.38416672  133.67799377    0.41999999    2.67000008
   16.38750076  136.20700073    0.41999999    2.67000008
   16.39055634  141.98699951    0.41999999    2.67000008
   16.39388847  131.33700562    0.44000000    2.66000009
   16.39722252  144.26100159    0.44000000    2.67000008
   16.39833260  117.55300140    0.44000000    2.67000008
   16.40055466  139.49000549    0.44000000    2.67000008
   16.40388870  136.40899658    0.46000001    2.66000009
   16.40694427  138.20300293    0.46000001    2.66000009
   16.41027832  138.16499329    0.44000000    2.66000009
   16.41361046  151.75399780    0.46000001    2.66000009
   16.41666603  138.79600525    0.44000000    2.67000008
   16.42305565  138.79600525    0.44000000    2.67000008
   16.42694473  134.90899658    0.46000001    2.66000009
   16.43027687  150.94999695    0.46000001    2.66000009
   16.43166542  134.51100159    0.44000000    2.67000008
   16.43388748  140.37600708    0.44000000    2.67000008
   16.43722153  160.88600159    0.44000000    2.67000008
   16.44055557  144.09100342    0.44000000    2.66000009
   16.44361115  168.18699646    0.41999999    2.67000008
   16.44694328  145.86399841    0.41999999    2.67000008
   16.45027924  171.05299377    0.41999999    2.67000008
   16.45333481  148.56500244    0.41999999    2.67000008
   16.45666695  157.51100159    0.41999999    2.66000009
   16.45972252  167.57400513    0.41999999    2.67000008
   16.46583366  167.57400513    0.41999999    2.67000008
   16.47000122  170.27099609    0.41999999    2.66000009
   16.47305679  167.50900269    0.41999999    2.66000009
   16.47638893  169.43099976    0.44000000    2.66000009
   16.47972298  168.95300293    0.44000000    2.66000009
   16.48277855  174.44599915    0.44000000    2.66000009
   16.48611069  154.42700195    0.44000000    2.66000009
   16.48944473  164.12500000    0.41999999    2.66000009
   16.49250031  167.93800354    0.41999999    2.67000008
   16.49583435  176.42700195    0.41999999    2.67000008
   16.49833298  189.05999756    0.41999999    2.67000008
   16.49944496  183.09800720    0.41999999    2.67000008
   16.50277710  185.76899719    0.41999999    2.66000009
   16.50861168  185.76899719    0.44000000    2.66000009
   16.51277733  205.84899902    0.44000000    2.66000009
   16.51611137  171.92799377    0.44000000    2.67000008
   16.51916695  180.81399536    0.44000000    2.67000008
   16.52249908  169.65299988    0.44000000    2.67000008
   16.52555466  152.86799622    0.44000000    2.66000009
   16.52888870  188.59599304    0.44000000    2.66000009
   16.53166580  159.41799927    0.46000001    2.66000009
   16.53249931  183.89799500    0.46000001    2.66000009
   16.53583336  164.07699585    0.46000001    2.67000008
   16.53916550  183.84399414    0.46000001    2.66000009
   16.54222107  171.71600342    0.44000000    2.66000009
   16.54555511  185.44700623    0.44000000    2.67000008
   16.55138779  185.44700623    0.41999999    2.67000008
   16.55555534  180.69299316    0.44000000    2.66000009
   16.55888748  196.83299255    0.44000000    2.66000009
   16.56194305  185.38200378    0.44000000    2.66000009
   16.56499863  156.72300720    0.44000000    2.67000008
   16.56555557  163.43400574    0.44000000    2.67000008
   16.56888962  138.44200134    0.44000000    2.66000009
   16.57222366  146.82600403    0.44000000    2.66000009
   16.57527924  142.33599854    0.44000000    2.67000008
   16.57861137  147.25199890    0.44000000    2.67000008
   16.58166695  155.94900513    0.44000000    2.67000008
   16.58500099  139.24200439    0.44000000    2.66000009
   16.58833313  147.65199280    0.44000000    2.66000009
   16.59444427  147.65199280    0.44000000    2.67000008
   16.59833336  147.30200195    0.46000001    2.66000009
   16.60166740  137.97300720    0.44000000    2.67000008
   16.60499954  142.60099792    0.44000000    2.67000008
   16.60805511  142.83700562    0.44000000    2.67000008
   16.61138916  128.99600220    0.44000000    2.66000009
   16.61444473  150.95899963    0.44000000    2.66000009
   16.61777878  140.79899597    0.44000000    2.66000009
   16.62111092  156.77299500    0.44000000    2.66000009
   16.62416649  150.16700745    0.44000000    2.67000008
   16.62750053  142.64199829    0.44000000    2.67000008
   16.63083267  147.77699280    0.46000001    2.67000008
   16.63166618  143.88800049    0.46000001    2.67000008
   16.63722229  143.88800049    0.44000000    2.66000009
   16.64138794  163.19099426    0.44000000    2.66000009
   16.64444351  151.18200684    0.44000000    2.67000008
   16.64777756  144.69000244    0.44000000    2.67000008
   16.65083313  148.61799622    0.44000000    2.66000009
   16.65416718  147.60200500    0.44000000    2.67000008
   16.65749931  133.19700623    0.44000000    2.67000008
   16.66055489  136.22200012    0.44000000    2.67000008
   16.66388893  144.38400269    0.44000000    2.67000008
   16.66499901  144.00300598    0.44000000    2.67000008
   16.66749954  131.70399475    0.44000000    2.67000008
   16.67083359  136.25999451    0.44000000    2.67000008
   16.67416573  132.40199280    0.44000000    2.67000008
   16.68000031  132.40199280    0.44000000    2.67000008
   16.68416595  132.92900085    0.44000000    2.67000008
   16.68750000  136.14799500    0.46000001    2.67000008
   16.69055557  139.63299561    0.46000001    2.67000008
   16.69388771  122.80200195    0.46000001    2.67000008
   16.69722176  141.86399841    0.46000001    2.67000008
   16.69833183  135.87899780    0.46000001    2.67000008
   16.70055580  139.48500061    0.46000001    2.67000008
   16.70388985  144.46899414    0.47999999    2.67000008
   16.70722389  139.43899536    0.46000001    2.67000008
   16.71027946  139.93600464    0.47999999    2.66000009
   16.71361160  114.21900177    0.47999999    2.67000008
   16.71666718  138.01100159    0.47999999    2.67000008
   16.72277832  138.01100159    0.46000001    2.66000009
   16.72694588  130.79400635    0.47999999    2.67000008
   16.73027802  124.58399963    0.47999999    2.67000008
   16.73166656  129.00999451    0.47999999    2.67000008
   16.73361206  144.82000732    0.47999999    2.67000008
   16.73694420  129.98300171    0.47999999    2.67000008
   16.74027824  120.00299835    0.47999999    2.67000008
   16.74333382  126.99099731    0.47999999    2.67000008
   16.74666786  129.91400146    0.47999999    2.67000008
   16.74972153  141.39500427    0.47999999    2.67000008
   16.75305557  139.42300415    0.47999999    2.66000009
   16.75638962  146.37100220    0.47999999    2.66000009
   16.75944519  139.52999878    0.47999999    2.66000009
   16.76583290  139.52999878    0.47999999    2.67000008
   16.76972198  142.87899780    0.46000001    2.67000008
   16.77305603  126.00900269    0.47999999    2.67000008
   16.77638817  139.80099487    0.46000001    2.66000009
   16.77944374  139.31100464    0.46000001    2.66000009
   16.78277779  138.35000610    0.46000001    2.66000009
   16.78610992  123.14199829    0.46000001    2.66000009
   16.78916550  133.95599365    0.46000001    2.66000009
   16.79249954  131.26899719    0.46000001    2.67000008
   16.79555511  124.66699982    0.46000001    2.67000008
   16.79833221  116.38700104    0.46000001    2.67000008
   16.79916573  122.30400085    0.47999999    2.67000008
   16.80249977  131.19599915    0.47999999    2.67000008
   16.80861092  131.19599915    0.46000001    2.66000009
   16.81277657  118.44899750    0.46000001    2.67000008
   16.81583214  134.84500122    0.46000001    2.66000009
   16.81916809  121.79299927    0.46000001    2.66000009
   16.82250023  122.86599731    0.46000001    2.67000008
   16.82555580  116.56199646    0.46000001    2.67000008
   16.82888985  123.90299988    0.46000001    2.66000009
   16.83166695  136.22399902    0.46000001    2.67000008
   16.83250046  142.85499573    0.46000001    2.67000008
   16.83583450  121.41400146    0.46000001    2.66000009
   16.83916664  122.70300293    0.46000001    2.66000009
   16.84222221  113.41000366    0.46000001    2.66000009
   16.84555626  123.40399933    0.46000001    2.67000008
   16.85138893  123.40399933    0.47999999    2.66000009
   16.85555649  126.18599701    0.47999999    2.66000009
   16.85888863  128.27200317    0.47999999    2.67000008
   16.86194420  140.66700745    0.47999999    2.67000008
   16.86499977  138.98800659    0.50000000    2.67000008
   16.86555672  132.72000122    0.50000000    2.67000008
   16.86888885  146.50799561    0.47999999    2.67000008
   16.87222290  135.23699951    0.47999999    2.67000008
   16.87527847  131.26300049    0.50000000    2.67000008
   16.87861061  130.86199951    0.50000000    2.66000009
   16.88166618  132.23500061    0.50000000    2.66000009
   16.88500023  146.11999512    0.50000000    2.66000009
   16.88833237  137.14599609    0.50000000    2.66000009
   16.89416695  137.14599609    0.50000000    2.66000009
   16.89833260  128.41499329    0.50000000    2.67000008
   16.90166664  132.86900330    0.51999998    2.67000008
   16.90472221  130.35499573    0.51999998    2.67000008
   16.90805435  124.77200317    0.52999997    2.67000008
   16.91138840  131.37399292    0.51999998    2.67000008
   16.91444397  126.06700134    0.51999998    2.66000009
   16.91777802  137.12300110    0.52999997    2.66000009
   16.92111015  139.02000427    0.55000001    2.66000009
   16.92416573  128.62600708    0.55000001    2.66000009
   16.92749977  134.10000610    0.55000001    2.66000009
   16.93055534  123.01499939    0.55000001    2.66000009
   16.93166542  121.82900238    0.55000001    2.66000009
   16.95222282  121.82900238    0.51999998    2.66000009
   16.95639038  136.38400269    0.50000000    2.66000009
   16.95972252  130.86300659    0.50000000    2.66000009
   16.96277809  120.42600250    0.50000000    2.66000009
   16.96500015  120.20999908    0.47999999    2.66000009
   16.96638870  117.55300140    0.47999999    2.66000009
   16.96972275  131.42300415    0.47999999    2.67000008
   16.97305679  116.21600342    0.47999999    2.67000008
   16.97611237  115.81900024    0.47999999    2.67000008
   16.97944450  119.50000000    0.47999999    2.67000008
   16.98277855  119.95999908    0.47999999    2.66000009
   16.98583412  123.09600067    0.47999999    2.66000009
   16.98916626  117.89700317    0.47999999    2.66000009
   16.99500084  117.89700317    0.46000001    2.67000008
   16.99916649  120.24700165    0.46000001    2.67000008
   17.00250053  116.45300293    0.47999999    2.67000008
   17.00555611  111.65799713    0.46000001    2.67000008
   17.00888824  116.99099731    0.46000001    2.67000008
   17.01222229  117.65799713    0.46000001    2.67000008
   17.01527786  113.68499756    0.47999999    2.67000008
   17.01861000  114.92800140    0.50000000    2.66000009
   17.02166557  114.15100098    0.51999998    2.66000009
   17.02499962  120.68699646    0.51999998    2.66000009
   17.02833366  115.23899841    0.51999998    2.67000008
   17.03138924  119.52999878    0.52999997    2.66000009
   17.03194427  117.37699890    0.52999997    2.66000009
   17.03777695  117.37699890    0.55000001    2.67000008
   17.04194450  118.08499908    0.56999999    2.66000009
   17.04527664  126.57800293    0.56999999    2.66000009
   17.04861069  121.15499878    0.56999999    2.66000009
   17.05166626  118.47100067    0.56999999    2.66000009
   17.05499840  120.89399719    0.58999997    2.66000009
   17.05805397  115.65899658    0.63000000    2.66000009
   17.06138802  114.76399994    0.63000000    2.66000009
   17.06472206  115.01100159    0.63000000    2.66000009
   17.06527710  114.19799805    0.63000000    2.66000009
   17.06833458  117.37200165    0.64999998    2.66000009
   17.07166672  120.21800232    0.64999998    2.66000009
   17.07472229  116.92099762    0.63000000    2.67000008
   17.08083344  116.92099762    0.63000000    2.66000009
   17.08500099  122.94599915    0.64999998    2.67000008
   17.08805656  115.04900360    0.63000000    2.66000009
   17.09138870  115.25599670    0.63000000    2.66000009
   17.09444427  136.60299683    0.63000000    2.66000009
   17.09777832  117.40599823    0.63000000    2.66000009
   17.09861183  118.88700104    0.63000000    2.66000009
   17.10138893  122.44699860    0.63000000    2.66000009
   17.10472298  125.91000366    0.64999998    2.66000009
   17.10777855  126.42600250    0.67000002    2.66000009
   17.11111069  123.03500366    0.69000000    2.66000009
   17.11444473  118.66400146    0.69000000    2.66000009
   17.11750031  114.73200226    0.69000000    2.66000009
   17.12361145  114.73200226    0.73000002    2.66000009
   17.12777710  117.53800201    0.75000000    2.66000009
   17.13083267  120.36599731    0.76999998    2.66000009
   17.13194466  118.69499969    0.76999998    2.66000009
   17.13472176  113.28099823    0.75000000    2.66000009
   17.13805580  118.79100037    0.73000002    2.66000009
   17.14111137  118.33100128    0.70999998    2.66000009
   17.14444351  114.23500061    0.69000000    2.66000009
   17.14749908  115.53099823    0.69000000    2.66000009
   17.15083313  116.72699738    0.64999998    2.66000009
   17.15416718  115.99099731    0.63000000    2.66000009
   17.15722275  115.49099731    0.61000001    2.66000009
   17.16055489  115.82199860    0.61000001    2.66000009
   17.16638756  115.82199860    0.58999997    2.67000008
   17.17055511  114.30799866    0.56999999    2.66000009
   17.17388916  117.85399628    0.58999997    2.66000009
   17.17694473  111.23999786    0.58999997    2.66000009
   17.18027687  112.27899933    0.58999997    2.66000009
   17.18361092  120.93000031    0.58999997    2.66000009
   17.18666649  125.93699646    0.58999997    2.66000009
   17.18999863  117.58499908    0.61000001    2.66000009
   17.19333267  121.77100372    0.61000001    2.66000009
   17.19638824  118.95700073    0.61000001    2.66000009
   17.19861031  123.04499817    0.63000000    2.67000008
   17.20000076  124.17600250    0.63000000    2.67000008
   17.20333481  113.21499634    0.64999998    2.66000009
   17.20916748  113.21499634    0.67000002    2.66000009
   17.21333504  114.77400208    0.67000002    2.66000009
   17.21666718  119.45400238    0.67000002    2.67000008
   17.22000122  115.75499725    0.67000002    2.67000008
   17.22305679  120.56300354    0.67000002    2.66000009
   17.22638893  116.21800232    0.64999998    2.66000009
   17.22972298  115.73699951    0.64999998    2.66000009
   17.23194504  120.88800049    0.64999998    2.66000009
   17.23333359  111.88600159    0.63000000    2.66000009
   17.23666763  109.85900116    0.63000000    2.66000009
   17.23972321  114.25099945    0.63000000    2.66000009
   17.24305534  119.62599945    0.63000000    2.66000009
   17.24638939  118.49199677    0.63000000    2.66000009
   17.25222206  118.49199677    0.67000002    2.66000009
   17.25638962  114.92299652    0.64999998    2.66000009
   17.25944519  127.36900330    0.64999998    2.66000009
   17.26277733  113.49299622    0.64999998    2.66000009
   17.26527786  119.86199951    0.64999998    2.66000009
   17.26638794  117.68000031    0.64999998    2.66000009
   17.26972198  112.57900238    0.64999998    2.66000009
   17.27277756  117.45600128    0.64999998    2.66000009
   17.27611160  120.36900330    0.63000000    2.66000009
   17.27916718  117.39499664    0.61000001    2.66000009
   17.28249931  118.49299622    0.63000000    2.66000009
   17.28583336  119.23799896    0.64999998    2.66000009
   17.28916550  115.40599823    0.64999998    2.66000009
   17.29500008  115.40599823    0.79000002    2.66000009
   17.29916573  119.16799927    0.73000002    2.66000009
   17.30222130  114.38600159    0.73000002    2.66000009
   17.30555534  114.85199738    0.70999998    2.66000009
   17.30888748  111.94799805    0.67000002    2.66000009
   17.31194305  115.79100037    0.64999998    2.66000009
   17.31527710  105.55300140    0.61000001    2.66000009
   17.31861115  112.05200195    0.61000001    2.66000009
   17.32166672  105.71299744    0.56999999    2.67000008
   17.32500076  114.24299622    0.56999999    2.67000008
   17.32805634  126.17299652    0.56999999    2.66000009
   17.33139038  112.78600311    0.56999999    2.66000009
   17.33194542  111.60800171    0.56999999    2.66000009
   17.33777809  111.60800171    0.56999999    2.66000009
   17.34194565  111.60800171    0.55000001    2.67000008
   17.34527779  108.15799713    0.55000001    2.66000009
   17.34833336  108.58200073    0.56999999    2.66000009
   17.35166740  108.22499847    0.61000001    2.66000009
   17.35499954  113.30500031    0.63000000    2.67000008
   17.35805511  114.10099792    0.63000000    2.66000009
   17.36138916  114.90799713    0.63000000    2.66000009
   17.36444473  111.38700104    0.61000001    2.66000009
   17.36527824  114.61799622    0.61000001    2.66000009
   17.36805534  111.62999725    0.58999997    2.66000009
   17.37138939  114.39900208    0.58999997    2.66000009
   17.37444496  111.20999908    0.56999999    2.66000009
   17.38055611  111.20999908    0.55000001    2.67000008
   17.38472176  116.96900177    0.55000001    2.66000009
   17.38805580  114.73899841    0.55000001    2.66000009
   17.39138794  109.71600342    0.52999997    2.66000009
   17.39444351  105.60500336    0.52999997    2.67000008
   17.39777756  122.58999634    0.52999997    2.66000009
   17.39861107  110.76899719    0.52999997    2.66000009
   17.40138817  110.94799805    0.55000001    2.66000009
   17.40472221  115.34200287    0.55000001    2.64000010
   17.40777779  115.51499939    0.56999999    2.66000009
   17.41110992  121.48999786    0.56999999    2.66000009
   17.41444397  117.21900177    0.56999999    2.66000009
   17.41749954  112.20899963    0.56999999    2.66000009
   17.42361069  112.20899963    0.56999999    2.66000009
   17.42777634  111.60500336    0.56999999    2.66000009
   17.43083191  118.55999756    0.56999999    2.66000009
   17.43194389  115.49600220    0.56999999    2.66000009
   17.43444443  114.59300232    0.56999999    2.66000009
   17.43777657  116.69100189    0.56999999    2.66000009
   17.44083214  121.76999664    0.56999999    2.67000008
   17.44416618  120.14800262    0.56999999    2.66000009
   17.44749832  110.78900146    0.56999999    2.66000009
   17.45055580  112.44499969    0.56999999    2.66000009
   17.45388985  119.00499725    0.56999999    2.66000009
   17.45722389  115.94100189    0.56999999    2.66000009
   17.46027946  117.72899628    0.56999999    2.67000008
   17.46638870  117.72899628    0.55000001    2.66000009
   17.47055626  125.03700256    0.55000001    2.66000009
   17.47389030  119.09799957    0.52999997    2.66000009
   17.47694588  123.87699890    0.52999997    2.67000008
   17.48027802  126.19499969    0.52999997    2.66000009
   17.48333359  113.19599915    0.52999997    2.66000009
   17.48666763  125.45700073    0.52999997    2.66000009
   17.48999977  120.25700378    0.51999998    2.66000009
   17.49305534  112.42500305    0.50000000    2.66000009
   17.49638939  125.40200043    0.50000000    2.66000009
   17.49861145  130.83000183    0.50000000    2.66000009
   17.50000000  122.45600128    0.47999999    2.66000009
   17.50333405  122.19000244    0.47999999    2.66000009
   17.50916672  122.19000244    0.46000001    2.66000009
   17.51333427  126.02600098    0.44000000    2.66000009
   17.51666641  126.60099792    0.46000001    2.66000009
   17.51972198  126.81999969    0.46000001    2.66000009
   17.52305603  122.08300018    0.46000001    2.66000009
   17.52638817  119.42500305    0.46000001    2.66000009
   17.52944374  118.60500336    0.46000001    2.66000009
   17.53194427  110.51399994    0.46000001    2.66000009
   17.53305435  114.20099640    0.46000001    2.66000009
   17.53638840  124.85900116    0.46000001    2.66000009
   17.53944397  111.79000092    0.46000001    2.66000009
   17.54277802  127.04799652    0.46000001    2.66000009
   17.54611015  120.55100250    0.44000000    2.66000009
   17.55194283  120.55100250    0.44000000    2.66000009
   17.55611038  123.50499725    0.41999999    2.66000009
   17.55944443  121.96099854    0.41999999    2.66000009
   17.56277657  118.91300201    0.44000000    2.66000009
   17.56527710  120.60900116    0.44000000    2.66000009
   17.56638718  118.73100281    0.44000000    2.66000009
   17.56972313  116.59700012    0.46000001    2.66000009
   17.57277870  110.79100037    0.44000000    2.66000009
   17.57611275  121.40200043    0.44000000    2.66000009
   17.57944489  121.60099792    0.44000000    2.66000009
   17.58250046  122.53700256    0.44000000    2.66000009
   17.58583450  120.20400238    0.44000000    2.66000009
   17.58916664  118.43499756    0.44000000    2.66000009
   17.59500122  118.43499756    0.41999999    2.66000009
   17.59916687  117.00700378    0.44000000    2.66000009
   17.60222244  111.11499786    0.44000000    2.66000009
   17.60555649  116.92600250    0.44000000    2.66000009
   17.60861206  120.29599762    0.44000000    2.66000009
   17.61194420  119.66300201    0.44000000    2.66000009
   17.61527824  115.03399658    0.46000001    2.66000009
   17.61833382  111.76499939    0.46000001    2.66000009
   17.62166595  114.95700073    0.44000000    2.66000009
   17.62500000  112.58799744    0.46000001    2.66000009
   17.62805557  117.08300018    0.46000001    2.66000009
   17.63138962  113.09400177    0.46000001    2.66000009
   17.63222313  113.09300232    0.46000001    2.66000009
   17.63777733  113.09300232    0.44000000    2.66000009
   17.64194489  114.14700317    0.46000001    2.64000010
   17.64500046  118.30300140    0.46000001    2.64000010
   17.64833260  111.62999725    0.44000000    2.66000009
   17.65166664  115.74500275    0.44000000    2.66000009
   17.65472221  111.83200073    0.46000001    2.66000009
   17.65805435  110.52100372    0.46000001    2.66000009
   17.66138840  110.78900146    0.52999997    2.66000009
   17.66444397  110.35800171    0.58999997    2.64000010
   17.66555595  112.53600311    0.58999997    2.64000010
   17.66805458  109.30000305    0.58999997    2.64000010
   17.67138863  116.40000153    0.56999999    2.66000009
   17.67472076  106.97899628    0.61000001    2.66000009
   17.68055534  106.97899628    0.70999998    2.64000010
   17.68499947  117.05200195    0.69000000    2.66000009
   17.68805504  112.46099854    0.64999998    2.66000009
   17.69138718  116.12799835    0.61000001    2.64000010
   17.69444275  114.35600281    0.61000001    2.64000010
   17.69777679  114.36299896    0.56999999    2.64000010
   17.69888878  115.91000366    0.51999998    2.66000009
   17.70138931  113.60500336    0.51999998    2.66000009
   17.70472336  107.07900238    0.50000000    2.66000009
   17.70777893  119.65399933    0.51999998    2.66000009
   17.71111107  122.30799866    0.51999998    2.66000009
   17.71444511  119.48699951    0.51999998    2.66000009
   17.71750069  125.45300293    0.52999997    2.64000010
   17.72333336  125.45300293    0.56999999    2.66000009
   17.72750092  112.47200012    0.58999997    2.66000009
   17.73083305  113.91699982    0.61000001    2.64000010
   17.73222351  123.61100006    0.69000000    2.66000009
   17.73444557  125.13099670    0.69000000    2.66000009
   17.73777771  112.79399872    0.79000002    2.66000009
   17.74111176  124.07299805    0.76999998    2.66000009
   17.74416733  122.97899628    0.76999998    2.66000009
   17.74749947  114.48100281    0.80000001    2.64000010
   17.75083351  115.78800201    0.81999999    2.64000010
   17.75388908  116.33200073    0.81999999    2.64000010
   17.75722313  111.41300201    0.88000000    2.64000010
   17.76027870  130.13900757    0.88000000    2.64000010
   17.76638794  130.13900757    0.89999998    2.64000010
   17.77027702  122.61699677    0.86000001    2.64000010
   17.77361107  113.98699951    0.83999997    2.64000010
   17.77694511  113.09999847    0.80000001    2.66000009
   17.78000069  113.97299957    0.76999998    2.64000010
   17.78333282  127.23500061    0.76999998    2.64000010
   17.78666687  109.27400208    0.75000000    2.64000010
   17.78972244  110.70600128    0.73000002    2.64000010
   17.79305458  112.97100067    0.67000002    2.66000009
   17.79638863  117.28199768    0.61000001    2.66000009
   17.79888916  113.25000000    0.61000001    2.66000009
   17.79999924  126.23000336    0.63000000    2.64000010
   17.80333328  112.25700378    0.67000002    2.64000010
   17.80916595  112.25700378    0.70999998    2.64000010
   17.81333351  120.49700165    0.70999998    2.66000009
   17.81666756  121.34200287    0.69000000    2.64000010
   17.81972313  136.06900024    0.69000000    2.64000010
   17.82305717  112.38500214    0.70999998    2.64000010
   17.82611275  131.65899658    0.80000001    2.64000010
   17.82944489  127.67099762    0.80000001    2.64000010
   17.83222389  122.16100311    0.83999997    2.64000010
   17.83305550  121.93299866    0.83999997    2.64000010
   17.83638954  108.14900208    0.89999998    2.64000010
   17.83972359  106.55999756    0.92000002    2.64000010
   17.84277916  134.75700378    0.98000002    2.64000010
   17.84611130  105.34600067    1.05999994    2.64000010
   17.85194397  105.34600067    1.05999994    2.64000010
   17.85611153  117.23899841    1.05999994    2.64000010
   17.85944557  112.04399872    1.05999994    2.64000010
   17.86250114  113.64600372    0.95999998    2.64000010
   17.86555672  107.94400024    0.95999998    2.64000010
   17.86611176  110.75399780    0.95999998    2.64000010
   17.86944389  112.08999634    0.95999998    2.64000010
   17.87277794  115.32199860    0.94000000    2.66000009
   17.87583351  112.33100128    0.92000002    2.64000010
   17.87916756  114.67600250    0.95999998    2.66000009
   17.88222313  130.48500061    0.95999998    2.66000009
   17.88555527  133.84599304    0.95999998    2.66000009
   17.88888931  120.19899750    0.98000002    2.64000010
   17.89472198  120.19899750    0.98000002    2.64000010
   17.89888954  113.70300293    0.98000002    2.64000010
   17.90222168  125.79900360    0.98000002    2.64000010
   17.90555573  117.90799713    0.94000000    2.64000010
   17.90888786  128.28199768    0.89999998    2.64000010
   17.91222191  119.82199860    0.88000000    2.66000009
   17.91555595  126.54199982    0.88000000    2.66000009
   17.91860962  135.57400513    0.88000000    2.64000010
   17.92194366  137.05499268    0.92000002    2.64000010
   17.92499924  130.49699402    0.94000000    2.64000010
   17.92833328  130.19900513    1.05999994    2.66000009
   17.93166542  123.14299774    1.05999994    2.66000009
   17.93222237  128.24800110    1.05999994    2.64000010
   17.93777657  128.24800110    1.07000005    2.64000010
   17.94166565  106.25800323    1.11000001    2.64000010
   17.94499969  117.04699707    1.13000000    2.64000010
   17.94833183  111.03800201    1.21000004    2.64000010
   17.96583366  116.53199768    1.41999996    2.61999989
   17.96833420  129.36000061    1.41999996    2.61999989
   17.97138977  104.26999664    1.39999998    2.64000010
   17.97472191  131.27499390    1.39999998    2.64000010
   17.98055649  131.27499390    1.30999994    2.64000010
   17.98472214  103.19599915    1.28999996    2.64000010
   17.98805618  118.77100372    1.26999998    2.61999989
   17.99138832  116.45899963    1.28999996    2.64000010
   17.99444389  122.10099792    1.28999996    2.61999989
   17.99777794  119.32399750    1.28999996    2.61999989
   17.99944496  130.49000549    1.25000000    2.61999989
   18.00194359  104.35099792    1.16999996    2.64000010
   18.00499916  118.64499664    1.16999996    2.64000010
   18.00833321  110.73999786    1.09000003    2.64000010
   18.01138878  104.78800201    1.03999996    2.64000010
   18.01472282  122.55300140    1.03999996    2.64000010
   18.01805496  111.17700195    1.03999996    2.64000010
   18.02361107  111.17700195    1.07000005    2.64000010
   18.02777672  116.48400116    1.09000003    2.64000010
   18.03083229  116.95899963    1.07000005    2.64000010
   18.03249931  112.17500305    1.07000005    2.64000010
   18.03444481  127.18900299    1.09000003    2.64000010
   18.03777695  125.38200378    1.14999998    2.61999989
   18.04111099  113.34999847    1.14999998    2.61999989
   18.04416656  104.94100189    1.19000006    2.64000010
   18.04749870  131.80599976    1.21000004    2.64000010
   18.05083275  129.36799622    1.19000006    2.61999989
   18.05388832  131.90100098    1.13000000    2.61999989
   18.05722237  120.77799988    1.11000001    2.61999989
   18.06055450  106.98999786    1.11000001    2.61999989
   18.06638718  106.98999786    1.11000001    2.64000010
   18.07055664  134.77299500    1.09000003    2.64000010
   18.07361221  111.01599884    1.09000003    2.64000010
   18.07694626  112.94300079    1.05999994    2.64000010
   18.08027840  105.77600098    1.01999998    2.64000010
   18.08333397  115.39299774    1.00000000    2.64000010
   18.08666801  120.45999908    1.00000000    2.64000010
   18.09000015  110.83000183    1.01999998    2.61999989
   18.09305573  104.58399963    1.00000000    2.61999989
   18.09638977  118.67600250    1.01999998    2.64000010
   18.09916687  123.13200378    1.01999998    2.64000010
   18.10000038  117.69300079    1.01999998    2.64000010
   18.10333443   98.87500000    1.03999996    2.64000010
   18.10916710   98.87500000    0.98000002    2.64000010
   18.11333466  108.99199677    0.98000002    2.64000010
   18.11666679  114.80599976    0.98000002    2.64000010
   18.11972237  117.63500214    0.98000002    2.61999989
   18.12305641  118.90699768    0.98000002    2.64000010
   18.12638855  120.54499817    0.98000002    2.64000010
   18.12944412  111.37400055    0.95999998    2.64000010
   18.13249969  121.12500000    0.94000000    2.64000010
   18.13305473  123.28600311    0.94000000    2.64000010
   18.13638878  113.89399719    0.92000002    2.64000010
   18.13972282  117.55200195    0.89999998    2.61999989
   18.14277840  124.51499939    0.89999998    2.64000010
   18.14611053  125.30799866    0.88000000    2.64000010
   18.15194321  125.30799866    0.86000001    2.64000010
   18.15611076  109.34100342    0.83999997    2.61999989
   18.15944481  122.54399872    0.83999997    2.64000010
   18.16277695  108.28199768    0.83999997    2.64000010
   18.16583252  109.72299957    0.83999997    2.64000010
   18.16638756  106.01899719    0.83999997    2.64000010
   18.16944313  114.32299805    0.83999997    2.64000010
   18.17277718  120.04000092    0.83999997    2.64000010
   18.17583275  112.56800079    0.83999997    2.61999989
   18.17916679  119.91200256    0.86000001    2.64000010
   18.18249893  128.21099854    0.86000001    2.64000010
   18.18555450  119.31900024    0.86000001    2.64000010
   18.18888855  116.11100006    0.83999997    2.64000010
   18.19499969  116.11100006    0.83999997    2.64000010
   18.19916534  115.33999634    0.86000001    2.61999989
   18.19972038  113.15100098    0.86000001    2.61999989
   18.20277786  116.23899841    0.89999998    2.61999989
   18.20611191  108.82599640    0.89999998    2.61999989
   18.20944595  110.99099731    0.92000002    2.61999989
   18.21250153  121.83000183    0.94000000    2.61999989
   18.21583366  113.00599670    0.95999998    2.64000010
   18.21916771  111.85399628    0.98000002    2.61999989
   18.22222328  113.38600159    1.00000000    2.61999989
   18.22555542  111.08999634    1.03999996    2.61999989
   18.22888947  114.45800018    1.03999996    2.61999989
   18.23194504  114.00499725    1.03999996    2.64000010
   18.23250008  118.10800171    1.03999996    2.64000010
   18.23777771  118.10800171    1.03999996    2.61999989
   18.24194527  115.27899933    1.03999996    2.61999989
   18.24527740  116.66999817    1.03999996    2.61999989
   18.24833298  111.06099701    1.01999998    2.61999989
   18.25166702  110.86000061    1.01999998    2.61999989
   18.25472260  114.24800110    1.01999998    2.64000010
   18.25805473  109.90299988    1.01999998    2.61999989
   18.26138878  118.86900330    1.01999998    2.61999989
   18.26444435  108.65200043    1.00000000    2.61999989
   18.26583290  104.75199890    1.00000000    2.61999989
   18.26833344  111.91300201    0.95999998    2.61999989
   18.27138901  110.13800049    0.94000000    2.61999989
   18.27472115  106.32599640    0.92000002    2.61999989
   18.28055573  106.32599640    0.92000002    2.61999989
   18.28472137  110.84700012    0.88000000    2.61999989
   18.28805542  109.18399811    0.86000001    2.61999989
   18.29111099  110.25700378    0.83999997    2.61999989
   18.29444313  106.11900330    0.83999997    2.61999989
   18.29777718  115.89099884    0.81999999    2.61999989
   18.29916573  109.20899963    0.83999997    2.61999989
   18.30138779  110.11900330    0.86000001    2.61999989
   18.30472183  105.56600189    0.86000001    2.61999989
   18.30777740  110.96199799    0.89999998    2.61999989
   18.31110954  111.70899963    0.92000002    2.61999989
   18.31416512  130.83700562    0.92000002    2.61999989
   18.31750107  112.04399872    0.92000002    2.61999989
   18.32333374  112.04399872    0.95999998    2.61999989
   18.32750130  121.34999847    1.03999996    2.61999989
   18.33083344  113.22599792    1.60000002    2.59999990
   18.33250046  120.08799744    1.60000002    2.59999990
   18.33444595  113.77700043    1.63000000    2.61999989
   18.33750153  116.19599915    1.63000000    2.61999989
   18.34083366  122.77799988    1.48000002    2.61999989
   18.34416771  114.54199982    1.48000002    2.61999989
   18.34722328  118.56099701    1.46000004    2.59999990
   18.35055542  104.87200165    1.38000000    2.59999990
   18.35388947  103.32800293    1.26999998    2.61999989
   18.35694504  102.93399811    1.25000000    2.61999989
   18.36027908  106.92299652    1.21000004    2.61999989
   18.36638832  106.92299652    1.19000006    2.61999989
   18.37055588  111.79900360    1.19000006    2.59999990
   18.37361145  114.84899902    1.19000006    2.59999990
   18.37694550  115.41899872    1.19000006    2.61999989
   18.38000107  116.54000092    1.16999996    2.61999989
   18.38333321  115.98799896    1.16999996    2.61999989
   18.38666725  118.37000275    1.16999996    2.61999989
   18.38972282  114.95800018    1.16999996    2.59999990
   18.39305496  115.54599762    1.14999998    2.61999989
   18.39638901  110.07900238    1.11000001    2.59999990
   18.39916611  113.30200195    1.09000003    2.61999989
   18.39999962  115.35399628    1.09000003    2.61999989
   18.40333366  112.99800110    1.14999998    2.59999990
   18.40916634  112.99800110    1.16999996    2.59999990
   18.41333389  111.95400238    1.16999996    2.61999989
   18.41638756  117.98500061    1.13000000    2.61999989
   18.41972160  111.63099670    1.13000000    2.59999990
   18.42305565  113.90599823    1.13000000    2.59999990
   18.42611122  114.60600281    1.14999998    2.59999990
   18.42944336  111.20999908    1.11000001    2.59999990
   18.43249893  113.31800079    1.07000005    2.61999989
   18.43305397  111.41000366    1.07000005    2.61999989
   18.43638802  116.21099854    1.07000005    2.61999989
   18.43944359  106.63800049    1.03999996    2.61999989
   18.44277763  108.58399963    1.03999996    2.59999990
   18.44583321  113.79199982    1.11000001    2.59999990
   18.45194435  113.79199982    1.01999998    2.59999990
   18.45611191  119.99700165    0.94000000    2.61999989
   18.45944595  117.15499878    0.94000000    2.61999989
   18.46250153  112.26300049    1.00000000    2.61999989
   18.46583366  118.48500061    0.88000000    2.59999990
   18.46638870  113.54599762    0.88000000    2.59999990
   18.46944427  115.76300049    0.89999998    2.61999989
   18.47277832  115.20300293    0.89999998    2.61999989
   18.47611237  115.84100342    0.95999998    2.61999989
   18.47916794  120.86799622    1.00000000    2.59999990
   18.48250008  113.38700104    1.00000000    2.59999990
   18.48583412  112.66699982    0.98000002    2.61999989
   18.48888969  122.27200317    1.41999996    2.59999990
   18.49472237  122.27200317    2.05999994    2.59999990
   18.49888992  131.52299500    2.89000010    2.53999996
   18.49944496  114.39700317    3.73000002    2.53999996
   18.50277710  116.02200317    4.23999977    2.51999998
   18.50611115  114.42800140    4.90999985    2.55999994
   18.50916672  118.14600372    4.90999985    2.53999996
   18.51250076  103.54799652    4.90999985    2.57999992
   18.51555634  119.54299927    4.90999985    2.48000002
   18.51916695  120.27300262    4.90999985    2.51999998
   18.52249908  128.36300659    4.90999985    2.46000004
   18.52555466  118.90799713    4.90999985    2.50000000
   18.52888870  119.84999847    4.90999985    2.46000004
   18.53222275  121.72499847    4.90999985    2.39000010
   18.53277779  129.21499634    4.90999985    2.39000010
   18.53777695  129.21499634    4.90999985    2.28999996
   18.54194450  130.03700256    4.90999985    2.28999996
   18.54500008  118.31199646    4.90999985    2.32999992
   18.54833221  156.60699463    4.90999985    2.25000000
   18.55138779  148.03500366    4.90999985    2.17000008
   18.55472183  118.08999634    4.90999985    2.25000000
   18.55805397  118.24600220    4.90999985    2.34999990
   18.56138802  125.21199799    4.90999985    2.30999994
   18.56444359  145.99299622    4.90999985    2.36999989
   18.56611061  137.79899597    4.90999985    2.30999994
   18.56805611  137.64199829    4.90999985    2.28999996
   18.57139015  141.50999451    4.90999985    2.23000002
   18.57444572  138.51100159    4.90999985    2.19000006
   18.58055687  138.51100159    4.90999985    2.09999990
   18.58472252  173.81300354    4.90999985    2.09999990
   18.58777809  132.53599548    4.90999985    2.17000008
   18.59111214  156.76699829    4.90999985    2.11999989
   18.59444427  170.91799927    4.90999985    2.15000010
   18.59749985  156.42700195    4.90999985    2.21000004
   18.59944534  147.07200623    4.90999985    2.21000004
   18.60111237  124.67099762    4.90999985    2.17000008
   18.60444450  140.19099426    4.90999985    2.11999989
   18.60750008  132.21200562    4.90999985    2.19000006
   18.61083412  142.51199341    4.90999985    2.15000010
   18.61388969  134.23399353    4.90999985    2.25000000
   18.61722183  137.89100647    4.90999985    2.25000000
   18.62333298  137.89100647    4.90999985    2.09999990
   18.62750053  132.62699890    4.90999985    2.09999990
   18.63083267  126.51599884    4.90999985    2.21000004
   18.63277817  139.06700134    4.90999985    2.13000011
   18.63444519  129.67100525    4.90999985    2.17000008
   18.63777733  124.44599915    4.90999985    2.23000002
   18.64083290  132.52900696    4.90999985    2.25000000
   18.64416695  136.47900391    4.90999985    2.30999994
   18.64749908  130.95100403    4.90999985    2.34999990
   18.65055466  133.67999268    4.90999985    2.36999989
   18.65388870  122.94999695    4.90999985    2.36999989
   18.65694427  130.29400635    4.90999985    2.36999989
   18.66027832  118.38200378    4.90999985    2.34999990
   18.66611099  118.38200378    4.90999985    2.34999990
   18.67027664  138.52499390    4.90999985    2.32999992
   18.67361069  124.65899658    4.90999985    2.32999992
   18.67694473  134.92599487    4.90999985    2.34999990
   18.68000031  122.80100250    4.90999985    2.25000000
   18.68333244  127.86900330    4.90999985    2.28999996
   18.68638802  124.47699738    4.90999985    2.34999990
   18.68972206  126.60700226    4.90999985    2.36999989
   18.69305420  124.89199829    4.90999985    2.39000010
   18.69610977  119.14800262    4.90999985    2.40000010
   18.69944382  116.65499878    4.90999985    2.42000008
   18.70138931  115.34500122    4.90999985    2.44000006
   18.70305634  115.52799988    4.90999985    2.44000006
   18.70916748  115.52799988    4.90999985    2.42000008
   18.71333504  117.87000275    4.90999985    2.40000010
   18.71638870  120.82700348    4.90999985    2.40000010
   18.71972275  119.97899628    4.90999985    2.32999992
   18.72277832  115.69000244    4.90999985    2.36999989
   18.72611237  113.32299805    4.90999985    2.39000010
   18.72944450  127.50900269    4.90999985    2.40000010
   18.73250008  116.01599884    4.90999985    2.40000010
   18.73472214  114.98899841    4.90999985    2.39000010
   18.73611069  121.39199829    4.90999985    2.40000010
   18.73944473  122.01100159    4.90999985    2.36999989
   18.74277878  121.91000366    4.90999985    2.40000010
   18.74583435  121.01799774    4.90999985    2.42000008
   18.75194359  121.01799774    4.90999985    2.46000004
   18.75611115  122.98300171    4.90999985    2.46000004
   18.75916672  121.28500366    4.90999985    2.46000004
   18.76250076  114.81900024    4.90999985    2.46000004
   18.76583290  114.80200195    4.90999985    2.51999998
   18.76805496  114.62799835    4.76000023    2.50000000
   18.76944351  112.67500305    4.46999979    2.50000000
   18.77277756  117.68199921    3.99000001    2.53999996
   18.77583313  115.75599670    3.82999992    2.53999996
   18.77916718  114.92099762    3.89000010    2.51999998
   18.78249931  113.16899872    4.23999977    2.51999998
   18.78555489  115.51499939    4.59999990    2.51999998
   18.78888893  110.36599731    4.69999981    2.50000000
   18.79472160  110.36599731    4.76000023    2.53999996
   18.79888916  115.62100220    4.23999977    2.53999996
   18.80138779  119.22899628    3.64000010    2.48000002
   18.80249977  121.35199738    3.48000002    2.51999998
   18.80583191  120.43800354    3.23000002    2.55999994
   18.80888748  120.68900299    3.11999989    2.55999994
   18.81222153  118.36499786    2.94000006    2.53999996
   18.81527710  121.64499664    2.98000002    2.55999994
   18.81861115  122.99199677    3.20000005    2.55999994
   18.82194519  121.00000000    3.57999992    2.53999996
   18.82500076  118.44300079    3.75000000    2.51999998
   18.82833481  122.72200012    3.66000009    2.51999998
   18.83166695  118.80100250    3.68000007    2.53999996
   18.83750153  118.80100250    3.93000007    2.51999998
   18.84166718  125.36599731    4.01999998    2.51999998
   18.84500122  123.93900299    3.89000010    2.51999998
   18.84833336  122.06300354    3.59999990    2.53999996
   18.85138893  121.97599792    3.26999998    2.55999994
   18.85472298  132.41099548    3.09999990    2.55999994
   18.85777855  118.18199921    3.21000004    2.55999994
   18.86111069  119.00800323    3.09999990    2.51999998
   18.86444473  119.10500336    2.91000009    2.55999994
   18.86750031  115.97399902    2.57999992    2.53999996
   18.86861038  123.06500244    2.50000000    2.55999994
   18.87111092  119.18599701    2.11999989    2.55999994
   18.87444496  113.14800262    1.83000004    2.55999994
   18.88055611  113.14800262    1.85000002    2.55999994
   18.88472176  111.64900208    1.83000004    2.53999996
   18.88777733  116.76599884    1.69000006    2.55999994
   18.89111137  116.13800049    1.60000002    2.55999994
   18.89444351  112.73600006    1.55999994    2.55999994
   18.89749908  100.45500183    1.55999994    2.55999994
   18.90083313  100.97599792    1.53999996    2.55999994
   18.90194321  115.37899780    1.53999996    2.55999994
   18.90444374  108.24400330    1.50000000    2.55999994
   18.90777779  104.92500305    1.50000000    2.55999994
   18.91110992  107.40000153    1.41999996    2.55999994
   18.91416550  110.94899750    1.38000000    2.55999994
   18.91749954  107.23200226    1.53999996    2.57999992
   18.92333221  107.23200226    1.51999998    2.57999992
   18.92749977  111.53900146    1.33000004    2.55999994
   18.93055534  110.87200165    0.95999998    2.55999994
   18.93388748  106.30200195    0.95999998    2.55999994
   18.93527603  106.89199829    0.95999998    2.57999992
   18.93750000  101.51699829    0.95999998    2.57999992
   18.94083214  108.99800110    0.95999998    2.57999992
   18.94388771  110.27400208    0.94000000    2.57999992
   18.94722176  112.01999664    0.94000000    2.57999992
   18.95055580  112.10299683    0.88000000    2.55999994
   18.95361137  112.92600250    0.86000001    2.57999992
   18.95694542  114.01300049    0.94000000    2.51999998
   18.96027946  107.89600372    1.01999998    2.55999994
   18.96611214  107.89600372    1.21000004    2.55999994
   18.98444557  109.98899841    0.81999999    2.55999994
   18.98777771  114.86299896    0.80000001    2.55999994
   18.99111176  110.71499634    0.75000000    2.55999994
   18.99416733  116.52500153    0.70999998    2.55999994
   18.99749947  115.32299805    0.70999998    2.55999994
   19.00083351  121.31300354    0.69000000    2.55999994
   19.00388908  112.67299652    0.69000000    2.55999994
   19.00916672  112.67299652    0.67000002    2.55999994
   19.01333427  113.59500122    0.69000000    2.55999994
   19.01666641  131.27999878    0.69000000    2.55999994
   19.01749992  110.91600037    0.69000000    2.57999992
   19.02027702  111.21700287    0.69000000    2.57999992
   19.02361107  124.77200317    0.69000000    2.55999994
   19.02666664  120.22200012    0.69000000    2.55999994
   19.03000069  123.56600189    0.73000002    2.55999994
   19.03333282  123.71299744    0.81999999    2.55999994
   19.03638840  121.48799896    1.30999994    2.55999994
   19.03972244  134.58399963    1.30999994    2.55999994
   19.04277802  118.15799713    1.48000002    2.53999996
   19.04611015  125.14399719    1.55999994    2.51999998
   19.05222130  125.14399719    1.55999994    2.51999998
   19.05611038  130.90400696    1.23000002    2.55999994
   19.05944443  138.24099731    1.14999998    2.55999994
   19.06277657  141.93800354    1.07000005    2.55999994
   19.06583214  128.11099243    1.07000005    2.55999994
   19.06916809  135.13000488    1.07000005    2.55999994
   19.07222366  145.67999268    1.03999996    2.55999994
   19.07555580  144.61099243    0.98000002    2.55999994
   19.07888985  135.70300293    0.95999998    2.55999994
   19.08194542  132.70700073    0.98000002    2.55999994
   19.08416748  155.98500061    0.98000002    2.55999994
   19.08583450  132.90800476    1.01999998    2.55999994
   19.08916664  131.90699768    1.09000003    2.55999994
   19.09500122  131.90699768    1.30999994    2.55999994
   19.09916687  141.76800537    1.55999994    2.55999994
   19.10222244  135.86099243    2.48000002    2.53999996
   19.10555649  128.00199890    2.57999992    2.51999998
   19.10861206  120.08999634    2.44000006    2.51999998
   19.11194420  116.27400208    2.21000004    2.51999998
   19.11527824  121.12300110    2.03999996    2.53999996
   19.11750031  126.23200226    1.91999996    2.55999994
   19.11888885  126.33100128    1.91999996    2.53999996
   19.12222290  124.02200317    1.76999998    2.51999998
   19.12527847  123.08499908    1.75000000    2.53999996
   19.12861061  116.09999847    1.60000002    2.53999996
   19.13166618  131.65600586    1.46000004    2.53999996
   19.13777733  131.65600586    1.30999994    2.53999996
   19.14194489  111.07299805    1.34000003    2.53999996
   19.14500046  126.55000305    1.63000000    2.53999996
   19.14833260  122.57599640    1.83000004    2.53999996
   19.15083313  128.81100464    2.28999996    2.51999998
   19.15194321  123.46499634    2.23000002    2.51999998
   19.15527725  121.47299957    2.17000008    2.51999998
   19.15833282  118.03700256    1.86000001    2.53999996
   19.16166687  108.01999664    1.85000002    2.53999996
   19.16499901  116.30300140    1.83000004    2.53999996
   19.16805458  105.80899811    1.83000004    2.53999996
   19.17138863  116.61100006    1.80999994    2.55999994
   19.17444420  122.79799652    1.76999998    2.55999994
   19.18055534  122.79799652    1.98000002    2.53999996
   19.18472099  114.86799622    3.36999989    2.50000000
   19.18805504  108.54299927    3.61999989    2.50000000
   19.19111061  114.78700256    3.28999996    2.51999998
   19.19444275  114.55200195    2.82999992    2.51999998
   19.19777679  117.51599884    2.57999992    2.53999996
   19.20083427  113.66100311    2.59999990    2.51999998
   19.20416832  105.38300323    2.75000000    2.48000002
   19.20722389  107.77999878    2.91000009    2.50000000
   19.21055603  114.14199829    3.05999994    2.50000000
   19.21389008  109.69100189    2.96000004    2.50000000
   19.21694565  113.06800079    2.91000009    2.50000000
   19.21750069  115.04599762    2.89000010    2.51999998
   19.22361183  115.04599762    2.71000004    2.51999998
   19.22750092  117.91100311    2.23000002    2.51999998
   19.23083305  116.25099945    2.07999992    2.53999996
   19.23416710  116.69000244    1.96000004    2.53999996
   19.23722267  115.84300232    1.80999994    2.51999998
   19.24055672  112.33599854    1.73000002    2.53999996
   19.24388885  119.62100220    1.60000002    2.51999998
   19.24694443  112.16999817    1.61000001    2.51999998
   19.25027847  114.02500153    1.66999996    2.51999998
   19.25083351  114.28299713    1.66999996    2.51999998
   19.25388908  117.69799805    1.66999996    2.51999998
   19.25722313  112.11000061    1.75000000    2.50000000
   19.26027870  110.80400085    1.80999994    2.50000000
   19.26638794  110.80400085    1.96000004    2.50000000
   19.27055550  117.54499817    2.01999998    2.51999998
   19.27361107  112.50499725    2.13000011    2.51999998
   19.27694511  110.55100250    2.07999992    2.50000000
   19.28000069  105.56500244    2.03999996    2.51999998
   19.28333282  108.54299927    2.01999998    2.51999998
   19.28416634  115.29000092    2.01999998    2.51999998
   19.28694344  117.97699738    1.98000002    2.51999998
   19.29027748  117.92500305    1.89999998    2.53999996
   19.29333305  111.81800079    2.48000002    2.53999996
   19.29666710  111.27600098    2.96000004    2.40000010
   19.29999924  115.72599792    3.34999990    2.40000010
   19.30305481  108.32399750    3.26999998    2.42000008
   19.30916595  108.32399750    2.82999992    2.51999998
   19.31333351  111.11799622    2.73000002    2.51999998
   19.31638718  113.97100067    2.66000009    2.51999998
   19.31750107  114.94999695    2.67000008    2.51999998
   19.32000160  118.96199799    2.86999989    2.51999998
   19.32333374  121.66999817    3.51999998    2.53999996
   19.32638931  119.07299805    4.57999992    2.53999996
   19.32972336  120.59200287    4.90999985    2.51999998
   19.33305550  110.53900146    4.90999985    2.44000006
   19.33611107  119.17299652    4.90999985    2.36999989
   19.33944511  120.09200287    4.90999985    2.30999994
   19.34250069  115.82900238    4.90999985    2.23000002
   19.34583473  119.98200226    4.90999985    2.25000000
   19.35194397  119.98200226    4.90999985    2.11999989
   19.35611153  169.72099304    4.90999985    1.75000000
   19.35944557  141.48500061    4.90999985    1.88000000
   19.36250114  120.77100372    4.90999985    2.21000004
   19.36583328  119.50299835    4.90999985    2.32999992
   19.36916733  116.65299988    4.90999985    2.42000008
   19.37222290  114.33000183    4.90999985    2.46000004
   19.37555504  112.04100037    4.90999985    2.46000004
   19.37888908  113.25000000    4.32999992    2.46000004
   19.38194466  120.93800354    3.78999996    2.42000008
   19.38444519  113.12300110    3.64000010    2.46000004
   19.38555527  114.98600006    3.75000000    2.48000002
   19.38888931  114.23899841    4.15999985    2.48000002
   19.39500046  114.23899841    4.90999985    2.40000010
   19.39888954  114.83899689    4.90999985    2.42000008
   19.40222168  114.38400269    4.90999985    2.39000010
   19.40555573  117.76200104    4.90999985    2.40000010
   19.40861130  122.63300323    4.90999985    2.39000010
   19.41194344  134.93899536    4.90999985    2.34999990
   19.41527748  115.99600220    4.90999985    2.23000002
   19.41777802  122.74700165    4.90999985    2.15000010
   19.41888809  124.35500336    4.90999985    2.19000006
   19.42222214  137.23599243    4.90999985    2.25000000
   19.42527771  118.41400146    4.90999985    2.25000000
   19.42860985  117.75399780    4.90999985    2.21000004
   19.43194389  123.70800018    4.90999985    2.07999992
   19.43777657  123.70800018    4.90999985    2.25000000
   19.44194412  119.19699860    4.90999985    2.19000006
   19.44499969  111.45600128    4.90999985    2.46000004
   19.44833183  117.90200043    4.90999985    2.46000004
   19.45111275  117.82199860    4.90999985    2.46000004
   19.45194435  121.09500122    4.65999985    2.46000004
   19.45527840  118.88099670    4.21999979    2.46000004
   19.45833397  112.60500336    3.82999992    2.48000002
   19.46166801  121.35299683    2.80999994    2.48000002
   19.46500015  117.15000153    2.46000004    2.46000004
   19.46805573  114.36599731    2.53999996    2.48000002
   19.47138977  119.04299927    1.71000004    2.50000000
   19.47444534  126.04499817    1.44000006    2.50000000
   19.48055649  126.04499817    1.05999994    2.50000000
   19.48472214  122.21600342    0.98000002    2.50000000
   19.48805618  126.04000092    0.98000002    2.50000000
   19.49111176  108.78199768    0.98000002    2.50000000
   19.49444389  116.50199890    2.44000006    2.51999998
   19.49777794  149.27299500    3.70000005    2.39000010
   19.50083351  120.66100311    4.15999985    2.30999994
   19.50416756  127.27100372    3.89000010    2.40000010
   19.50722313  117.37500000    2.53999996    2.48000002
   19.51055527  122.73000336    2.34999990    2.48000002
   19.51388931  121.11499786    2.32999992    2.48000002
   19.51694489  129.06199646    2.40000010    2.50000000
   19.51777840  126.96299744    2.48000002    2.50000000
   19.52333260  126.96299744    4.90999985    2.48000002
   19.52750015  130.91799927    4.90999985    2.48000002
   19.53083229  125.09700012    4.90999985    2.32999992
   19.53388786  148.80200195    4.90999985    2.09999990
   19.53722191  129.85600281    4.90999985    2.07999992
   19.54055595  115.62100220    4.90999985    2.23000002
   19.54361153  116.59400177    4.90999985    2.39000010
   19.54694366  104.66000366    4.90999985    2.46000004
   19.54999924  122.22599792    4.90999985    2.42000008
   19.55111122  124.47000122    4.90999985    2.42000008
   19.55360985  154.61799622    4.90999985    2.23000002
   19.55694389  135.53599548    4.90999985    2.03999996
   19.55999947  152.48399353    4.90999985    2.17000008
   19.56638718  152.48399353    4.90999985    2.09999990
   19.57027817  269.14300537    4.90999985    1.91999996
   19.57361221  226.52000427    4.90999985    1.96000004
   19.57694626  153.39100647    4.90999985    2.15000010
   19.58000183  135.75599670    4.90999985    2.19000006
   19.58333397  155.11099243    4.90999985    1.96000004
   19.58444595  139.21800232    4.90999985    1.91999996
   19.58694458  120.67099762    4.90999985    2.39000010
   19.59027863  118.57399750    4.90999985    2.48000002
   19.59333420  127.23699951    4.90999985    2.48000002
   19.59666824  124.05400085    4.90999985    2.50000000
   19.60000038  125.29799652    4.90999985    2.46000004
   19.60305595  118.65100098    4.90999985    2.44000006
   19.60916710  118.65100098    4.90999985    2.17000008
   19.61333466  244.71000671    4.90999985    1.73000002
   19.61638832  219.74899292    4.90999985    1.80999994
   19.61777878  242.83799744    4.90999985    1.88000000
   19.62000084  199.67300415    4.90999985    1.73000002
   19.62333298  127.29199982    4.90999985    1.85000002
   19.62638855  118.58699799    4.90999985    2.13000011
   19.62972260  127.98899841    4.90999985    2.25000000
   19.63305473  108.66300201    4.90999985    2.25000000
   19.63611031  121.95800018    4.90999985    2.39000010
   19.63944435  130.95799255    4.90999985    2.34999990
   19.64277840  130.01800537    3.86999989    2.44000006
   19.64583397  163.08200073    2.40000010    2.48000002
   19.65194321  163.08200073    1.39999998    2.48000002
   19.65611076   -1.00000000    1.46000004    2.46000004
   19.65916634   -1.00000000    1.50000000    2.48000002
   19.66250038   -1.00000000    2.48000002    2.42000008
   19.66583252   -1.00000000    3.32999992    2.42000008
   19.66888809   -1.00000000    4.00000000    2.40000010
   19.67222214   -1.00000000    4.90999985    2.36999989
   19.67555428   -1.00000000    4.90999985    2.25000000
