    HOUR (UT)   FLARE FACTOR    SKY TESTER    SUN TESTER
   11.23583317   -1.00000000   -1.00000000   -1.00000000
   11.26166630  101.29599762    1.58000004    2.61999989
   11.26500034  104.50199890    1.61000001    2.61999989
   11.26833344   98.52809906    1.61000001    2.61999989
   11.27138901  104.83300018    1.61000001    2.61999989
   11.27472210  102.47399902    1.63000000    2.59999990
   11.28166676  102.47399902    1.63000000    2.64000010
   11.28583336   97.41280365    1.63000000    2.61999989
   11.28888893   97.81230164    1.63000000    2.61999989
   11.29222298  103.49299622    1.61000001    2.61999989
   11.29472256   95.61479950    1.60000002    2.61999989
   11.29583359  102.79299927    1.60000002    2.61999989
   11.29916668   96.79419708    1.60000002    2.61999989
   11.30249977  104.06600189    1.61000001    2.61999989
   11.30555534   94.96019745    1.61000001    2.61999989
   11.30888939   99.11309814    1.61000001    2.61999989
   11.31222248  100.76300049    1.61000001    2.61999989
   11.31527805   96.03649902    1.60000002    2.61999989
   11.31861115   98.60720062    1.58000004    2.61999989
   11.32444477   98.60720062    1.55999994    2.61999989
   11.32861137  100.80999756    1.53999996    2.61999989
   11.33194447  101.19999695    1.51999998    2.64000010
   11.33500004   93.49600220    1.50000000    2.61999989
   11.33833313   96.37490082    1.50000000    2.64000010
   11.34166622  103.42900085    1.46000004    2.64000010
   11.34499931   99.33309937    1.44000006    2.64000010
   11.34805489   97.65309906    1.44000006    2.64000010
   11.35138893   93.84269714    1.44000006    2.64000010
   11.35444450   86.81250000    1.46000004    2.64000010
   11.35777855  100.84899902    1.44000006    2.61999989
   11.36111164   96.09149933    1.44000006    2.64000010
   11.36166668  104.71399689    1.44000006    2.64000010
   11.36722279  104.71399689    1.44000006    2.64000010
   11.37138939   90.77490234    1.46000004    2.64000010
   11.37472248   89.77380371    1.44000006    2.64000010
   11.37777805   90.61679840    1.46000004    2.64000010
   11.38111115   97.36229706    1.44000006    2.64000010
   11.38444424  103.19799805    1.44000006    2.64000010
   11.38749981   97.44920349    1.46000004    2.64000010
   11.39083290   98.32060242    1.46000004    2.64000010
   11.39416695   97.20839691    1.50000000    2.64000010
   11.39499950  102.34999847    1.50000000    2.64000010
   11.39777756   95.52320099    1.53999996    2.64000010
   11.40111065   99.74510193    1.53999996    2.64000010
   11.40444374   97.58429718    1.58000004    2.64000010
   11.41027737   97.58429718    1.60000002    2.64000010
   11.41416645   97.24639893    1.64999998    2.66000009
   11.41750050  101.72599792    1.64999998    2.64000010
   11.42083359  105.64800262    1.64999998    2.64000010
   11.42388916   93.71040344    1.64999998    2.64000010
   11.42722225   96.86940002    1.64999998    2.66000009
   11.42833328   92.75000000    1.64999998    2.66000009
   11.43083382   97.06330109    1.64999998    2.64000010
   11.43416691   99.81700134    1.64999998    2.64000010
   11.43722248   99.55570221    1.63000000    2.66000009
   11.44055557  102.92900085    1.63000000    2.66000009
   11.44388866   96.77970123    1.61000001    2.66000009
   11.44694424   99.98470306    1.61000001    2.64000010
   11.45305538   99.98470306    1.60000002    2.64000010
   11.45722198  100.37799835    1.61000001    2.66000009
   11.46027756   94.08709717    1.58000004    2.66000009
   11.46166611   91.14150238    1.58000004    2.66000009
   11.46388912   95.25610352    1.60000002    2.66000009
   11.46722221   99.86129761    1.60000002    2.66000009
   11.47027779   97.25859833    1.61000001    2.66000009
   11.47361088   93.83429718    1.61000001    2.66000009
   11.47694397   88.36979675    1.60000002    2.66000009
   11.47999954   81.38449860    1.58000004    2.66000009
   11.48333359   91.42089844    1.51999998    2.66000009
   11.48666668   96.61239624    1.48000002    2.67000008
   11.49000072   99.72419739    1.44000006    2.67000008
   11.49583340   99.72419739    1.41999996    2.67000008
   11.50000000   94.18820190    1.41999996    2.67000008
   11.50333309   90.30290222    1.39999998    2.67000008
   11.50638866   97.79540253    1.39999998    2.67000008
   11.50972176   93.44860077    1.39999998    2.67000008
   11.51277733   94.10070038    1.39999998    2.67000008
   11.51611137   95.78060150    1.41999996    2.67000008
   11.51944447   94.24669647    1.41999996    2.67000008
   11.52250004   92.24459839    1.44000006    2.67000008
   11.52583313   89.13220215    1.46000004    2.66000009
   11.52833271   99.53050232    1.48000002    2.67000008
   11.52944374   90.90720367    1.48000002    2.67000008
   11.53277779   84.07890320    1.48000002    2.67000008
   11.53861141   84.07890320    1.51999998    2.67000008
   11.54277802   90.04080200    1.48000002    2.67000008
   11.54611111   97.58209991    1.44000006    2.67000008
   11.54916668   94.51129913    1.44000006    2.67000008
   11.55249977   94.13310242    1.41999996    2.67000008
   11.55583382  101.03700256    1.39999998    2.67000008
   11.55888939   95.40789795    1.38000000    2.67000008
   11.56166649   89.46099854    1.38000000    2.67000008
   11.56250000   98.89240265    1.38000000    2.67000008
   11.56583309   90.64499664    1.38000000    2.69000006
   11.56916618  100.24400330    1.38000000    2.69000006
   11.57222176   94.84220123    1.38000000    2.69000006
   11.57555580   85.66760254    1.39999998    2.69000006
   11.58166695   85.66760254    1.39999998    2.69000006
   11.58555508   91.37969971    1.39999998    2.67000008
   11.58888817   95.32379913    1.41999996    2.69000006
   11.59222221   93.27950287    1.41999996    2.69000006
   11.59499931   93.88459778    1.41999996    2.71000004
   11.59583282   96.63020325    1.41999996    2.71000004
   11.59916592   93.08950043    1.41999996    2.69000006
   11.60249996   86.02970123    1.41999996    2.69000006
   11.60555553   87.00260162    1.44000006    2.67000008
   11.60888958   92.51039886    1.44000006    2.69000006
   11.61194515   92.79900360    1.41999996    2.69000006
   11.61527824   89.56289673    1.38000000    2.69000006
   11.61861134   90.65139771    1.36000001    2.69000006
   11.62444496   90.65139771    1.36000001    2.71000004
   11.62861156   92.58840179    1.34000003    2.69000006
   11.63166714   90.17459869    1.34000003    2.69000006
   11.63500023   87.72779846    1.34000003    2.69000006
   11.63833332   81.22129822    1.36000001    2.69000006
   11.64138889   86.69080353    1.36000001    2.69000006
   11.64472198   88.41799927    1.34000003    2.69000006
   11.64777756   90.53869629    1.33000004    2.69000006
   11.65111065   92.98090363    1.30999994    2.69000006
   11.65444374   90.33209991    1.33000004    2.71000004
   11.65749931   92.36090088    1.34000003    2.69000006
   11.66083336   85.58509827    1.34000003    2.69000006
   11.66166592   85.86810303    1.34000003    2.69000006
   11.66722298   85.86810303    1.34000003    2.71000004
   11.67138958   93.53540039    1.33000004    2.71000004
   11.67472267   94.57029724    1.30999994    2.69000006
   11.67777824   93.83529663    1.26999998    2.71000004
   11.68111134   99.89640045    1.26999998    2.71000004
   11.68416691   91.47650146    1.23000002    2.71000004
   11.68750000   98.17169952    1.19000006    2.71000004
   11.69083309   97.02860260    1.21000004    2.69000006
   11.69388866   90.80860138    1.21000004    2.69000006
   11.69499969   96.08300018    1.21000004    2.69000006
   11.69750023   91.36920166    1.21000004    2.69000006
   11.70083332   94.35820007    1.23000002    2.71000004
   11.70416641   93.75969696    1.23000002    2.71000004
   11.71000004   93.75969696    1.30999994    2.71000004
   11.71416664   91.31929779    1.33000004    2.71000004
   11.71749973   92.21489716    1.33000004    2.71000004
   11.72055531   88.84839630    1.34000003    2.71000004
   11.72388840   93.53749847    1.34000003    2.71000004
   11.72722149   97.42929840    1.34000003    2.71000004
   11.72833252   92.00140381    1.34000003    2.71000004
   11.73055553   92.46350098    1.34000003    2.71000004
   11.73388958   80.88259888    1.36000001    2.71000004
   11.73722267   89.91660309    1.41999996    2.71000004
   11.74027824   97.51940155    1.41999996    2.71000004
   11.74361134   91.55899811    1.39999998    2.71000004
   11.74694443   92.83010101    1.36000001    2.71000004
   11.75277805   92.83010101    1.34000003    2.71000004
   11.75694466   84.44730377    1.34000003    2.71000004
   11.76027775   89.00589752    1.34000003    2.71000004
   11.76166630   98.62580109    1.34000003    2.71000004
   11.76388931   89.36309814    1.33000004    2.73000002
   11.76722240   85.71649933    1.30999994    2.71000004
   11.77055550   89.09239960    1.30999994    2.73000002
   11.77361107   91.97650146    1.30999994    2.73000002
   11.77694416   87.48509979    1.33000004    2.71000004
   11.77999973   90.35489655    1.30999994    2.73000002
   11.78333378   94.86409760    1.26999998    2.71000004
   11.78666687   93.90440369    1.28999996    2.73000002
   11.78972244   86.69029999    1.28999996    2.73000002
   11.79583359   86.69029999    1.33000004    2.73000002
   11.80000019   94.21230316    1.36000001    2.71000004
   11.80305576   90.96880341    1.39999998    2.71000004
   11.80638885   92.33920288    1.39999998    2.73000002
   11.80944443   92.70520020    1.41999996    2.71000004
   11.81277752   92.42479706    1.44000006    2.71000004
   11.81611156   82.67890167    1.44000006    2.71000004
   11.81916618   97.91960144    1.48000002    2.71000004
   11.82250023   87.03029633    1.48000002    2.71000004
   11.82583332   97.32659912    1.46000004    2.73000002
   11.82833290   86.51789856    1.44000006    2.71000004
   11.82916641   87.30139923    1.44000006    2.71000004
   11.83249950   84.20459747    1.44000006    2.71000004
   11.83861065   84.20459747    1.41999996    2.71000004
   11.84277725   83.59390259    1.44000006    2.73000002
   11.84583282   98.72979736    1.41999996    2.73000002
   11.84916592   89.57720184    1.41999996    2.71000004
   11.85249996   94.57369995    1.39999998    2.73000002
   11.85555553   87.53379822    1.36000001    2.73000002
   11.85888958   89.51419830    1.36000001    2.73000002
   11.86166668   85.96690369    1.36000001    2.73000002
   11.86250019   86.49939728    1.39999998    2.73000002
   11.86583328   89.44789886    1.39999998    2.73000002
   11.86916637   91.32790375    1.41999996    2.73000002
   11.87222195   88.28620148    1.46000004    2.73000002
   11.87555599   95.73819733    1.48000002    2.73000002
   11.88138866   95.73819733    1.50000000    2.71000004
   11.88555527   92.15609741    1.53999996    2.73000002
   11.88888836   94.39099884    1.53999996    2.73000002
   11.89194393   86.91439819    1.53999996    2.75000000
   11.89499950   86.72969818    1.55999994    2.73000002
   11.89555550   83.88999939    1.55999994    2.73000002
   11.89888859   88.17700195    1.51999998    2.73000002
   11.90222168   92.62570190    1.48000002    2.73000002
   11.90527725   92.61180115    1.48000002    2.73000002
   11.90861034   87.61450195    1.41999996    2.73000002
   11.91194439   87.87159729    1.38000000    2.73000002
   11.91499996   88.34629822    1.38000000    2.73000002
   11.91833401   92.77330017    1.38000000    2.73000002
   11.92416668   92.77330017    1.33000004    2.75000000
   11.92833328   89.09230042    1.34000003    2.75000000
   11.93166733   89.03079987    1.36000001    2.75000000
   11.93500042   91.62570190    1.34000003    2.75000000
   11.93805599   90.88890076    1.36000001    2.75000000
   11.94138908   87.40950012    1.39999998    2.75000000
   11.94472218   87.25460052    1.39999998    2.75000000
   11.94777775   88.71379852    1.48000002    2.75000000
   11.95111084   92.92539978    1.48000002    2.75000000
   11.95444393   91.20960236    1.50000000    2.73000002
   11.95749950   95.11309814    1.50000000    2.75000000
   11.96083355   88.17630005    1.50000000    2.73000002
   11.96166611   88.83640289    1.50000000    2.75000000
   11.96722221   88.83640289    1.48000002    2.73000002
   11.97138882   91.40360260    1.48000002    2.75000000
   11.97444439   91.01640320    1.48000002    2.75000000
   11.97777748   88.23789978    1.46000004    2.75000000
   11.98083305   91.91580200    1.44000006    2.76999998
   11.98416710   94.30300140    1.46000004    2.75000000
   11.98750019   93.13770294    1.48000002    2.75000000
   11.99055576   92.00730133    1.48000002    2.75000000
   11.99388885   94.04319763    1.48000002    2.75000000
   11.99499989   91.55220032    1.48000002    2.75000000
   11.99722290   90.11879730    1.48000002    2.76999998
   12.00055599   86.71890259    1.48000002    2.75000000
   12.00388908   86.21299744    1.48000002    2.73000002
   12.01000023   86.21299744    1.46000004    2.75000000
   12.01416683   93.77179718    1.46000004    2.75000000
   12.01722240   94.75689697    1.51999998    2.75000000
   12.02055550   92.33300018    1.50000000    2.75000000
   12.02388859   89.03600311    1.50000000    2.75000000
   12.02722168   90.55870056    1.51999998    2.76999998
   12.02833271   88.58670044    1.51999998    2.76999998
   12.03083324   96.71350098    1.51999998    2.76999998
   12.03388977   89.36000061    1.50000000    2.75000000
   12.03722286   89.05410004    1.48000002    2.75000000
   12.04027843   91.77850342    1.48000002    2.75000000
   12.04361153   90.73410034    1.55999994    2.75000000
   12.04694462   85.17199707    1.63000000    2.71000004
   12.05277824   85.17199707    1.71000004    2.75000000
   12.05694485   97.32499695    1.73000002    2.75000000
   12.06027794   89.62870026    1.71000004    2.75000000
   12.06166649   92.32060242    1.71000004    2.75000000
   12.06361103   91.80069733    1.69000006    2.75000000
   12.06694412   92.45290375    1.71000004    2.76999998
   12.07027817   90.88449860    1.76999998    2.75000000
   12.07333374   93.61679840    1.83000004    2.75000000
   12.07666683   84.98390198    1.83000004    2.75000000
   12.07999992   99.25160217    1.86000001    2.75000000
   12.08305550   92.04689789    1.89999998    2.75000000
   12.08638859   89.58519745    1.89999998    2.75000000
   12.08972168   95.52490234    1.88000000    2.75000000
   12.09611034   95.52490234    1.85000002    2.75000000
   12.10027790   94.99639893    1.83000004    2.76999998
   12.10361195   95.14910126    1.83000004    2.76999998
   12.10666752   85.06310272    1.75000000    2.76999998
   12.11000061   85.28910065    1.71000004    2.75000000
   12.11333370   89.21530151    1.63000000    2.76999998
   12.11638927   89.06729889    1.55999994    2.76999998
   12.11972237   93.87519836    1.50000000    2.76999998
   12.12305546   86.30979919    1.50000000    2.76999998
   12.12611103   87.20919800    1.48000002    2.76999998
   12.12833309   85.58300018    1.41999996    2.76999998
   12.13000011   92.04309845    1.41999996    2.76999998
   12.13305569   86.19490051    1.34000003    2.76999998
   12.13861084   86.19490051    1.26999998    2.76999998
   12.14277744   93.47049713    1.25000000    2.76999998
   12.14583302   86.08959961    1.25000000    2.76999998
   12.14916611   94.34940338    1.26999998    2.75000000
   12.15222168   88.07869720    1.28999996    2.76999998
   12.15555477   86.57099915    1.30999994    2.78999996
   12.15888882   88.22260284    1.30999994    2.78999996
   12.16166592   88.14440155    1.30999994    2.76999998
   12.16249943   86.82230377    1.30999994    2.76999998
   12.16555500   90.82649994    1.28999996    2.76999998
   12.16888905   92.63970184    1.28999996    2.76999998
   12.17194462   85.28500366    1.28999996    2.76999998
   12.17527771   89.99559784    1.26999998    2.76999998
   12.18138885   89.99559784    1.26999998    2.78999996
   12.18555546   90.08450317    1.28999996    2.76999998
   12.18861103   93.20989990    1.28999996    2.78999996
   12.19194412   88.85410309    1.30999994    2.78999996
   12.19499969   89.14730072    1.30999994    2.78999996
   12.19583321   91.39579773    1.41999996    2.76999998
   12.19888878   90.34850311    1.76999998    2.76999998
   12.20222187   89.30079651    1.76999998    2.76999998
   12.20555496   88.99680328    1.78999996    2.76999998
   12.20861053   91.95919800    1.78999996    2.76999998
   12.21194458   87.69069672    1.71000004    2.76999998
   12.21500015   88.96920013    1.48000002    2.76999998
   12.21833324   90.65969849    1.48000002    2.76999998
   12.22416592   90.65969849    1.26999998    2.78999996
   12.22833252   86.51989746    1.33000004    2.76999998
   12.23166656   89.73259735    1.30999994    2.78999996
   12.23472214   90.55789948    1.25000000    2.78999996
   12.23805618   95.55200195    1.19000006    2.78999996
   12.24138927   99.04810333    1.19000006    2.78999996
   12.24444485   96.17350006    1.25000000    2.78999996
   12.24777794   99.07839966    1.14999998    2.78999996
   12.25111103   91.22250366    1.14999998    2.78999996
   12.25416660   91.96299744    1.19000006    2.78999996
   12.25749969   99.00440216    1.19000006    2.78999996
   12.26083374   93.36070251    1.19000006    2.78999996
   12.26166630   88.98989868    1.19000006    2.80999994
   12.28222179   88.98989868    1.13000000    2.78999996
   12.28638935   91.25700378    1.16999996    2.78999996
   12.28972244   93.46269989    1.19000006    2.80999994
   12.29305553   90.69010162    1.19000006    2.78999996
   12.29500008   95.51380157    1.19000006    2.78999996
   12.29666710   95.54290009    1.23000002    2.78999996
   12.29972267   93.76229858    1.28999996    2.78999996
   12.30305576   91.33360291    1.28999996    2.78999996
   12.30611134   94.22830200    1.34000003    2.78999996
   12.30944443   95.87999725    1.38000000    2.78999996
   12.31277752   98.87969971    1.39999998    2.78999996
   12.31611156   98.43879700    1.38000000    2.78999996
   12.31944466   99.39769745    1.30999994    2.78999996
   12.32499981   99.39769745    1.28999996    2.80999994
   12.32916641   87.24759674    1.28999996    2.78999996
   12.33249950   91.36519623    1.25000000    2.80999994
   12.33583260   86.93589783    1.25000000    2.80999994
   12.33888817   97.84490204    1.23000002    2.78999996
   12.34222221   90.13200378    1.34000003    2.80999994
   12.34527779   95.78240204    1.36000001    2.80999994
   12.34861088   95.21739960    1.41999996    2.78999996
   12.35194492   92.02020264    1.34000003    2.78999996
   12.35500050   91.00450134    1.34000003    2.78999996
   12.35833359   93.13739777    1.26999998    2.80999994
   12.36166668   92.57240295    1.23000002    2.80999994
   12.36194515   89.85199738    1.23000002    2.80999994
   12.36805534   89.85199738    1.16999996    2.78999996
   12.37222195   91.15160370    1.16999996    2.80999994
   12.37527752   89.38249969    1.14999998    2.78999996
   12.37861156   94.59320068    1.16999996    2.80999994
   12.38194466   90.41590118    1.21000004    2.80999994
   12.38500023   85.71669769    1.21000004    2.80999994
   12.38833332   89.96219635    1.11000001    2.80999994
   12.39138889   91.25740051    1.01999998    2.78999996
   12.39472198   87.51170349    1.01999998    2.80999994
   12.39527798   89.83370209    1.01999998    2.80999994
   12.39833355   90.31390381    1.09000003    2.80999994
   12.40166664   91.62740326    1.16999996    2.80999994
   12.40472221   91.99420166    1.16999996    2.80999994
   12.41083336   91.99420166    1.14999998    2.80999994
   12.41499996   92.01789856    1.19000006    2.80999994
   12.41805553   91.46679688    1.25000000    2.80999994
   12.42138958   89.63890076    1.25000000    2.80999994
   12.42472267   94.60310364    1.25000000    2.82999992
   12.42777824   87.47850037    1.23000002    2.82999992
   12.42861176   90.14109802    1.23000002    2.82999992
   12.43138885   90.20989990    1.21000004    2.80999994
   12.43472195   94.03330231    1.05999994    2.80999994
   12.43777752   88.93640137    1.11000001    2.80999994
   12.44111156   89.89769745    1.23000002    2.80999994
   12.44444466   91.00730133    1.26999998    2.80999994
   12.44750023   86.91089630    1.28999996    2.80999994
   12.45361137   86.91089630    1.44000006    2.80999994
   12.45777798   91.26399994    1.48000002    2.80999994
   12.46111107   96.72869873    1.53999996    2.78999996
   12.46194458   92.94730377    1.53999996    2.78999996
   12.46472168   90.58670044    1.53999996    2.78999996
   12.46805477   95.86430359    1.58000004    2.82999992
   12.47138882   91.07240295    1.58000004    2.82999992
   12.47444439   97.10710144    1.58000004    2.82999992
   12.47777748   90.42739868    1.58000004    2.80999994
   12.48111057   99.16860199    1.50000000    2.82999992
   12.48416710   92.48760223    1.39999998    2.80999994
   12.48750019   98.39099884    1.48000002    2.80999994
   12.49083328   92.55619812    1.48000002    2.80999994
   12.49638939   92.55619812    1.53999996    2.82999992
   12.50055599   95.63349915    1.58000004    2.82999992
   12.50388908   98.99669647    1.58000004    2.82999992
   12.50694466   94.77469635    1.58000004    2.82999992
   12.51027775   94.11329651    1.63000000    2.82999992
   12.51361084  100.34500122    1.63000000    2.82999992
   12.51666641   94.56400299    1.71000004    2.80999994
   12.51999950   95.96530151    1.86000001    2.80999994
   12.52333355   93.42340088    1.63000000    2.80999994
   12.52638817  101.43499756    1.55999994    2.82999992
   12.52861118   98.11910248    1.55999994    2.82999992
   12.52999973   96.16139984    1.64999998    2.80999994
   12.53333378   95.87830353    1.76999998    2.80999994
   12.53944492   95.87830353    1.85000002    2.82999992
   12.54333401   97.54380035    1.86000001    2.80999994
   12.54666710   94.80850220    1.86000001    2.80999994
   12.55000019   94.53359985    1.78999996    2.80999994
   12.55305576   98.82550049    1.73000002    2.80999994
   12.55638885   91.73110199    1.83000004    2.80999994
   12.55972195   93.67109680    2.01999998    2.80999994
   12.56194496   93.04609680    2.15000010    2.82999992
   12.56333351   96.93340302    2.21000004    2.80999994
   12.56666660   91.65789795    2.34999990    2.80999994
   12.56972218   99.78060150    2.46000004    2.80999994
   12.57305527   93.63580322    2.67000008    2.80999994
   12.57638836  100.90399933    2.73000002    2.80999994
   12.58222198  100.90399933    2.98000002    2.80999994
   12.58638859   98.62660217    3.21000004    2.82999992
   12.58944416   99.36660004    3.20000005    2.78999996
   12.59277725  100.99500275    2.93000007    2.80999994
   12.59527779   98.34359741    2.98000002    2.78999996
   12.59638882   99.09429932    2.91000009    2.82999992
   12.59972191   95.14710236    3.21000004    2.80999994
   12.60277843   94.58260345    3.36999989    2.80999994
   12.60611153   91.65059662    3.26999998    2.82999992
   12.60944462   97.81050110    3.16000009    2.80999994
   12.61250019   98.58059692    3.11999989    2.78999996
   12.61583328   94.15630341    3.25000000    2.80999994
   12.61916637   96.48239899    3.28999996    2.80999994
   12.62500000   96.48239899    3.11999989    2.80999994
   12.62916660   95.92819977    3.97000003    2.80999994
   12.63249969   94.68990326    4.38999987    2.78999996
   12.63555527   95.04399872    4.53999996    2.80999994
   12.63888836   93.32039642    4.36999989    2.78999996
   12.64194393   96.99659729    3.80999994    2.80999994
   12.64527798   96.29810333    3.80999994    2.80999994
   12.64861107   94.29060364    3.86999989    2.80999994
   12.65166664  102.50000000    4.01999998    2.80999994
   12.65499973  102.13600159    4.48999977    2.80999994
   12.65833282   94.06999969    4.34999990    2.80999994
   12.66138840   95.29550171    4.09999990    2.80999994
   12.66194439   95.48840332    4.09999990    2.80999994
   12.66777802   95.48840332    3.68000007    2.80999994
   12.67194462   94.87550354    4.00000000    2.80999994
   12.67527771   98.65129852    4.07999992    2.80999994
   12.67833328   95.23220062    4.01999998    2.80999994
   12.68166733   96.12550354    3.95000005    2.80999994
   12.68500042   93.02799988    3.89000010    2.80999994
   12.68805599   96.78610229    3.80999994    2.78999996
   12.69138908   93.39389801    3.23000002    2.80999994
   12.69472218   94.48509979    3.32999992    2.80999994
   12.69527817   93.66709900    3.36999989    2.80999994
   12.69833374   96.30210114    3.18000007    2.80999994
   12.70138836   95.90200043    3.16000009    2.82999992
   12.70472240   88.98280334    3.30999994    2.82999992
   12.71055508   88.98280334    2.78999996    2.82999992
   12.71472168   89.85849762    2.96000004    2.82999992
   12.71805477   92.42669678    2.66000009    2.82999992
   12.72138882   91.36399841    2.86999989    2.82999992
   12.72444439   89.71820068    2.89000010    2.82999992
   12.72777748   91.98079681    2.96000004    2.82999992
   12.72888851   92.89800262    3.01999998    2.82999992
   12.73138809   91.10389709    3.20000005    2.82999992
   12.73472214   92.17030334    3.21000004    2.82999992
   12.73777771   91.05760193    3.23000002    2.82999992
   12.74111176   94.77500153    3.50000000    2.82999992
   12.74444485   87.83489990    3.64000010    2.80999994
   12.74750042   94.67179871    3.48000002    2.82999992
   12.75361156   94.67179871    3.23000002    2.82999992
   12.75777817   93.03060150    2.80999994    2.82999992
   12.76083374   90.93029785    2.64000010    2.82999992
   12.76222229   87.19730377    2.59999990    2.82999992
   12.76444435   89.30410004    2.39000010    2.82999992
   12.76777744   90.80210114    1.89999998    2.84999990
   12.77083302   90.68119812    1.78999996    2.82999992
   12.77416611   92.83139801    1.85000002    2.82999992
   12.77750015   85.58080292    1.94000006    2.84999990
   12.78055573   92.05490112    2.01999998    2.82999992
   12.78388977   89.98120117    1.96000004    2.84999990
   12.78722286   91.75789642    2.32999992    2.82999992
   12.79027843   95.12100220    2.26999998    2.84999990
   12.79638958   95.12100220    2.42000008    2.82999992
   12.80055618   92.45050049    2.55999994    2.82999992
   12.80361176   92.81800079    2.50000000    2.82999992
   12.80694485   98.23190308    2.40000010    2.84999990
   12.81027794   89.55590057    2.48000002    2.84999990
   12.81333351   89.96459961    2.26999998    2.82999992
   12.81666660   89.50730133    2.42000008    2.82999992
   12.81999969   91.30999756    2.59999990    2.82999992
   12.82305527   92.15429688    2.94000006    2.82999992
   12.82638836   95.95140076    2.98000002    2.82999992
   12.82888889   94.10980225    2.76999998    2.82999992
   12.82999992   96.32089996    2.69000006    2.80999994
   12.83333302   94.97769928    2.59999990    2.82999992
   12.83916664   94.97769928    2.11999989    2.84999990
   12.84333324   92.98480225    1.94000006    2.84999990
   12.84666634   91.16349792    1.89999998    2.82999992
   12.84972191   93.44439697    2.13000011    2.82999992
   12.85305595   94.67189789    2.13000011    2.82999992
   12.85638905   99.01380157    2.30999994    2.82999992
   12.85944462   92.96279907    2.32999992    2.82999992
   12.86222267   99.47540283    2.30999994    2.82999992
   12.86305618   96.08560181    2.30999994    2.82999992
   12.86638927   97.36199951    3.00000000    2.82999992
   12.86972237   87.07980347    2.94000006    2.82999992
   12.87277794   90.34929657    2.94000006    2.80999994
   12.87611103   88.45819855    3.03999996    2.82999992
   12.88194466   88.45819855    3.23000002    2.82999992
   12.88611126   91.43450165    3.07999992    2.82999992
   12.88944435   90.84159851    2.66000009    2.82999992
   12.89277744   88.23449707    2.75000000    2.84999990
   12.89555550   89.48259735    2.86999989    2.82999992
   12.89611053   90.48459625    2.86999989    2.82999992
   12.89944458   95.29889679    2.36999989    2.82999992
   12.90277767   89.29830170    1.88000000    2.84999990
   12.90583324   91.32319641    1.88000000    2.82999992
   12.90916634  100.05400085    2.17000008    2.84999990
   12.91222191   92.36979675    2.11999989    2.84999990
   12.91555500   96.59030151    1.85000002    2.84999990
   12.91888905   89.78430176    2.01999998    2.86999989
   12.92500019   89.78430176    2.13000011    2.84999990
   12.92916679   92.98829651    2.19000006    2.84999990
   12.93222237   93.41380310    2.25000000    2.84999990
   12.93555546   93.05699921    2.89000010    2.82999992
   12.93888855   97.14540100    2.98000002    2.82999992
   12.94194412  101.92299652    3.26999998    2.82999992
   12.94527817   92.38110352    3.11999989    2.82999992
   12.94833374   91.11470032    2.89000010    2.82999992
   12.95166683   95.19190216    2.78999996    2.82999992
   12.95499992   86.63960266    2.91000009    2.82999992
   12.95805550   93.36389923    3.21000004    2.82999992
   12.96138859   89.83809662    3.26999998    2.82999992
   12.96222210   90.54530334    3.14000010    2.82999992
   12.96777725   90.54530334    2.59999990    2.82999992
   12.97194386  100.13700104    2.61999989    2.84999990
   12.97499943   94.51820374    2.55999994    2.84999990
   12.97833252   94.86990356    2.51999998    2.82999992
   12.98166656   93.17790222    2.46000004    2.82999992
   12.98472214   95.84929657    2.17000008    2.84999990
   12.98805618   98.97049713    2.07999992    2.84999990
   12.99138927   94.96810150    1.96000004    2.84999990
   12.99444485   97.35330200    1.86000001    2.82999992
   12.99555588   95.07740021    1.86000001    2.82999992
   12.99805546   92.12169647    2.15000010    2.82999992
   13.00138855   89.07640076    2.42000008    2.82999992
   13.00472260   90.12729645    2.44000006    2.82999992
   13.01055527   90.12729645    2.19000006    2.84999990
   13.01472187   93.74749756    2.55999994    2.84999990
   13.01805496   92.25869751    2.64000010    2.84999990
   13.02111053   93.94319916    2.73000002    2.84999990
   13.02444458   93.07540131    3.07999992    2.84999990
   13.02750015   90.53130341    2.94000006    2.84999990
   13.02888870   87.95529938    2.82999992    2.82999992
   13.03111076   91.52559662    2.25000000    2.84999990
   13.03444481   87.49810028    2.17000008    2.84999990
   13.03777790   93.95749664    1.83000004    2.84999990
   13.04083347   91.45760345    1.63000000    2.84999990
   13.04416752   94.09390259    1.78999996    2.84999990
   13.04722309   92.52770233    2.13000011    2.84999990
   13.05333328   92.52770233    2.48000002    2.84999990
   13.05749989   90.58039856    2.19000006    2.84999990
   13.06083393   86.69159698    2.21000004    2.84999990
   13.06222248   88.45590210    2.32999992    2.84999990
   13.06444454   88.81680298    2.36999989    2.84999990
   13.06777763   86.98110199    2.39000010    2.84999990
   13.07111073   93.98419952    2.15000010    2.84999990
   13.07416630   86.64060211    2.09999990    2.84999990
   13.07750034   91.79329681    1.96000004    2.86999989
   13.08083344   90.54879761    2.21000004    2.84999990
   13.08388901   94.63539886    2.55999994    2.84999990
   13.08722210   93.25340271    2.71000004    2.84999990
   13.09027767   90.00789642    2.78999996    2.84999990
   13.09638882   90.00789642    2.66000009    2.84999990
   13.10055637   95.35820007    2.64000010    2.84999990
   13.10361195   90.93609619    2.80999994    2.84999990
   13.10694504   93.07669830    2.40000010    2.84999990
   13.11000061   89.67070007    2.44000006    2.84999990
   13.11333370   91.01339722    2.34999990    2.84999990
   13.11666679   92.57589722    2.30999994    2.84999990
   13.11999989   89.06269836    2.01999998    2.84999990
   13.12305546   88.07559967    2.01999998    2.84999990
   13.12638855   86.12259674    1.75000000    2.84999990
   13.12888908   87.66750336    1.73000002    2.86999989
   13.13000011   87.59629822    1.71000004    2.84999990
   13.13333321   89.24880219    1.83000004    2.84999990
   13.13916683   89.24880219    2.19000006    2.84999990
   13.14333344   87.81939697    2.15000010    2.84999990
   13.14638901   86.24700165    2.17000008    2.84999990
   13.14972210   83.64669800    2.07999992    2.84999990
   13.15305519   91.90519714    2.09999990    2.86999989
   13.15611076   89.14800262    2.03999996    2.86999989
   13.15944386   91.26180267    2.15000010    2.86999989
   13.16222191   90.13619995    2.44000006    2.84999990
   13.16305542   91.21839905    2.53999996    2.84999990
   13.16638851   86.55030060    2.57999992    2.84999990
   13.16972256   90.08219910    2.44000006    2.84999990
   13.17277813   91.23829651    2.34999990    2.84999990
   13.17611122   93.11409760    2.51999998    2.84999990
   13.18194485   93.11409760    1.75000000    2.86999989
   13.18611145   88.89260101    1.80999994    2.86999989
   13.18944454   88.80590057    2.11999989    2.84999990
   13.19250011   87.40019989    2.25000000    2.84999990
   13.19555569   88.58409882    2.26999998    2.86999989
   13.19611073   89.04840088    2.25000000    2.86999989
   13.19944477   89.04329681    2.03999996    2.84999990
   13.20277786   85.91010284    2.36999989    2.84999990
   13.20583344   93.13230133    2.50000000    2.84999990
   13.20916653   94.07749939    2.57999992    2.86999989
   13.21249962   90.97599792    2.73000002    2.84999990
   13.21555519   90.09269714    2.42000008    2.86999989
   13.21888828   91.29959869    2.67000008    2.84999990
   13.22472191   91.29959869    2.48000002    2.84999990
   13.22888851   87.43329620    1.80999994    2.86999989
   13.23222160   91.70659637    1.75000000    2.86999989
   13.23555565   91.05280304    1.86000001    2.84999990
   13.23861122   86.39230347    2.09999990    2.84999990
   13.24194431   87.94660187    2.15000010    2.84999990
   13.24527836   93.73930359    2.89000010    2.84999990
   13.24833393   88.47209930    3.00000000    2.84999990
   13.25166702   94.34629822    2.59999990    2.84999990
   13.25472260   89.21800232    2.42000008    2.84999990
   13.25805569   90.54010010    2.36999989    2.86999989
   13.26138878   89.51090240    2.66000009    2.84999990
   13.26222229   86.80049896    2.66000009    2.84999990
   13.26777744   86.80049896    2.98000002    2.86999989
   13.27166653   89.43640137    2.53999996    2.86999989
   13.27499962   84.44819641    2.15000010    2.86999989
   13.27833271   87.03459930    1.85000002    2.86999989
   13.29583359   90.94139862    1.78999996    2.86999989
   13.29833412   88.92169952    1.89999998    2.86999989
   13.30138874   88.28279877    1.89999998    2.86999989
   13.30472279   90.85540009    2.19000006    2.84999990
   13.31055546   90.85540009    2.03999996    2.86999989
   13.31472206   86.09889984    1.75000000    2.86999989
   13.31805515   84.69589996    1.69000006    2.86999989
   13.32138920   87.92600250    1.69000006    2.86999989
   13.32444477   86.59839630    1.78999996    2.86999989
   13.32777786   87.91480255    1.78999996    2.86999989
   13.32916641   87.50730133    1.91999996    2.86999989
   13.33138847   86.73590088    1.91999996    2.86999989
   13.33472157   89.81929779    1.63000000    2.86999989
   13.33805561   87.41580200    1.63000000    2.86999989
   13.34111118   94.06449890    1.64999998    2.86999989
   13.34444427   78.16870117    1.48000002    2.86999989
   13.34777737   88.96790314    1.63000000    2.86999989
   13.35361195   88.96790314    1.41999996    2.86999989
   13.35777855   90.25029755    1.41999996    2.86999989
   13.36083412   94.90290070    1.38000000    2.86999989
   13.36250019   86.25559998    1.38000000    2.86999989
   13.36472225   85.46510315    1.38000000    2.86999989
   13.36777782   87.62030029    1.66999996    2.86999989
   13.37111092   84.26149750    1.63000000    2.86999989
   13.37416649   89.12100220    1.63000000    2.86999989
   13.37750053   92.38390350    1.39999998    2.89000010
   13.38083363   88.69830322    1.63000000    2.86999989
   13.38416672   91.19799805    1.51999998    2.86999989
   13.38722229   90.24430084    1.39999998    2.86999989
   13.39055538   88.06159973    1.39999998    2.86999989
   13.39638901   88.06159973    1.39999998    2.86999989
   13.40055561   91.17610168    1.41999996    2.86999989
   13.40388870   89.29149628    1.25000000    2.89000010
   13.40694427   87.99459839    1.16999996    2.89000010
   13.41027737   91.78959656    1.33000004    2.86999989
   13.41333294   91.84100342    1.33000004    2.86999989
   13.41666698   93.01020050    1.36000001    2.86999989
   13.42000008   89.21610260    1.60000002    2.86999989
   13.42305565   95.23870087    1.53999996    2.86999989
   13.42638874   93.56860352    1.64999998    2.89000010
   13.42916679   87.40750122    1.64999998    2.89000010
   13.43000031   87.11319733    1.51999998    2.86999989
   13.43305588   88.65119934    1.51999998    2.86999989
   13.43916702   88.65119934    1.78999996    2.86999989
   13.44333363   89.14340210    1.66999996    2.86999989
   13.44666672   90.34559631    1.48000002    2.89000010
   13.44972229   89.05310059    1.44000006    2.86999989
   13.45333290   87.85990143    1.63000000    2.86999989
   13.45694447   88.10669708    1.60000002    2.86999989
   13.46000004   90.53749847    1.78999996    2.86999989
   13.46249962   88.07260132    1.94000006    2.86999989
   13.46388912   89.76909637    2.17000008    2.84999990
   13.46722221   89.81140137    2.13000011    2.86999989
   13.47027779   88.51730347    2.05999994    2.86999989
   13.47361088   89.11129761    2.03999996    2.86999989
   13.47666645   88.31939697    1.89999998    2.89000010
   13.48222160   88.31939697    1.78999996    2.86999989
   13.48638916   90.69930267    1.71000004    2.86999989
   13.48944473   91.98580170    1.61000001    2.86999989
   13.49277782   90.18450165    1.71000004    2.86999989
   13.49583340   97.03559875    1.71000004    2.86999989
   13.49638939   99.29560089    1.75000000    2.86999989
   13.49944496   90.85099792    1.75000000    2.86999989
   13.50277805   87.96289825    1.73000002    2.86999989
   13.50583363   94.41870117    1.34000003    2.89000010
   13.50916672   93.10949707    1.14999998    2.86999989
   13.51249981   89.31890106    1.30999994    2.86999989
   13.51555538   87.82769775    1.30999994    2.89000010
   13.51888847   85.96029663    1.30999994    2.89000010
   13.52499962   85.96029663    1.46000004    2.86999989
   13.52916622   97.01069641    1.36000001    2.89000010
   13.52944374   92.53489685    1.36000001    2.89000010
   13.53277779   90.22280121    1.25000000    2.89000010
   13.53611183   90.34999847    1.30999994    2.86999989
   13.53916740   89.38780212    1.55999994    2.89000010
   13.54250050   89.81610107    1.64999998    2.86999989
   13.54583359   89.64420319    1.58000004    2.89000010
   13.54888916   88.84559631    1.58000004    2.89000010
   13.55222225   89.01020050    1.61000001    2.86999989
   13.55555534   89.04530334    1.64999998    2.86999989
   13.55861092   92.31729889    1.63000000    2.89000010
   13.56194496   89.96640015    1.63000000    2.89000010
   13.56277752   86.61990356    1.63000000    2.89000010
   13.56777763   86.61990356    1.63000000    2.89000010
   13.57194424   87.55049896    1.64999998    2.89000010
   13.57499981   88.02050018    1.69000006    2.89000010
   13.57833290   84.47850037    1.83000004    2.89000010
   13.58166695   92.10639954    1.73000002    2.86999989
   13.58472157   93.82849884    1.73000002    2.89000010
   13.58805561   86.37490082    1.73000002    2.89000010
   13.59138870   89.61720276    1.55999994    2.89000010
   13.59444427   89.56629944    1.55999994    2.89000010
   13.59611034   85.94969940    1.55999994    2.89000010
   13.59805489   93.76820374    1.51999998    2.86999989
   13.60138893   92.02590179    1.21000004    2.89000010
   13.60444450   91.88400269    1.44000006    2.89000010
   13.61055565   91.88400269    1.76999998    2.89000010
   13.61472225   91.20449829    1.55999994    2.89000010
   13.61805534   93.02380371    1.36000001    2.89000010
   13.62111092   87.02619934    1.41999996    2.89000010
   13.62444496   89.48629761    1.44000006    2.89000010
   13.62777805   90.03589630    1.44000006    2.89000010
   13.62972260   88.98509979    1.44000006    2.89000010
   13.63111115   89.79910278    1.50000000    2.89000010
   13.63444424   87.19450378    1.50000000    2.89000010
   13.63777733   84.61139679    1.60000002    2.86999989
   13.64083290   89.41220093    1.48000002    2.89000010
   13.64416695   86.07859802    1.46000004    2.89000010
   13.64722252   87.09709930    1.44000006    2.86999989
   13.65361118   87.09709930    1.16999996    2.89000010
   13.65749931   92.65709686    1.36000001    2.89000010
   13.66083336   92.47109985    1.53999996    2.86999989
   13.66277695   91.34680176    1.53999996    2.86999989
   13.66444397   92.70909882    1.53999996    2.86999989
   13.66777802   89.46240234    1.63000000    2.89000010
   13.67083359   90.44589996    1.39999998    2.89000010
   13.67416668   88.25679779    1.28999996    2.89000010
   13.67750072   88.31870270    1.16999996    2.89000010
   13.68055630   87.68890381    1.21000004    2.91000009
   13.68388939   90.08039856    1.25000000    2.91000009
   13.68722248   92.46299744    1.28999996    2.91000009
   13.69027805   86.54519653    1.28999996    2.91000009
   13.69638920   86.54519653    1.16999996    2.89000010
   13.70055580   86.92160034    1.21000004    2.89000010
   13.70361137   88.38420105    1.25000000    2.89000010
   13.70694447   87.99819946    1.26999998    2.89000010
   13.71027756   91.17739868    1.16999996    2.89000010
   13.71333313   87.73030090    1.19000006    2.89000010
   13.71666622   88.80999756    1.19000006    2.89000010
   13.71999931   94.70649719    1.28999996    2.89000010
   13.72305489   88.98300171    1.28999996    2.89000010
   13.72638798   90.03700256    1.28999996    2.89000010
   13.72972202   89.45310211    1.26999998    2.89000010
   13.72999954   90.38559723    1.26999998    2.89000010
   13.73333359   85.95240021    1.30999994    2.89000010
   13.73916721   85.95240021    1.33000004    2.89000010
   13.74333382   89.55079651    1.38000000    2.89000010
   13.74666691   85.03269958    1.63000000    2.89000010
   13.74972248   88.75029755    1.71000004    2.89000010
   13.75305557   88.53790283    1.71000004    2.89000010
   13.75638866   90.71970367    1.60000002    2.89000010
   13.75944424   87.30590057    1.64999998    2.89000010
   13.76277733   88.12590027    1.69000006    2.89000010
   13.76333332   87.73960114    1.69000006    2.89000010
   13.76638889   87.13619995    1.69000006    2.89000010
   13.76972198   86.14710236    1.73000002    2.89000010
   13.77305508   88.63719940    1.73000002    2.89000010
   13.77611065   89.00109863    1.60000002    2.89000010
   13.78194427   89.00109863    1.50000000    2.89000010
   13.78611183   94.36869812    1.39999998    2.89000010
   13.78944492   88.65390015    1.48000002    2.89000010
   13.79250050   89.32099915    1.44000006    2.89000010
   13.79583359   89.22899628    1.46000004    2.89000010
   13.79666710   91.50360107    1.46000004    2.89000010
   13.79944515   87.75479889    1.48000002    2.91000009
   13.80249977   89.04239655    1.33000004    2.89000010
   13.80583382   87.52110291    1.33000004    2.89000010
   13.80916691   92.80169678    1.39999998    2.89000010
   13.81222248   85.51840210    1.33000004    2.86999989
   13.81555557   89.41619873    1.33000004    2.86999989
   13.81861115   81.40709686    1.50000000    2.89000010
   13.82499981   81.40709686    1.33000004    2.89000010
   13.82888889   82.76770020    1.26999998    2.89000010
   13.82999992   84.86080170    1.33000004    2.89000010
   13.83249950   82.88690186    1.33000004    2.89000010
   13.83583260   87.13510132    1.36000001    2.89000010
   13.83916664   90.17350006    1.46000004    2.91000009
   13.84222221   88.28430176    1.46000004    2.91000009
   13.84555531   88.30770111    1.38000000    2.89000010
   13.84888840   89.58300018    1.44000006    2.89000010
   13.85194492   91.41120148    1.36000001    2.91000009
   13.85527802   90.92870331    1.50000000    2.89000010
   13.85833359   92.47100067    1.50000000    2.89000010
   13.86166668   88.40409851    1.51999998    2.91000009
   13.86333370   84.48789978    1.63000000    2.89000010
   13.86777782   84.48789978    1.71000004    2.89000010
   13.87194443   87.42539978    1.80999994    2.89000010
   13.87500000   87.51239777    1.96000004    2.89000010
   13.87833309   88.81289673    1.94000006    2.89000010
   13.88166714   85.50820160    1.94000006    2.89000010
   13.88500023   86.86560059    1.63000000    2.89000010
   13.88805580   83.98919678    1.38000000    2.89000010
   13.89138889   86.44689941    1.30999994    2.89000010
   13.89444447   83.92910004    1.44000006    2.89000010
   13.89666653   88.52439880    1.44000006    2.89000010
   13.89833355   88.35199738    1.48000002    2.91000009
   13.90138817   90.44049835    1.48000002    2.91000009
   13.90472221   86.76490021    1.46000004    2.89000010
   13.91055489   86.76490021    1.63000000    2.89000010
   13.91472149   84.89520264    1.63000000    2.89000010
   13.91805553   84.42040253    1.75000000    2.89000010
   13.92111111   87.84559631    1.76999998    2.89000010
   13.92444515   88.31320190    1.76999998    2.89000010
   13.92750072   90.65930176    1.66999996    2.91000009
   13.93000031   89.26619720    1.75000000    2.91000009
   13.93138885   90.84709930    1.75000000    2.91000009
   13.93444443   87.03589630    1.48000002    2.91000009
   13.93777752   86.31420135    1.51999998    2.91000009
   13.94083309   86.49349976    1.50000000    2.89000010
   13.94416714   82.55130005    1.73000002    2.89000010
   13.94750023   84.94159698    1.73000002    2.89000010
   13.95333290   84.94159698    1.60000002    2.91000009
   13.95749950   81.18830109    1.41999996    2.89000010
   13.96083355   82.24829865    1.38000000    2.91000009
   13.96333313   82.71309662    1.25000000    2.91000009
   13.96444416   81.80999756    1.25000000    2.91000009
   13.96749973   89.58209991    1.23000002    2.91000009
   13.97083282   90.26239777    1.25000000    2.89000010
   13.97388840   88.82089996    1.25000000    2.89000010
   13.97722149   87.57039642    1.21000004    2.91000009
   13.98055553   87.36540222    1.21000004    2.91000009
   13.98361111   89.55889893    1.21000004    2.91000009
   13.98694515   91.16419983    1.13000000    2.91000009
   13.99027824   88.64009857    1.14999998    2.91000009
   13.99611092   88.64009857    1.19000006    2.91000009
   14.00027752   88.06130219    1.21000004    2.91000009
   14.00361156   86.44889832    1.28999996    2.91000009
   14.00694466   90.84929657    1.25000000    2.91000009
   14.01000023   83.24720001    1.21000004    2.91000009
   14.01333332   86.10980225    1.25000000    2.91000009
   14.01666641   88.53459930    1.34000003    2.91000009
   14.01972198   82.99749756    1.34000003    2.91000009
   14.02305508   85.12159729    1.38000000    2.91000009
   14.02611065   82.14089966    1.60000002    2.89000010
   14.02944374   85.54070282    1.41999996    2.91000009
   14.03138828   86.07299805    1.41999996    2.91000009
   14.03305531   81.96350098    1.38000000    2.91000009
   14.03916740   81.96350098    1.36000001    2.91000009
   14.04333401   82.73539734    1.44000006    2.91000009
   14.04638958   87.02459717    1.55999994    2.91000009
   14.04972267   82.40979767    1.55999994    2.91000009
   14.05305576   85.56179810    1.30999994    2.89000010
   14.05611134   82.65570068    1.36000001    2.91000009
   14.05944443   85.96939850    1.30999994    2.91000009
   14.06277752   91.30010223    1.30999994    2.91000009
   14.06472206   90.89559937    1.28999996    2.91000009
   14.06611156   87.01170349    1.28999996    2.91000009
   14.06944466   83.28710175    1.34000003    2.91000009
   14.07250023   87.02839661    1.44000006    2.91000009
   14.07583332   87.20330048    1.46000004    2.91000009
   14.08194447   87.20330048    1.46000004    2.91000009
   14.08611107   83.36080170    1.50000000    2.91000009
   14.08916664   85.55090332    1.63000000    2.89000010
   14.09249973   85.56569672    1.63000000    2.91000009
   14.09583282   88.27639771    1.61000001    2.89000010
   14.09805489   89.53079987    1.53999996    2.91000009
   14.09944439   85.43730164    1.53999996    2.91000009
   14.10277843   88.11550140    1.50000000    2.91000009
   14.10583401   86.26390076    1.48000002    2.91000009
   14.10916710   86.73660278    1.48000002    2.91000009
   14.11250019   90.15309906    1.41999996    2.91000009
   14.11555576   87.48570251    1.38000000    2.91000009
   14.11888885   90.62310028    1.61000001    2.91000009
   14.12472248   90.62310028    1.66999996    2.89000010
   14.12888908   90.36080170    1.63000000    2.91000009
   14.13138866   86.84169769    1.61000001    2.89000010
   14.13249969   85.96450043    1.61000001    2.89000010
   14.13583279   86.67400360    1.55999994    2.91000009
   14.13888836   85.48829651    1.55999994    2.91000009
   14.14222240   85.13099670    1.48000002    2.91000009
   14.14527798   86.34639740    1.48000002    2.91000009
   14.14861107   85.69719696    1.41999996    2.91000009
   14.15194416   81.28510284    1.44000006    2.91000009
   14.15499973   80.97480011    1.36000001    2.91000009
   14.15833282   89.32910156    1.36000001    2.91000009
   14.16166592   86.83229828    1.36000001    2.91000009
   14.16777802   86.83229828    1.26999998    2.91000009
   14.17166710   88.42919922    1.25000000    2.91000009
   14.17500019   89.47339630    1.26999998    2.91000009
   14.17833328   90.98069763    1.33000004    2.91000009
   14.18138885   86.13480377    1.33000004    2.91000009
   14.18472195   83.61509705    1.34000003    2.91000009
   14.18805599   84.46459961    1.30999994    2.91000009
   14.19111156   85.00099945    1.33000004    2.91000009
   14.19444466   81.12200165    1.33000004    2.91000009
   14.19750023   83.72119904    1.33000004    2.91000009
   14.19861126   87.71540070    1.33000004    2.91000009
   14.20111084   82.30930328    1.33000004    2.91000009
   14.20444393   82.90419769    1.33000004    2.91000009
   14.21055508   82.90419769    1.36000001    2.91000009
   14.21472168   89.12110138    1.41999996    2.89000010
   14.21777725   84.94969940    1.41999996    2.89000010
   14.22111034   86.94120026    1.41999996    2.91000009
   14.22444439   87.05100250    1.41999996    2.91000009
   14.22749996   89.14399719    1.38000000    2.91000009
   14.23083305   89.74549866    1.34000003    2.93000007
   14.23194408   89.35430145    1.34000003    2.93000007
   14.23444462   83.04589844    1.34000003    2.91000009
   14.23777771   90.00839996    1.33000004    2.91000009
   14.24111176   88.05229950    1.33000004    2.91000009
   14.24416733   89.89209747    1.25000000    2.91000009
   14.24750042   89.01499939    1.23000002    2.91000009
   14.25333309   89.01499939    1.16999996    2.91000009
   14.25749969   82.15910339    1.16999996    2.91000009
   14.26055527   88.16470337    1.16999996    2.91000009
   14.26388931   84.11650085    1.21000004    2.91000009
   14.26555538   86.64369965    1.21000004    2.91000009
   14.26749992   82.27590179    1.21000004    2.91000009
   14.27083302   88.48500061    1.21000004    2.91000009
   14.27388859   86.09899902    1.21000004    2.91000009
   14.27722168   86.80709839    1.23000002    2.91000009
   14.28055573   86.44930267    1.21000004    2.91000009
   14.28361130   87.40309906    1.11000001    2.91000009
   14.28694534   90.70929718    1.11000001    2.91000009
   14.29027843   86.57369995    1.07000005    2.91000009
   14.29611111   86.57369995    1.05999994    2.91000009
   14.31444454   92.30249786    1.30999994    2.91000009
   14.31777763   92.83370209    1.30999994    2.91000009
   14.32111073   87.45339966    1.33000004    2.91000009
   14.32416630   87.10579681    1.28999996    2.91000009
   14.32750034   88.13520050    1.23000002    2.91000009
   14.33083344   89.52030182    1.13000000    2.91000009
   14.33388901   84.05319977    1.14999998    2.91000009
   14.33916664   84.05319977    1.16999996    2.93000007
   14.34333324   85.18379974    1.25000000    2.91000009
   14.34666634   83.77580261    1.28999996    2.91000009
   14.34749985   85.89610291    1.28999996    2.91000009
   14.35027790   90.35520172    1.28999996    2.91000009
   14.35361195   87.63520050    1.33000004    2.93000007
   14.35666752   88.05580139    1.28999996    2.91000009
   14.36000061   86.93270111    1.28999996    2.91000009
   14.36305618   85.90570068    1.33000004    2.91000009
   14.36638927   87.23609924    1.39999998    2.91000009
   14.36972237   87.51699829    1.50000000    2.91000009
   14.37277794   85.71320343    1.61000001    2.91000009
   14.37611103   89.90640259    1.61000001    2.91000009
   14.38194466   89.90640259    1.60000002    2.93000007
   14.38611126   83.44049835    1.60000002    2.91000009
   14.38944435   81.14119720    1.63000000    2.91000009
   14.39277744   83.54290009    1.66999996    2.91000009
   14.39583302   84.68499756    1.61000001    2.91000009
   14.39916611   86.03260040    1.58000004    2.91000009
   14.40249920   85.48889923    1.58000004    2.91000009
   14.40555477   86.23269653    1.61000001    2.91000009
   14.40888882   89.09500122    1.73000002    2.91000009
   14.41222191   85.69000244    1.98000002    2.91000009
   14.41416645   88.52259827    1.98000002    2.91000009
   14.41583252   83.81420135    1.98000002    2.91000009
   14.41916656   86.78189850    1.98000002    2.91000009
   14.42500019   86.78189850    1.61000001    2.91000009
   14.42916679   88.86820221    1.53999996    2.91000009
   14.43222237   86.35189819    1.50000000    2.91000009
   14.43555546   88.83709717    1.58000004    2.91000009
   14.43888855   87.35469818    1.53999996    2.91000009
   14.44194412   86.69499969    1.53999996    2.91000009
   14.44527817   85.55410004    1.55999994    2.91000009
   14.44750023   83.90859985    1.48000002    2.91000009
   14.44888878   81.33170319    1.48000002    2.91000009
   14.45222187   82.10690308    1.36000001    2.91000009
   14.45527744   89.75389862    1.26999998    2.93000007
   14.45861053   86.77909851    1.25000000    2.93000007
   14.46194458   84.79399872    1.26999998    2.93000007
   14.46777725   84.79399872    1.30999994    2.93000007
   14.47194386   86.91459656    1.28999996    2.93000007
   14.47499943   87.02580261    1.28999996    2.91000009
   14.47833252   86.60099792    1.34000003    2.93000007
   14.48083305   84.42240143    1.36000001    2.91000009
   14.48194408   85.21170044    1.34000003    2.91000009
   14.48527813   87.49890137    1.33000004    2.91000009
   14.48861122   86.34390259    1.41999996    2.93000007
   14.49166679   90.76180267    1.36000001    2.91000009
   14.49499989   89.11789703    1.38000000    2.93000007
   14.49805546   88.57039642    1.38000000    2.93000007
   14.50138855   87.66380310    1.38000000    2.93000007
   14.50472260   87.18260193    1.41999996    2.91000009
   14.51055527   87.18260193    1.46000004    2.91000009
   14.51472187   87.63899994    1.50000000    2.93000007
   14.51805496   84.65090179    1.50000000    2.93000007
   14.52111053   93.65560150    1.50000000    2.93000007
   14.52444458   88.52010345    1.50000000    2.93000007
   14.52777767   89.96630096    1.51999998    2.93000007
   14.53083324   88.48940277    1.58000004    2.91000009
   14.53416729   89.16380310    1.53999996    2.93000007
   14.53750038   88.37609863    1.53999996    2.93000007
   14.54055595   84.30760193    1.60000002    2.93000007
   14.54388905   85.29160309    1.51999998    2.91000009
   14.54694462   85.24420166    1.58000004    2.91000009
   14.54750061   85.23780060    1.58000004    2.91000009
   14.55333328   85.23780060    1.51999998    2.93000007
   14.55749989   86.15339661    1.51999998    2.93000007
   14.56083393   88.25409698    1.66999996    2.93000007
   14.56416702   89.21890259    1.64999998    2.93000007
   14.56722260   86.30500031    1.64999998    2.93000007
   14.57055569   85.62000275    1.69000006    2.93000007
   14.57361126   87.45410156    1.69000006    2.93000007
   14.57694435   88.77519989    1.69000006    2.93000007
   14.58027744   88.70439911    1.89999998    2.91000009
   14.58111095   88.54850006    2.01999998    2.91000009
   14.58388901   82.44029999    1.96000004    2.93000007
   14.58722210   88.46209717    1.83000004    2.91000009
   14.59027767   87.41239929    1.76999998    2.93000007
   14.59638882   87.41239929    1.61000001    2.93000007
   14.60055637   84.84449768    1.61000001    2.93000007
   14.60361195   88.41770172    1.60000002    2.93000007
   14.60694504   81.99759674    1.86000001    2.93000007
   14.61027813   83.20079803    1.73000002    2.91000009
   14.61333370   85.51450348    1.73000002    2.91000009
   14.61416721   92.24490356    1.64999998    2.93000007
   14.61694431   89.08090210    1.64999998    2.93000007
   14.62027836   89.51300049    1.48000002    2.93000007
   14.62333393   88.67060089    1.58000004    2.93000007
   14.62666702   88.50700378    1.64999998    2.93000007
   14.63000011   86.31539917    1.64999998    2.93000007
   14.63305569   88.49590302    1.60000002    2.93000007
   14.63916683   88.49590302    1.66999996    2.93000007
   14.64333344   89.10949707    1.63000000    2.93000007
   14.64638901   90.26000214    1.51999998    2.93000007
   14.64750004   87.60759735    1.51999998    2.93000007
   14.64999962   81.95500183    1.46000004    2.91000009
   14.65333271   85.14209747    1.46000004    2.91000009
   14.65638828   89.60849762    1.46000004    2.93000007
   14.65972137   88.34670258    1.48000002    2.93000007
   14.66305542   84.37239838    1.41999996    2.93000007
   14.66611099   89.93000031    1.41999996    2.93000007
   14.66944504   85.29450226    1.41999996    2.93000007
   14.67277813   85.46230316    1.66999996    2.93000007
   14.67583370   86.07089996    1.75000000    2.91000009
   14.68194485   86.07089996    1.63000000    2.93000007
   14.68611145   89.88289642    1.66999996    2.93000007
   14.68944454   87.69709778    1.66999996    2.93000007
   14.69250011   86.19480133    1.85000002    2.93000007
   14.69583321   84.45970154    1.86000001    2.91000009
   14.69916630   86.33699799    1.86000001    2.91000009
   14.70249939   87.62159729    1.71000004    2.93000007
   14.70555496   85.37039948    1.75000000    2.93000007
   14.70888901   85.15789795    1.75000000    2.93000007
   14.71194458   87.05329895    1.91999996    2.93000007
   14.71416664   82.28350067    1.98000002    2.93000007
   14.71555519   81.58769989    1.98000002    2.93000007
   14.71888828   87.41230011    2.00000000    2.93000007
   14.72472191   87.41230011    2.34999990    2.93000007
   14.72888851   87.94589996    2.69000006    2.91000009
   14.73222160   86.71119690    2.82999992    2.93000007
   14.73555565   86.00509644    3.07999992    2.91000009
   14.73861122   77.22290039    3.41000009    2.91000009
   14.74194431   88.38610077    3.51999998    2.91000009
   14.74499989   79.56349945    3.70000005    2.91000009
   14.74750042   87.12909698    4.03999996    2.91000009
   14.74861145   88.88809967    4.17999983    2.89000010
   14.75194454   85.27909851    4.42999983    2.89000010
   14.75500011   83.53170013    4.30999994    2.89000010
   14.75833321   85.69619751    4.53999996    2.91000009
   14.76166630   83.99359894    4.73999977    2.89000010
   14.76777744   83.99359894    4.30999994    2.91000009
   14.77166653   89.90270233    3.57999992    2.91000009
   14.77499962   83.51840210    3.32999992    2.91000009
   14.77833271   80.64369965    3.26999998    2.91000009
   14.78083324   86.89440155    3.25000000    2.93000007
   14.78194427   87.88970184    3.30999994    2.91000009
   14.78527832   86.76809692    3.36999989    2.91000009
   14.78833389   89.13870239    3.30999994    2.91000009
   14.79166698   89.07579803    3.20000005    2.93000007
   14.79500008   87.20749664    3.20000005    2.91000009
   14.79805565   88.07319641    3.32999992    2.91000009
   14.80138874   88.29859924    3.32999992    2.91000009
   14.80444431   87.67870331    3.14000010    2.91000009
   14.81055546   87.67870331    2.91000009    2.91000009
   14.81472206   87.29470062    2.82999992    2.93000007
   14.81805515   84.74040222    2.64000010    2.93000007
   14.82111073   84.88439941    2.64000010    2.93000007
   14.82444477   88.06459808    2.80999994    2.91000009
   14.82777786   92.99269867    2.86999989    2.93000007
   14.83083344   86.66230011    2.75000000    2.93000007
   14.83416653   88.68029785    2.51999998    2.93000007
   14.83722210   89.01740265    2.40000010    2.91000009
   14.84055519   86.80500031    2.28999996    2.93000007
   14.84388828   84.78469849    2.34999990    2.93000007
   14.84694386   87.24330139    2.40000010    2.93000007
   14.84777737   84.98010254    2.36999989    2.93000007
   14.85333347   84.98010254    2.46000004    2.93000007
   14.85750008   87.58209991    2.53999996    2.91000009
   14.86083412   89.84790039    2.44000006    2.91000009
   14.86388969   84.24160004    2.46000004    2.93000007
   14.86722279   78.55950165    2.36999989    2.93000007
   14.87027836   86.28649902    2.25000000    2.93000007
   14.87361145   85.30719757    2.23000002    2.93000007
   14.87694454   86.52729797    2.15000010    2.93000007
   14.88000011   87.50340271    2.13000011    2.93000007
   14.88083363   85.07489777    2.17000008    2.93000007
   14.88361073   88.14939880    2.32999992    2.93000007
   14.88694477   84.61109924    2.30999994    2.93000007
   14.89000034   84.29280090    2.32999992    2.93000007
   14.89611053   84.29280090    2.17000008    2.93000007
   14.90027714   84.24849701    2.26999998    2.93000007
   14.90361118   88.81649780    2.25000000    2.93000007
   14.90666676   90.56410217    2.32999992    2.93000007
   14.90999985   88.11139679    2.42000008    2.93000007
   14.91333294   85.50000000    2.57999992    2.93000007
   14.91444397   85.56050110    2.61999989    2.93000007
   14.91694450   85.93579865    2.44000006    2.93000007
   14.92027855   86.76300049    2.17000008    2.93000007
   14.92333412   86.40390015    2.09999990    2.93000007
   14.92666721   85.04409790    2.11999989    2.93000007
   14.93000031   86.17510223    2.25000000    2.93000007
   14.93305588   85.80239868    2.17000008    2.93000007
   14.93916702   85.80239868    2.01999998    2.93000007
   14.94305515   91.66089630    2.00000000    2.94000006
   14.94638920   87.33619690    2.05999994    2.93000007
   14.94777775   87.53389740    2.03999996    2.93000007
   14.94999981   87.15889740    2.00000000    2.93000007
   14.95333290   90.32279968    2.07999992    2.93000007
   14.95638847   87.68879700    2.15000010    2.93000007
   14.95972157   86.52880096    2.23000002    2.93000007
   14.96305561   85.88790131    2.36999989    2.93000007
   14.96611118   86.64450073    2.42000008    2.93000007
   14.96944427   83.70819855    2.42000008    2.93000007
   14.97277737   84.83290100    2.67000008    2.93000007
   14.97583294   85.74400330    2.59999990    2.93000007
   14.98194408   85.74400330    2.34999990    2.94000006
   14.98611164   87.32659912    2.36999989    2.93000007
   14.98916721   84.65339661    2.42000008    2.93000007
   14.99250031   88.47180176    2.39000010    2.93000007
   14.99583340   87.52189636    2.25000000    2.93000007
   14.99888897   90.66149902    2.21000004    2.93000007
   15.00222206   85.13600159    2.13000011    2.93000007
   15.00527763   83.66699982    2.05999994    2.94000006
   15.00861073   83.36479950    2.11999989    2.94000006
   15.01194477   87.45490265    2.19000006    2.93000007
   15.01444435   82.82980347    2.23000002    2.93000007
   15.01527786   83.38649750    2.23000002    2.93000007
   15.01861095   87.06430054    2.44000006    2.93000007
   15.02472210   87.06430054    2.53999996    2.93000007
   15.02888870   88.24839783    2.59999990    2.93000007
   15.03222179   88.24939728    2.57999992    2.93000007
   15.03527832   87.48899841    2.40000010    2.93000007
   15.03861141   88.48030090    2.30999994    2.93000007
   15.04166698   89.63420105    2.34999990    2.94000006
   15.04500008   86.55680084    2.34999990    2.94000006
   15.04777813   87.39510345    2.30999994    2.94000006
   15.04861164   86.07039642    2.30999994    2.94000006
   15.05194473   89.86460114    2.26999998    2.93000007
   15.05500031   81.99569702    2.25000000    2.93000007
   15.05833340   84.01519775    2.21000004    2.93000007
   15.06166649   82.84680176    2.13000011    2.94000006
   15.06750011   82.84680176    2.05999994    2.93000007
   15.07166672   85.24449921    1.94000006    2.94000006
   15.07499981   81.31759644    1.76999998    2.94000006
   15.07805538   82.57969666    1.75000000    2.94000006
   15.08111095   79.90329742    1.76999998    2.94000006
   15.08166695   79.45659637    1.76999998    2.94000006
   15.08500004   85.94779968    1.86000001    2.94000006
   15.08805561   82.17949677    1.91999996    2.94000006
   15.09138870   83.89839935    1.91999996    2.94000006
   15.09472179   84.38559723    1.96000004    2.93000007
   15.09777737   84.62570190    2.15000010    2.93000007
   15.10111141   84.50330353    2.11999989    2.94000006
   15.10444450   89.57350159    2.21000004    2.94000006
   15.11055565   89.57350159    2.15000010    2.94000006
   15.11472225   91.44750214    2.21000004    2.94000006
   15.11777782   90.89160156    2.23000002    2.93000007
   15.12111092   83.50789642    2.01999998    2.93000007
   15.12416649   81.52600098    1.80999994    2.94000006
   15.12750053   82.95700073    1.80999994    2.94000006
   15.13083363   82.20819855    1.75000000    2.93000007
   15.13388920   84.30439758    1.66999996    2.94000006
   15.13722229   83.51020050    1.69000006    2.94000006
   15.14055538   86.70169830    1.63000000    2.93000007
   15.14361095   84.43180084    1.63000000    2.93000007
   15.14694405   86.06939697    1.60000002    2.93000007
   15.14777756   87.72489929    1.60000002    2.93000007
   15.15333271   87.72489929    1.89999998    2.93000007
   15.15749931   89.14189911    2.17000008    2.93000007
   15.16055489   88.04209900    2.07999992    2.94000006
   15.16388893   87.90129852    1.89999998    2.93000007
   15.16722298   84.29689789    1.75000000    2.93000007
   15.17055607   82.41539764    1.83000004    2.93000007
   15.17361164   83.54709625    1.75000000    2.93000007
   15.17694473   83.84860229    1.61000001    2.94000006
   15.18000031   85.16079712    1.58000004    2.93000007
   15.18111134   83.78070068    1.55999994    2.94000006
   15.18361092   89.62359619    1.53999996    2.94000006
   15.18694496   86.41169739    1.50000000    2.94000006
   15.19027805   80.65760040    1.63000000    2.94000006
   15.19611073   80.65760040    1.66999996    2.94000006
   15.20027733   76.19090271    1.73000002    2.93000007
   15.20361137   80.85079956    1.66999996    2.93000007
   15.20666695   80.17720032    1.64999998    2.94000006
   15.21000004   80.86589813    1.64999998    2.93000007
   15.21305561   87.04129791    1.85000002    2.94000006
   15.21444416   83.26619720    1.85000002    2.94000006
   15.21666622   88.93939972    2.01999998    2.93000007
   15.21999931   83.85590363    2.03999996    2.93000007
   15.22333336   87.93329620    1.98000002    2.94000006
   15.22638798   84.22879791    2.13000011    2.93000007
   15.22972202   85.13320160    2.32999992    2.93000007
   15.23277760   84.37870026    2.34999990    2.93000007
   15.23888874   84.37870026    2.46000004    2.93000007
   15.24305534   82.93669891    2.36999989    2.93000007
   15.24638939   83.79190063    2.36999989    2.94000006
   15.24777794   85.03710175    2.32999992    2.93000007
   15.25000000   87.93360138    2.40000010    2.94000006
   15.25333309   83.05390167    2.40000010    2.94000006
   15.25666714   82.75550079    2.42000008    2.93000007
   15.25972176   86.86710358    2.53999996    2.93000007
   15.26305580   85.51920319    2.44000006    2.94000006
   15.26611137   85.71489716    2.19000006    2.94000006
   15.26944447   86.38130188    2.11999989    2.94000006
   15.27277756   85.55480194    2.15000010    2.94000006
   15.27583313   85.61440277    2.21000004    2.94000006
   15.28194427   85.61440277    2.17000008    2.93000007
   15.28583336   83.96369934    2.07999992    2.94000006
   15.28916740   88.26699829    2.01999998    2.94000006
   15.29250050   85.19689941    2.00000000    2.94000006
   15.29555607   85.98860168    2.05999994    2.93000007
   15.29888916   85.46510315    2.07999992    2.93000007
   15.30222225   86.41449738    2.03999996    2.93000007
   15.30527782   83.27349854    2.05999994    2.93000007
   15.30861092   86.68280029    2.03999996    2.94000006
   15.31166649   88.77059937    2.05999994    2.93000007
   15.31444454   86.28130341    2.01999998    2.94000006
   15.33500004   86.28130341    1.94000006    2.94000006
   15.33916664   82.49299622    1.88000000    2.94000006
   15.34222221   85.47119904    1.88000000    2.94000006
   15.34555531   88.22810364    1.88000000    2.94000006
   15.34777737   84.32630157    1.85000002    2.94000006
   15.45055580   -1.00000000   -1.00000000   -1.00000000
   15.54694462   -1.00000000   -1.00000000   -1.00000000
   15.67750072   -1.00000000   -1.00000000   -1.00000000
   15.77361107   77.66359711    2.03999996    2.94000006
   15.77694416   82.55570221    2.03999996    2.94000006
   15.77999973   82.17350006    2.03999996    2.94000006
   15.78333378   82.17890167    1.94000006    2.94000006
   15.78638935   82.77929688    1.98000002    2.94000006
   15.78972244   86.80339813    1.98000002    2.94000006
   15.79388905   86.80339813    1.91999996    2.94000006
   15.79805565   86.28530121    1.89999998    2.94000006
   15.80111122   82.79630280    1.85000002    2.94000006
   15.80444431   78.67140198    1.89999998    2.93000007
   15.80694485   81.27279663    1.89999998    2.93000007
   15.80805588   80.27780151    1.94000006    2.94000006
   15.81111145   83.77330017    2.07999992    2.94000006
   15.81444454   82.51260376    2.26999998    2.94000006
   15.81777763   81.30460358    2.42000008    2.94000006
   15.82083321   83.34660339    2.26999998    2.94000006
   15.82416630   85.23780060    2.59999990    2.94000006
   15.82722187   82.13819885    2.59999990    2.94000006
   15.83055592   81.23239899    2.48000002    2.93000007
   15.83666611   81.23239899    2.51999998    2.93000007
   15.84083271   80.58719635    2.57999992    2.93000007
   15.84416676   81.73130035    2.51999998    2.94000006
   15.84722233   87.30300140    2.59999990    2.94000006
   15.85055637   78.97740173    2.57999992    2.94000006
   15.85388947   84.51519775    2.51999998    2.94000006
   15.85694504   86.20320129    2.76999998    2.94000006
   15.86027813   83.83480072    3.00000000    2.93000007
   15.86361122   81.27649689    3.18000007    2.93000007
   15.86666679   90.08460236    3.18000007    2.93000007
   15.86999989   81.06929779    3.14000010    2.93000007
   15.87333393   78.65850067    3.23000002    2.94000006
   15.87361145   85.75710297    3.28999996    2.94000006
   15.87944412   85.75710297    3.36999989    2.93000007
   15.88361073   83.00090027    3.50000000    2.93000007
   15.88694477   80.48529816    3.45000005    2.94000006
   15.89027786   81.40480042    3.55999994    2.93000007
   15.89333344   83.48100281    3.41000009    2.93000007
   15.89666653   82.46199799    3.45000005    2.93000007
   15.89972210   81.34680176    3.39000010    2.93000007
   15.90305519   77.86740112    3.25000000    2.94000006
   15.90638828   81.02570343    3.18000007    2.93000007
   15.90694427   83.31020355    3.18000007    2.93000007
   15.90999985   80.86060333    3.14000010    2.93000007
   15.91333294   79.71170044    2.93000007    2.94000006
   15.91638851   82.53949738    2.71000004    2.94000006
   15.92250061   82.53949738    2.98000002    2.94000006
   15.92666721   82.61460114    3.18000007    2.93000007
   15.92972279   78.29340363    3.32999992    2.93000007
   15.93305588   77.82460022    3.36999989    2.93000007
   15.93611145   77.97000122    3.48000002    2.93000007
   15.93944454   75.49479675    3.53999996    2.91000009
   15.94027805   75.67829895    3.57999992    2.93000007
   15.94305515   76.59819794    3.51999998    2.94000006
   15.94638920   78.86669922    3.91000009    2.94000006
   15.94944477   78.03679657    4.26999998    2.93000007
   15.95277786   76.69619751    4.76000023    2.93000007
   15.95611095   78.83460236    4.90999985    2.91000009
   15.95916653   82.87609863    4.90999985    2.91000009
   15.96527767   82.87609863    4.90999985    2.89000010
   15.96944427   81.00289917    4.90999985    2.86999989
   15.97249985   80.99040222    4.90999985    2.89000010
   15.97361088   78.81469727    4.90999985    2.89000010
   15.97611046   77.75710297    4.90999985    2.91000009
   15.97944355   83.11660004    4.90999985    2.91000009
   15.98249912   78.65249634    4.61999989    2.93000007
   15.98583317   80.72389984    4.40999985    2.93000007
   15.98916721   85.32399750    3.11999989    2.94000006
   15.99222279   77.52290344    2.80999994    2.94000006
   15.99555588   78.46540070    2.94000006    2.94000006
   15.99861145   83.28949738    3.28999996    2.94000006
   16.00194359   80.18990326    3.46000004    2.94000006
   16.00805473   80.18990326    3.46000004    2.94000006
   16.01222229   78.03530121    2.66000009    2.94000006
   16.01555634   75.31259918    2.44000006    2.94000006
   16.01888847   82.30100250    2.25000000    2.94000006
   16.02194405   82.35250092    2.19000006    2.94000006
   16.02527809   76.07499695    2.30999994    2.94000006
   16.02833366   78.03060150    2.15000010    2.96000004
   16.03166580   73.64019775    2.11999989    2.94000006
   16.03499985   75.69950104    2.03999996    2.94000006
   16.03805542   74.17259979    1.89999998    2.94000006
   16.04027748   77.40110016    1.94000006    2.94000006
   16.04166603   78.17379761    1.91999996    2.94000006
   16.04500008   71.50440216    1.61000001    2.93000007
   16.05083275   71.50440216    2.67000008    2.94000006
   16.05499840   76.55300140    2.73000002    2.94000006
   16.05833244   74.36119843    2.53999996    2.94000006
   16.06166649   77.16359711    3.59999990    2.91000009
   16.06472206   77.58899689    3.20000005    2.94000006
   16.06805611   74.96459961    3.26999998    2.93000007
   16.07111168   75.50499725    3.11999989    2.93000007
   16.07361221   78.84040070    2.82999992    2.93000007
   16.07472229   73.05690002    2.94000006    2.93000007
   16.07805634   80.68479919    3.07999992    2.93000007
   16.08111191   76.27809906    3.99000001    2.93000007
   16.08444595   75.01580048    3.43000007    2.94000006
   16.08777809   80.01039886    3.07999992    2.94000006
   16.09388924   80.01039886    4.01999998    2.91000009
   16.09805679   81.28579712    3.30999994    2.93000007
   16.10111237   79.41549683    3.03999996    2.93000007
   16.10444450   80.64640045    2.82999992    2.94000006
   16.10694504   86.13899994    2.76999998    2.93000007
   16.10805511   83.37370300    2.96000004    2.93000007
   16.11138916   72.94879913    2.94000006    2.93000007
   16.11444473   75.68910217    2.89000010    2.94000006
   16.11777878   74.09770203    3.14000010    2.93000007
   16.12111092   76.23650360    3.89000010    2.94000006
   16.12416649   77.60030365    3.93000007    2.93000007
   16.12750053   81.49770355    4.26999998    2.91000009
   16.13083267   75.25569916    4.61999989    2.91000009
   16.13666725   75.25569916    4.90999985    2.89000010
   16.14083290   78.23370361    4.90999985    2.86999989
   16.14388847   81.77819824    4.90999985    2.89000010
   16.14722252   83.17070007    4.90999985    2.89000010
   16.15055466   78.67009735    4.90999985    2.89000010
   16.15361023   78.35749817    4.90999985    2.89000010
   16.15694427   83.66639709    4.90999985    2.91000009
   16.16027832   76.03340149    4.34999990    2.93000007
   16.16333389   79.00630188    3.97000003    2.93000007
   16.16666603   77.23580170    3.57999992    2.94000006
   16.16972160   76.32219696    3.32999992    2.94000006
   16.17305565   79.41049957    3.11999989    2.94000006
   16.17361069   80.86640167    3.09999990    2.93000007
   16.17944336   80.86640167    3.05999994    2.93000007
   16.18361092   83.38110352    2.86999989    2.93000007
   16.18694305   77.14959717    2.89000010    2.94000006
   16.19027710   76.27310181    3.36999989    2.94000006
   16.19333267   81.11840057    3.41000009    2.93000007
   16.19666672   80.76709747    3.48000002    2.93000007
   16.20000076   77.06120300    3.61999989    2.93000007
   16.20305634   79.03880310    3.73000002    2.93000007
   16.20639038   79.82890320    3.75000000    2.93000007
   16.20694542   77.08429718    3.75000000    2.93000007
   16.21000099   79.82180023    3.45000005    2.94000006
   16.21333504   79.81259918    3.41000009    2.93000007
   16.21638870   79.40679932    3.51999998    2.93000007
   16.22222328   79.40679932    3.32999992    2.93000007
   16.22638893   81.91500092    3.25000000    2.94000006
   16.22972298   80.21109772    3.36999989    2.93000007
   16.23305511   78.16609955    3.57999992    2.93000007
   16.23611069   74.90470123    3.45000005    2.93000007
   16.23944473   80.24069977    3.68000007    2.91000009
   16.24027824   75.48269653    3.68000007    2.91000009
   16.24305534   77.55130005    3.80999994    2.94000006
   16.24638939   76.99269867    4.13999987    2.93000007
   16.24944496   78.32230377    4.23999977    2.93000007
   16.25277710   79.24720001    4.26999998    2.91000009
   16.25611115   79.20390320    4.40999985    2.91000009
   16.25916672   74.81430054    4.53000021    2.91000009
   16.26527786   74.81430054    4.61999989    2.93000007
   16.26944351   77.50650024    4.86999989    2.93000007
   16.27249908   81.84570313    4.51000023    2.93000007
   16.27388954   79.29190063    4.42999983    2.93000007
   16.27611160   81.51399994    4.38999987    2.93000007
   16.27944374   80.79789734    4.28999996    2.93000007
   16.28249931   81.84619904    4.15999985    2.93000007
   16.28583336   72.46389771    4.26999998    2.93000007
   16.28916550   82.70269775    4.46999979    2.93000007
   16.29222107   76.12460327    4.11999989    2.93000007
   16.29555511   81.62819672    4.32999992    2.93000007
   16.29888916   82.08029938    4.23999977    2.93000007
   16.30194283   79.81230164    4.05999994    2.93000007
   16.30805397   79.81230164    3.59999990    2.93000007
   16.31222153   73.18160248    3.64000010    2.93000007
   16.31527710   77.11419678    3.30999994    2.93000007
   16.31861115   80.52320099    3.20000005    2.94000006
   16.32194519   76.57740021    3.25000000    2.94000006
   16.32500076   79.25270081    3.46000004    2.94000006
   16.32833481   75.82240295    3.61999989    2.94000006
   16.33166695   77.44920349    3.48000002    2.93000007
   16.33472252   76.12439728    3.30999994    2.93000007
   16.33805656   74.84940338    3.26999998    2.94000006
   16.34055710   79.74060059    3.28999996    2.94000006
   16.34166718   83.09279633    3.39000010    2.93000007
   16.34500122   77.27490234    3.45000005    2.94000006
   16.35083389   77.27490234    3.39000010    2.94000006
   16.35499954   78.22840118    3.28999996    2.91000009
   16.35833359   76.61360168    3.14000010    2.93000007
   16.36138916   75.87390137    2.94000006    2.93000007
   16.36472321   76.06520081    2.94000006    2.94000006
   16.36805534   76.92019653    3.09999990    2.94000006
   16.37111092   80.97969818    2.86999989    2.94000006
   16.37388992   80.48799896    2.73000002    2.94000006
   16.37472153   77.06430054    2.57999992    2.94000006
   16.37805557   76.66729736    2.69000006    2.94000006
   16.38138962   77.46389771    2.69000006    2.94000006
   16.38444519   82.72139740    2.84999990    2.93000007
   16.38777733   78.65709686    3.05999994    2.94000006
   16.39361191   78.65709686    2.71000004    2.94000006
   16.39777756   83.61219788    2.75000000    2.94000006
   16.40111160   80.86039734    2.98000002    2.94000006
   16.40444374   84.01719666    4.90999985    3.01999998
   16.40722275   83.92299652    0.17000000    0.51999998
   16.40777779   79.36519623    0.09000000    0.25999999
   16.41110992   79.77420044    0.09000000    0.25999999
   16.41444397   75.90609741    0.09000000    0.25999999
   16.41749954   75.29779816    0.09000000    0.25999999
   16.42083359   78.44770050    0.09000000    0.25999999
   16.42388916   80.47260284    0.09000000    0.25999999
   16.42722130   80.32050323    0.09000000    0.25999999
   16.43055534   80.60050201    0.09000000    0.25999999
   16.43666649   80.60050201    0.09000000    0.25999999
   16.44083214   79.45800018    0.09000000    0.25999999
   16.44388771   81.82070160    0.09000000    0.25999999
   16.44722176   77.32469940    0.09000000    0.25999999
   16.45055580   74.50650024    0.09000000    0.25999999
   16.45361137   80.08460236    0.09000000    0.25999999
   16.45694542   78.43540192    0.09000000    0.25999999
   16.46000099   81.24330139    0.09000000    0.25999999
   16.46333504   78.70050049    0.09000000    0.25999999
   16.46666718   84.66239929    0.09000000    0.25999999
   16.46972275   80.84989929    0.09000000    0.25999999
   16.47305679   81.68939972    0.09000000    0.25999999
   16.47389030   80.54039764    0.09000000    0.25999999
   16.47944450   80.54039764    0.09000000    0.25999999
   16.48361206   76.02239990    0.09000000    0.25999999
   16.48666763   74.90689850    0.09000000    0.25999999
   16.48999977   74.25160217    0.09000000    0.25999999
   16.49333382   75.62329865    0.09000000    0.25999999
   16.49638939   77.09559631    0.09000000    0.25999999
   16.49972153   78.92389679    0.09000000    0.25999999
   16.50305557   77.43520355    0.09000000    0.25999999
   16.50611115   77.31410217    0.09000000    0.25999999
   16.50722313   78.85330200    0.09000000    0.25999999
   16.50972176   76.45639801    0.09000000    0.25999999
   16.51305580   76.31670380    0.09000000    0.25999999
   16.51611137   79.00679779    0.09000000    0.25999999
   16.52222252   79.00679779    0.09000000    0.25999999
   16.52638817   75.27359772    0.09000000    0.25999999
   16.52972221   78.31150055    0.09000000    0.25999999
   16.53277779   78.40309906    0.09000000    0.25999999
   16.53610992   75.26779938    0.09000000    0.25999999
   16.53944397   73.94059753    0.09000000    0.25999999
   16.54055595   75.85240173    0.09000000    0.25999999
   16.54305458   73.87709808    0.09000000    0.25999999
   16.54638863   76.25820160    0.09000000    0.25999999
   16.54944420   78.07250214    0.09000000    0.25999999
   16.55277634   76.57649994    0.09000000    0.25999999
   16.55611038   82.87339783    0.09000000    0.25999999
   16.55916595   81.82890320    0.09000000    0.25999999
   16.56499863   81.82890320    0.09000000    0.25999999
   16.56916809   79.84059906    0.09000000    0.25999999
   16.57250023   74.57640076    0.09000000    0.25999999
   16.57389069   78.35079956    0.09000000    0.25999999
   16.57611275   76.94689941    0.09000000    0.25999999
   16.57944489   75.78690338    0.09000000    0.25999999
   16.58277893   79.45189667    0.09000000    0.25999999
   16.58583450   78.62509918    0.09000000    0.25999999
   16.58916664   77.65560150    0.09000000    0.25999999
   16.59222221   76.58450317    0.09000000    0.25999999
   16.59555626   79.98539734    0.09000000    0.25999999
   16.59889030   75.99440002    0.09000000    0.25999999
   16.60194397   79.57270050    0.09000000    0.25999999
   16.60805511   79.57270050    0.09000000    0.25999999
   16.61222267   78.20030212    0.09000000    0.25999999
   16.61527824   77.09110260    0.09000000    0.25999999
   16.61861038   78.88300323    0.09000000    0.25999999
   16.62166595   80.38009644    0.09000000    0.25999999
   16.62500000   76.90229797    0.09000000    0.25999999
   16.62833405   84.77159882    0.09000000    0.25999999
   16.63166618   82.13639832    0.09000000    0.25999999
   16.63472176   75.62709808    0.09000000    0.25999999
   16.63805580   75.43849945    0.09000000    0.25999999
   16.64055634   76.03040314    0.09000000    0.25999999
   16.64166641   77.52279663    0.09000000    0.25999999
   16.64500046   73.45179749    0.09000000    0.25999999
   16.65083313   73.45179749    0.09000000    0.25999999
   16.65499878   78.06189728    0.09000000    0.25999999
   16.65805435   81.20520020    0.09000000    0.25999999
   16.66138840   78.57469940    0.09000000    0.25999999
   16.66472244   83.96800232    0.09000000    0.25999999
   16.66777802   77.61849976    0.09000000    0.25999999
   16.67111015   78.11479950    0.09000000    0.25999999
   16.67388916   74.74469757    0.09000000    0.25999999
   16.67472076   76.42330170    0.09000000    0.25999999
   16.67805481   78.18109894    0.09000000    0.25999999
   16.68138885   81.04609680    0.09000000    0.25999999
   16.68444443   76.25599670    0.09000000    0.25999999
   16.68777657   82.49530029    0.09000000    0.25999999
   16.69361115   82.49530029    0.09000000    0.25999999
   16.69777679   82.02680206    0.09000000    0.25999999
   16.70111275   82.65070343    0.09000000    0.25999999
   16.70416832   75.74749756    0.09000000    0.25999999
   16.70722389   80.55249786    0.09000000    0.25999999
   16.70777893   81.65329742    0.09000000    0.25999999
   16.71111107   72.59420013    0.09000000    0.25999999
   16.71444511   75.77709961    0.09000000    0.25999999
   16.71750069   79.43129730    0.09000000    0.25999999
   16.72083473   73.87439728    0.09000000    0.25999999
   16.72416687   77.39649963    0.09000000    0.25999999
   16.72722244   79.18260193    0.09000000    0.25999999
   16.73055649   80.90630341    0.09000000    0.25999999
   16.73638916   80.90630341    0.09000000    0.25999999
   16.74055672   79.06670380    0.09000000    0.25999999
   16.74388885   85.13610077    0.09000000    0.25999999
   16.74722290   76.57779694    0.09000000    0.25999999
   16.75027847   78.25569916    0.09000000    0.25999999
   16.75361061   77.85430145    0.09000000    0.25999999
   16.75666618   76.99130249    0.09000000    0.25999999
   16.76000023   78.42079926    0.09000000    0.25999999
   16.76333427   77.07089996    0.09000000    0.25999999
   16.76638794   73.87969971    0.09000000    0.25999999
   16.76972198   79.59010315    0.09000000    0.25999999
   16.77305603   75.48870087    0.09000000    0.25999999
   16.77388954   76.50379944    0.09000000    0.25999999
   16.79444313   76.50379944    0.09000000    0.25999999
   16.79861069   74.92579651    0.09000000    0.25999999
   16.80194283   78.67530060    0.09000000    0.25999999
   16.80499840   76.87879944    0.09000000    0.25999999
   16.80722237   78.51280212    0.09000000    0.25999999
   16.80861092   77.04889679    0.09000000    0.25999999
   16.81222153   76.34880066    0.09000000    0.25999999
   16.81555557   77.13430023    0.09000000    0.25999999
   16.81888962   76.81330109    0.09000000    0.25999999
   16.82194519   79.02149963    0.09000000    0.25999999
   16.82527924   78.67440033    0.09000000    0.25999999
   16.82833481   77.65869904    0.09000000    0.25999999
   16.83166695   77.10320282    0.09000000    0.25999999
   16.83722305   77.10320282    0.09000000    0.25999999
   16.84138870   75.02410126    0.09000000    0.25999999
   16.84472275   80.65059662    0.09000000    0.25999999
   16.84777832   74.96189880    0.09000000    0.25999999
   16.85111237   72.33219910    0.09000000    0.25999999
   16.85444450   76.05110168    0.09000000    0.25999999
   16.85750008   73.93029785    0.09000000    0.25999999
   16.86083412   75.01989746    0.09000000    0.25999999
   16.86388969   74.61789703    0.09000000    0.25999999
   16.86722183   75.27739716    0.09000000    0.25999999
   16.87055588   77.82209778    0.09000000    0.25999999
   16.87361145   82.30650330    0.09000000    0.25999999
   16.87416649   78.47180176    0.09000000    0.25999999
   16.88000107   78.47180176    0.09000000    0.25999999
   16.88416672   76.45130157    0.09000000    0.25999999
   16.88750076   74.96450043    0.09000000    0.25999999
   16.89083290   74.96970367    0.09000000    0.25999999
   16.89388847   76.39140320    0.09000000    0.25999999
   16.89722252   79.80919647    0.09000000    0.25999999
   16.90027809   75.50340271    0.09000000    0.25999999
   16.90361023   74.22329712    0.09000000    0.25999999
   16.90694427   77.33010101    0.09000000    0.25999999
   16.90749931   74.43540192    0.09000000    0.25999999
   16.91055489   74.93409729    0.09000000    0.25999999
   16.91361046   75.17489624    0.09000000    0.25999999
   16.91694450   73.57099915    0.09000000    0.25999999
   16.92305565   73.57099915    0.09000000    0.25999999
   16.92722130   81.93389893    0.09000000    0.25999999
   16.93027687   81.04450226    0.09000000    0.25999999
   16.93361092   79.06520081    0.09000000    0.25999999
   16.93666649   83.65129852    0.09000000    0.25999999
   16.93999863   80.56340027    0.09000000    0.25999999
   16.94083214   82.53369904    0.09000000    0.25999999
   16.94361115   81.45020294    0.09000000    0.25999999
   16.94666672   79.96510315    0.09000000    0.25999999
   16.95000076   78.43080139    0.09000000    0.25999999
   16.95333481   80.88800049    0.09000000    0.25999999
   16.95639038   86.48660278    0.09000000    0.25999999
   16.95972252   77.01499939    0.09000000    0.25999999
   16.96583366   77.01499939    0.09000000    0.25999999
   16.97000122   79.88289642    0.09000000    0.25999999
   16.97305679   75.89469910    0.09000000    0.25999999
   16.97416687   76.32409668    0.09000000    0.25999999
   16.97694588   73.89009857    0.09000000    0.25999999
   16.98000145   74.41860199    0.09000000    0.25999999
   16.98333359   73.64649963    0.09000000    0.25999999
   16.98666763   74.82849884    0.09000000    0.25999999
   16.98972321   79.61150360    0.09000000    0.25999999
   16.99305534   75.22989655    0.09000000    0.25999999
   16.99638939   83.03340149    0.09000000    0.25999999
   16.99944496   78.68630219    0.09000000    0.25999999
   17.00277710   79.66590118    0.09000000    0.25999999
   17.00861168   79.66590118    0.09000000    0.25999999
   17.01277733   78.14630127    0.09000000    0.25999999
   17.01638794   73.70600128    0.09000000    0.25999999
   17.01972198   77.00000000    0.09000000    0.25999999
   17.02305603   78.57679749    0.09000000    0.25999999
   17.02638817   76.18360138    0.09000000    0.25999999
   17.02972221   78.89219666    0.09000000    0.25999999
   17.03277779   73.40989685    0.09000000    0.25999999
   17.03610992   77.57920074    0.09000000    0.25999999
   17.03944397   80.40889740    0.09000000    0.25999999
   17.04083252   78.11579895    0.09000000    0.25999999
   17.04305458   84.28130341    0.09000000    0.25999999
   17.04611015   80.04759979    0.09000000    0.25999999
   17.05138779   80.04759979    0.09000000    0.25999999
   17.05555534   74.44409943    0.09000000    0.25999999
   17.05888748   77.64430237    0.09000000    0.25999999
   17.06194305   79.23429871    0.09000000    0.25999999
   17.06527710   76.49479675    0.09000000    0.25999999
   17.06861115   76.68710327    0.09000000    0.25999999
   17.07166672   73.85289764    0.09000000    0.25999999
   17.07416725   77.27549744    0.09000000    0.25999999
   17.07555580   75.60820007    0.09000000    0.25999999
   17.07861137   79.53959656    0.09000000    0.25999999
   17.08194542   79.14089966    0.09000000    0.25999999
   17.08527756   76.23410034    0.09000000    0.25999999
   17.08833313   82.68329620    0.09000000    0.25999999
   17.09444427   82.68329620    0.09000000    0.25999999
   17.09833336   75.49819946    0.09000000    0.25999999
   17.10166740   78.03450012    0.09000000    0.25999999
   17.10499954   76.64679718    0.09000000    0.25999999
   17.10750008   82.95420074    0.09000000    0.25999999
   17.10861206   77.05120087    0.09000000    0.25999999
   17.11166763   77.96209717    0.09000000    0.25999999
   17.11499977   76.71430206    0.09000000    0.25999999
   17.11833382   75.97029877    0.09000000    0.25999999
   17.12138939   78.53260040    0.09000000    0.25999999
   17.12472153   75.71800232    0.09000000    0.25999999
   17.12805557   75.40920258    0.09000000    0.25999999
   17.13111115   78.77069855    0.09000000    0.25999999
   17.13722229   78.77069855    0.09000000    0.25999999
   17.14138794   80.18150330    0.09000000    0.25999999
   17.14444351   77.30229950    0.09000000    0.25999999
   17.14777756   77.46540070    0.09000000    0.25999999
   17.15111160   79.89360046    0.09000000    0.25999999
   17.15416718   75.74720001    0.09000000    0.25999999
   17.15749931   75.59420013    0.09000000    0.25999999
   17.16083336   83.89080048    0.09000000    0.25999999
   17.16388893   75.80979919    0.09000000    0.25999999
   17.16722107   78.55899811    0.09000000    0.25999999
   17.17027664   81.53949738    0.09000000    0.25999999
   17.17361069   76.45559692    0.09000000    0.25999999
   17.17416573   76.22200012    0.09000000    0.25999999
   17.18000031   76.22200012    0.09000000    0.25999999
   17.18416595   77.03739929    0.09000000    0.25999999
   17.18750000   76.92960358    0.09000000    0.25999999
   17.19055557   78.42030334    0.09000000    0.25999999
   17.19388771   74.28890228    0.09000000    0.25999999
   17.19722176   77.05039978    0.09000000    0.25999999
   17.20027924   78.17440033    0.09000000    0.25999999
   17.20361137   73.08090210    0.09000000    0.25999999
   17.20694542   74.06120300    0.09000000    0.25999999
   17.20750046   75.15879822    0.09000000    0.25999999
   17.21055603   73.28910065    0.09000000    0.25999999
   17.21361160   73.75489807    0.09000000    0.25999999
   17.21694565   76.99759674    0.09000000    0.25999999
   17.22277832   76.99759674    0.09000000    0.25999999
   17.22694588   76.40080261    0.09000000    0.25999999
   17.23027802   78.95130157    0.09000000    0.25999999
   17.23333359   77.73930359    0.09000000    0.25999999
   17.23666763   75.62310028    0.09000000    0.25999999
   17.23999977   78.13030243    0.09000000    0.25999999
   17.24083328   75.21330261    0.09000000    0.25999999
   17.24361229   82.15419769    0.09000000    0.25999999
   17.24666786   75.57959747    0.09000000    0.25999999
   17.25000000   79.38749695    0.09000000    0.25999999
   17.25333405   75.06349945    0.09000000    0.25999999
   17.25638962   74.35849762    0.09000000    0.25999999
   17.25972176   76.00420380    0.09000000    0.25999999
   17.26583290   76.00420380    0.09000000    0.25999999
   17.26972198   77.49369812    0.09000000    0.25999999
   17.27305603   74.77310181    0.09000000    0.25999999
   17.27416611   75.45610046    0.09000000    0.25999999
   17.27666664   77.04460144    0.09000000    0.25999999
   17.27972221   75.40730286    0.09000000    0.25999999
   17.28305435   77.18329620    0.09000000    0.25999999
   17.28638840   79.74179840    0.09000000    0.25999999
   17.28944397   79.11039734    0.09000000    0.25999999
   17.29277802   76.56529999    0.09000000    0.25999999
   17.29611015   76.65540314    0.09000000    0.25999999
   17.29916573   82.82869720    0.09000000    0.25999999
   17.30249977   74.22409821    0.09000000    0.25999999
   17.30861092   74.22409821    0.09000000    0.25999999
   17.31277657   77.73619843    0.09000000    0.25999999
   17.31583214   77.71170044    0.09000000    0.25999999
   17.31916809   76.17359924    0.09000000    0.25999999
   17.32250023   78.69629669    0.09000000    0.25999999
   17.32555580   76.43859863    0.09000000    0.25999999
   17.32888985   74.51599884    0.09000000    0.25999999
   17.33222389   75.24440002    0.09000000    0.25999999
   17.33527756   75.53040314    0.09000000    0.25999999
   17.33861160   76.68769836    0.09000000    0.25999999
   17.34083366   76.56250000    0.09000000    0.25999999
   17.34222221   73.21089935    0.09000000    0.25999999
   17.34555626   77.12449646    0.09000000    0.25999999
   17.35138893   77.12449646    0.09000000    0.25999999
   17.35555649   74.27120209    0.09000000    0.25999999
   17.35888863   72.60610199    0.09000000    0.25999999
   17.36194420   75.33249664    0.09000000    0.25999999
   17.36527824   76.71610260    0.09000000    0.25999999
   17.36861038   73.89520264    0.09000000    0.25999999
   17.37166595   75.99510193    0.09000000    0.25999999
   17.37416649   75.16639709    0.09000000    0.25999999
   17.37527847   73.79630280    0.09000000    0.25999999
   17.37861061   75.13690186    0.09000000    0.25999999
   17.38166618   76.00469971    0.09000000    0.25999999
   17.38500023   77.55799866    0.09000000    0.25999999
   17.38805580   73.81400299    0.09000000    0.25999999
   17.39416695   73.81400299    0.09000000    0.25999999
   17.39833260   74.01529694    0.09000000    0.25999999
   17.40166664   72.97989655    0.09000000    0.25999999
   17.40472221   77.05100250    0.09000000    0.25999999
   17.40749931   77.82929993    0.09000000    0.25999999
   17.40861130   72.95919800    0.09000000    0.25999999
   17.41194344   75.23000336    0.09000000    0.25999999
   17.41499901   80.82649994    0.09000000    0.25999999
   17.41833305   79.51660156    0.09000000    0.25999999
   17.42138863   77.68360138    0.09000000    0.25999999
   17.42472076   78.20929718    0.09000000    0.25999999
   17.42805481   77.47530365    0.09000000    0.25999999
   17.43111038   74.87229919    0.09000000    0.25999999
   17.43722153   74.87229919    0.09000000    0.25999999
   17.44111061   73.58969879    0.09000000    0.25999999
   17.44444275   75.55280304    0.09000000    0.25999999
   17.44777679   76.97399902    0.09000000    0.25999999
   17.45083427   76.83889771    0.09000000    0.25999999
   17.45416832   75.35040283    0.09000000    0.25999999
   17.45750046   73.67299652    0.09000000    0.25999999
   17.46083450   73.93479919    0.09000000    0.25999999
   17.46389008   79.54779816    0.09000000    0.25999999
   17.46722221   79.14320374    0.09000000    0.25999999
   17.47027779   77.10839844    0.09000000    0.25999999
   17.47361183   75.99259949    0.09000000    0.25999999
   17.47416687   75.56099701    0.09000000    0.25999999
   17.48000145   75.56099701    0.09000000    0.25999999
   17.48416710   75.18720245    0.09000000    0.25999999
   17.48722267   78.59760284    0.09000000    0.25999999
   17.49055672   76.51830292    0.09000000    0.25999999
   17.49388885   79.39800262    0.09000000    0.25999999
   17.49694443  168.11500549    0.09000000    0.25999999
   17.50027847   80.36889648    0.09000000    0.25999999
   17.50333405   77.50009918    0.09000000    0.25999999
   17.50666618   80.21019745    0.09000000    0.25999999
   17.50749969   79.55580139    0.09000000    0.25999999
   17.51027870   74.80149841    0.09000000    0.25999999
   17.51361084   81.63490295    0.09000000    0.25999999
   17.51666641   82.84010315    0.09000000    0.25999999
   17.52277756   82.84010315    0.09000000    0.25999999
   17.52694511   76.39700317    0.09000000    0.25999999
   17.53027725   81.05439758    0.09000000    0.25999999
   17.53333282   76.97460175    0.09000000    0.25999999
   17.53666687   79.52909851    0.09000000    0.25999999
   17.53999901   77.38590240    0.09000000    0.25999999
   17.54083252   75.62509918    0.09000000    0.25999999
   17.54361153   81.23899841    0.09000000    0.25999999
   17.54694366   80.15799713    0.09000000    0.25999999
   17.54999924   76.03630066    0.09000000    0.25999999
   17.55333328   81.66120148    0.09000000    0.25999999
   17.55666542   78.36060333    0.09000000    0.25999999
   17.55972099   75.83209991    0.09000000    0.25999999
   17.56555557   75.83209991    0.09000000    0.25999999
   17.56972313   75.02539825    0.09000000    0.25999999
   17.57305717   79.77310181    0.09000000    0.25999999
   17.57416725   75.25910187    0.09000000    0.25999999
   17.57666779   76.30169678    0.09000000    0.25999999
   17.58000183   79.23220062    0.09000000    0.25999999
   17.58305550   75.60240173    0.09000000    0.25999999
   17.58638954   79.42680359    0.09000000    0.25999999
   17.58944511   79.27670288    0.09000000    0.25999999
   17.59277916   81.20989990    0.09000000    0.25999999
   17.59611130   78.83159637    0.09000000    0.25999999
   17.59916687   76.37599945    0.09000000    0.25999999
   17.60250092   78.69349670    0.09000000    0.25999999
   17.60861206   78.69349670    0.09000000    0.25999999
   17.61250114   79.78269958    0.09000000    0.25999999
   17.61583328   76.41889954    0.09000000    0.25999999
   17.61916733   76.67579651    0.09000000    0.25999999
   17.62222290   75.34159851    0.09000000    0.25999999
   17.62555504   82.28579712    0.09000000    0.25999999
   17.62888908   73.09349823    0.09000000    0.25999999
   17.63222313   76.70659637    0.09000000    0.25999999
   17.63527679   72.96269989    0.09000000    0.25999999
   17.63861084   78.25980377    0.09000000    0.25999999
   17.64083290   74.67720032    0.09000000    0.25999999
   17.64222145   75.74279785    0.09000000    0.25999999
   17.64555550   75.64730072    0.09000000    0.25999999
   17.65138817   75.64730072    0.09000000    0.25999999
   17.65555573   75.47000122    0.09000000    0.25999999
   17.65861130   75.53459930    0.09000000    0.25999999
   17.66194344   76.75700378    0.09000000    0.25999999
   17.66527748   80.27269745    0.09000000    0.25999999
   17.66833305   78.40869904    0.09000000    0.25999999
   17.67166519   76.15070343    0.09000000    0.25999999
   17.67416573   79.39920044    0.09000000    0.25999999
   17.67527771   79.16259766    0.09000000    0.25999999
   17.67860985   76.28919983    0.09000000    0.25999999
   17.68166542   74.75460052    0.09000000    0.25999999
   17.68499947   77.26840210    0.09000000    0.25999999
   17.68833160   80.67199707    0.09000000    0.25999999
   17.69416618   80.67199707    0.09000000    0.25999999
   17.69833183   76.35569763    0.09000000    0.25999999
   17.70166779   72.98600006    0.09000000    0.25999999
   17.70472336   77.91429901    0.09000000    0.25999999
   17.70750046   76.18920135    0.09000000    0.25999999
   17.70833397   74.27020264    0.09000000    0.25999999
   17.71166801   75.71469879    0.09000000    0.25999999
   17.71472359   77.29830170    0.09000000    0.25999999
   17.71805573   77.29309845    0.09000000    0.25999999
   17.72138977   75.50540161    0.09000000    0.25999999
   17.72444534   78.47299957    0.09000000    0.25999999
   17.72777748   75.49050140    0.09000000    0.25999999
   17.73083305   72.58329773    0.09000000    0.25999999
   17.73694420   72.58329773    0.09000000    0.25999999
   17.74111176   76.72499847    0.09000000    0.25999999
   17.74444389   76.25669861    0.09000000    0.25999999
   17.74749947   75.54440308    0.09000000    0.25999999
   17.75083351   73.18740082    0.09000000    0.25999999
   17.75416756   75.52919769    0.09000000    0.25999999
   17.75722313   75.04270172    0.09000000    0.25999999
   17.76055527   77.45729828    0.09000000    0.25999999
   17.76388931   78.12729645    0.09000000    0.25999999
   17.76694489   78.95719910    0.09000000    0.25999999
   17.77027702   80.87519836    0.09000000    0.25999999
   17.77333260   73.83499908    0.09000000    0.25999999
   17.77416611   78.67469788    0.09000000    0.25999999
   17.78000069   78.67469788    0.09000000    0.25999999
   17.78388786   74.67710114    0.09000000    0.25999999
   17.78722191   75.70300293    0.09000000    0.25999999
   17.79055595   76.26429749    0.09000000    0.25999999
   17.80805397   77.71119690    0.09000000    0.25999999
   17.81055450   77.32550049    0.09000000    0.25999999
   17.81361008   74.69149780    0.09000000    0.25999999
   17.81694603   77.05629730    0.09000000    0.25999999
   17.82277870   77.05629730    0.09000000    0.25999999
   17.82694626   82.10310364    0.09000000    0.25999999
   17.83027840   74.36289978    0.09000000    0.25999999
   17.83333397   85.85849762    0.09000000    0.25999999
   17.83666801   84.59700012    0.09000000    0.25999999
   17.84000015   78.27480316    0.09000000    0.25999999
   17.84138870   80.18530273    0.09000000    0.25999999
   17.84333420   86.56349945    0.09000000    0.25999999
   17.84666824   74.11419678    0.09000000    0.25999999
   17.85000038   84.67019653    0.09000000    0.25999999
   17.85305595   77.60520172    0.09000000    0.25999999
   17.85639000   81.40830231    0.09000000    0.25999999
   17.85944557   89.15889740    0.09000000    0.25999999
   17.86583328   89.15889740    0.09000000    0.25999999
   17.87000084   78.03220367    0.09000000    0.25999999
   17.87305641   85.26670074    0.09000000    0.25999999
   17.87472153   79.71659851    0.09000000    0.25999999
   17.87666702   77.05239868    0.09000000    0.25999999
   17.88000107   80.37059784    0.09000000    0.25999999
   17.88333321   83.64790344    0.09000000    0.25999999
   17.88638878   86.09349823    0.09000000    0.25999999
   17.88972282   82.38970184    0.09000000    0.25999999
   17.89305496   80.36519623    0.09000000    0.25999999
   17.89611053   79.42430115    0.09000000    0.25999999
   17.89944458   87.22350311    0.09000000    0.25999999
   17.90277672   93.89530182    0.09000000    0.25999999
   17.90861130   93.89530182    0.09000000    0.25999999
   17.91277695   86.11589813    0.09000000    0.25999999
   17.91583252   82.03530121    0.09000000    0.25999999
   17.91916656   79.73320007    0.09000000    0.25999999
   17.92249870   84.01950073    0.09000000    0.25999999
   17.92555428   84.74669647    0.09000000    0.25999999
   17.92888832   78.47370148    0.09000000    0.25999999
   17.93194389   85.79550171    0.09000000    0.25999999
   17.93527603   80.50720215    0.09000000    0.25999999
   17.93861008   82.74440002    0.09000000    0.25999999
   17.94138718   77.41670227    0.09000000    0.25999999
   17.94194412   79.39779663    0.09000000    0.25999999
   17.94527626   79.60749817    0.09000000    0.25999999
   17.95138931   79.60749817    0.09000000    0.25999999
   17.95555687   78.85379791    0.09000000    0.25999999
   17.95888901   78.24169922    0.09000000    0.25999999
   17.96194458   77.43659973    0.09000000    0.25999999
   17.96527863   82.26529694    0.09000000    0.25999999
   17.96833420   84.77850342    0.09000000    0.25999999
   17.97166634   76.67729950    0.09000000    0.25999999
   17.97472191   83.51049805    0.09000000    0.25999999
   17.97555542   80.45179749    0.09000000    0.25999999
   17.97861099   75.50669861    0.09000000    0.25999999
   17.98194504   77.01229858    0.09000000    0.25999999
   17.98527718   77.14430237    0.09000000    0.25999999
   17.98833275   76.02989960    0.09000000    0.25999999
   17.99416733   76.02989960    0.09000000    0.25999999
   17.99833298   76.61129761    0.09000000    0.25999999
   18.00166702   76.41649628    0.09000000    0.25999999
   18.00472260   75.30500031    0.09000000    0.25999999
   18.00805473   78.77010345    0.09000000    0.25999999
   18.00833321   75.64759827    0.09000000    0.25999999
   18.01166725   77.71140289    0.09000000    0.25999999
   18.01499939   77.02140045    0.09000000    0.25999999
   18.01805496   75.88520050    0.09000000    0.25999999
   18.02138901   80.43450165    0.09000000    0.25999999
   18.02472115   78.01640320    0.09000000    0.25999999
   18.02777672   79.12039948    0.09000000    0.25999999
   18.03111076   79.81430054    0.09000000    0.25999999
   18.03722191   79.81430054    0.09000000    0.25999999
   18.04111099   77.17829895    0.09000000    0.25999999
   18.04166603   74.69740295    0.09000000    0.25999999
   18.04500008   75.32479858    0.09000000    0.25999999
   18.04833221   73.96710205    0.09000000    0.25999999
   18.05138779   76.88210297    0.09000000    0.25999999
   18.05472183   86.59210205    0.09000000    0.25999999
   18.05777740   87.73690033    0.09000000    0.25999999
   18.06110954   79.09269714    0.09000000    0.25999999
   18.06444359   75.46089935    0.09000000    0.25999999
   18.06777954   76.07790375    0.09000000    0.25999999
   18.07083511   77.08619690    0.09000000    0.25999999
   18.07416725   73.84149933    0.09000000    0.25999999
   18.07500076   79.90640259    0.09000000    0.25999999
   18.08000183   79.90640259    0.09000000    0.25999999
   18.08416748   84.91419983    0.09000000    0.25999999
   18.08722305   76.96189880    0.09000000    0.25999999
   18.09055710   81.50070190    0.09000000    0.25999999
   18.09388924   75.12619781    0.09000000    0.25999999
   18.09694481   78.43409729    0.09000000    0.25999999
   18.10027885   76.39119720    0.09000000    0.25999999
   18.10333443   78.70709991    0.09000000    0.25999999
   18.10666656   76.47669983    0.09000000    0.25999999
   18.10833359   74.66649628    0.09000000    0.25999999
   18.11027908   74.57569885    0.09000000    0.25999999
   18.11361122   77.05680084    0.09000000    0.25999999
   18.11666679   76.54720306    0.09000000    0.25999999
   18.12277794   76.54720306    0.09000000    0.25999999
   18.12694550   76.51290131    0.09000000    0.25999999
   18.13027763   78.32599640    0.09000000    0.25999999
   18.13333321   74.46779633    0.09000000    0.25999999
   18.13666725   75.83350372    0.09000000    0.25999999
   18.13972282   75.40679932    0.09000000    0.25999999
   18.14166641   80.40419769    0.09000000    0.25999999
   18.14333344   74.53430176    0.09000000    0.25999999
   18.14666748   78.83999634    0.09000000    0.25999999
   18.14972115   81.15840149    0.09000000    0.25999999
   18.15305519   76.14520264    0.09000000    0.25999999
   18.15611076   75.55919647    0.09000000    0.25999999
   18.15944481   81.62539673    0.09000000    0.25999999
   18.16555595   81.62539673    0.09000000    0.25999999
   18.16972160   80.63020325    0.09000000    0.25999999
   18.17305565   77.30310059    0.09000000    0.25999999
   18.17499924   78.37149811    0.09000000    0.25999999
   18.17666626   79.58580017    0.09000000    0.25999999
   18.18000031   75.78859711    0.09000000    0.25999999
   18.18305397   76.61900330    0.09000000    0.25999999
   18.18638802   79.79579926    0.09000000    0.25999999
   18.18944359   75.00240326    0.09000000    0.25999999
   18.19277763   76.03230286    0.09000000    0.25999999
   18.19610977   75.06479645    0.09000000    0.25999999
   18.19916534   76.56860352    0.09000000    0.25999999
   18.20250130   77.58969879    0.09000000    0.25999999
   18.20861244   77.58969879    0.09000000    0.25999999
   18.21250153   75.81379700    0.09000000    0.25999999
   18.21583366   79.24819946    0.09000000    0.25999999
   18.21916771   78.84909821    0.09000000    0.25999999
   18.22222328   79.84200287    0.09000000    0.25999999
   18.22555542   79.35880280    0.09000000    0.25999999
   18.22888947   76.70449829    0.09000000    0.25999999
   18.23194504   78.31770325    0.09000000    0.25999999
   18.23527718   76.51509857    0.09000000    0.25999999
   18.23861122   76.36000061    0.09000000    0.25999999
   18.24166679   76.50070190    0.09000000    0.25999999
   18.24222183   80.99849701    0.09000000    0.25999999
   18.24555588   79.36730194    0.09000000    0.25999999
   18.25138855   79.36730194    0.09000000    0.25999999
   18.25555611   76.34670258    0.09000000    0.25999999
   18.25861168   75.93710327    0.09000000    0.25999999
   18.26194382   78.70240021    0.09000000    0.25999999
   18.26527786   77.02439880    0.09000000    0.25999999
   18.26833344   80.30819702    0.09000000    0.25999999
   18.27166557   76.16480255    0.09000000    0.25999999
   18.27472115   75.19709778    0.09000000    0.25999999
   18.27527809   75.60420227    0.09000000    0.25999999
   18.27861023   76.89689636    0.09000000    0.25999999
   18.28194427   72.83460236    0.09000000    0.25999999
   18.28499985   74.17150116    0.09000000    0.25999999
   18.28833199   74.47360229    0.09000000    0.25999999
   18.29416656   74.47360229    0.09000000    0.25999999
   18.29833221   74.15229797    0.09000000    0.25999999
   18.30166626   74.35310364    0.09000000    0.25999999
   18.30472183   76.00499725    0.09000000    0.25999999
   18.30805397   77.39189911    0.09000000    0.25999999
   18.30861092   75.14320374    0.09000000    0.25999999
   18.31166649   75.39450073    0.09000000    0.25999999
   18.31499863   72.54280090    0.09000000    0.25999999
   18.31805611   78.79190063    0.09000000    0.25999999
   18.32139015   77.38159943    0.09000000    0.25999999
   18.32472229   73.81140137    0.09000000    0.25999999
   18.32777786   73.97090149    0.09000000    0.25999999
   18.33111191   78.74520111    0.09000000    0.25999999
   18.33694458   78.74520111    0.09000000    0.25999999
   18.34111214   78.63770294    0.09000000    0.25999999
   18.34194565   75.47309875    0.09000000    0.25999999
   18.34472275   75.48149872    0.09000000    0.25999999
   18.34805679   76.54440308    0.09000000    0.25999999
   18.35111237   72.49449921    0.09000000    0.25999999
   18.35444450   75.33229828    0.09000000    0.25999999
   18.35750008   75.15149689    0.09000000    0.25999999
   18.36083412   78.55599976    0.09000000    0.25999999
   18.36416626   76.43270111    0.09000000    0.25999999
   18.36722183   75.71459961    0.09000000    0.25999999
   18.37055588   75.67350006    0.09000000    0.25999999
   18.37388992   74.53410339    0.09000000    0.25999999
   18.37527847   74.70400238    0.09000000    0.25999999
   18.38000107   74.70400238    0.09000000    0.25999999
   18.38388824   75.67980194    0.09000000    0.25999999
   18.38722229   74.99079895    0.09000000    0.25999999
   18.39055634   74.30940247    0.09000000    0.25999999
   18.39361191   74.36180115    0.09000000    0.25999999
   18.39694405   74.22090149    0.09000000    0.25999999
   18.40027809   76.03510284    0.09000000    0.25999999
   18.40361023   74.55780029    0.09000000    0.25999999
   18.40666580   76.28530121    0.09000000    0.25999999
   18.40861130   72.99970245    0.09000000    0.25999999
   18.41027832   77.22339630    0.09000000    0.25999999
   18.41361046   73.97229767    0.09000000    0.25999999
   18.41666603   78.41040039    0.09000000    0.25999999
   18.42277718   78.41040039    0.09000000    0.25999999
   18.42694473   74.82230377    0.09000000    0.25999999
   18.43000031   75.37799835    0.09000000    0.25999999
   18.43333244   74.19740295    0.09000000    0.25999999
   18.43666649   75.55919647    0.09000000    0.25999999
   18.43972206   74.52519989    0.09000000    0.25999999
   18.44194412   76.63210297    0.09000000    0.25999999
   18.44333267   76.20449829    0.09000000    0.25999999
   18.44666672   77.19850159    0.09000000    0.25999999
   18.44972038   73.75340271    0.09000000    0.25999999
   18.45305634   76.14080048    0.09000000    0.25999999
   18.45639038   73.45659637    0.09000000    0.25999999
   18.45944595   81.09950256    0.09000000    0.25999999
   18.46555710   81.09950256    0.09000000    0.25999999
   18.46972275   73.54080200    0.09000000    0.25999999
   18.47305679   77.37599945    0.09000000    0.25999999
   18.47527885   74.42790222    0.09000000    0.25999999
   18.47666740   72.48680115    0.09000000    0.25999999
   18.48000145   76.30090332    0.09000000    0.25999999
   18.48305511   74.89900208    0.09000000    0.25999999
   18.48638916   76.91249847    0.09000000    0.25999999
   18.48972321   73.85199738    0.09000000    0.25999999
   18.49277878   74.55750275    0.09000000    0.25999999
   18.49611092   74.24600220    0.09000000    0.25999999
   18.49916649   73.63749695    0.09000000    0.25999999
   18.50250053   75.69090271    0.09000000    0.25999999
   18.50833321   75.69090271    0.09000000    0.25999999
   18.51250076   77.20259857    0.09000000    0.25999999
   18.51583290   76.36199951    0.09000000    0.25999999
   18.51888847   77.81300354    0.09000000    0.25999999
   18.52222252   73.87249756    0.09000000    0.25999999
   18.52555466   75.47899628    0.09000000    0.25999999
   18.52861023   76.72209930    0.09000000    0.25999999
   18.53194427   76.03240204    0.09000000    0.25999999
   18.53527641   74.96939850    0.09000000    0.25999999
   18.53833199   75.35759735    0.09000000    0.25999999
   18.54166603   76.13300323    0.09000000    0.25999999
   18.54333305   78.10079956    0.09000000    0.25999999
   18.54527664   75.75579834    0.09000000    0.25999999
   18.55138779   75.75579834    0.09000000    0.25999999
   18.55527687   80.00749969    0.09000000    0.25999999
   18.55861092   75.50710297    0.09000000    0.25999999
   18.56194305   79.77600098    0.09000000    0.25999999
   18.56527710   76.01229858    0.09000000    0.25999999
   18.56833458   75.97399902    0.09000000    0.25999999
   18.57166672   76.71959686    0.09000000    0.25999999
   18.57472229   75.70989990    0.09000000    0.25999999
   18.57666779   75.96099854    0.09000000    0.25999999
   18.57833481   72.98190308    0.09000000    0.25999999
   18.58166695   75.98130035    0.09000000    0.25999999
   18.58472252   76.42510223    0.09000000    0.25999999
   18.58805656   74.36460114    0.09000000    0.25999999
   18.59416771   74.36460114    0.09000000    0.25999999
   18.59833336   74.00370026    0.09000000    0.25999999
   18.60138893   75.25350189    0.09000000    0.25999999
   18.60472298   78.36940002    0.09000000    0.25999999
   18.60805511   73.80339813    0.09000000    0.25999999
   18.61027908   75.46559906    0.09000000    0.25999999
   18.61166763   73.75869751    0.09000000    0.25999999
   18.61472321   76.86409760    0.09000000    0.25999999
   18.61805534   77.53749847    0.09000000    0.25999999
   18.62138939   77.52799988    0.09000000    0.25999999
   18.62444496   75.50800323    0.09000000    0.25999999
   18.62777710   77.54319763    0.09000000    0.25999999
   18.63111115   77.02549744    0.09000000    0.25999999
   18.63694382   77.02549744    0.09000000    0.25999999
   18.64111137   77.08920288    0.09000000    0.25999999
   18.64361191   78.60310364    0.09000000    0.25999999
   18.64472198   77.31970215    0.09000000    0.25999999
   18.64777756   75.30460358    0.09000000    0.25999999
   18.65111160   75.81199646    0.09000000    0.25999999
   18.65444374   79.73570251    0.09000000    0.25999999
   18.65749931   75.73359680    0.09000000    0.25999999
   18.66083336   74.83560181    0.09000000    0.25999999
   18.66416550   78.12550354    0.09000000    0.25999999
   18.66722107   76.46379852    0.09000000    0.25999999
   18.67055511   76.73860168    0.09000000    0.25999999
   18.67361069   78.39420319    0.09000000    0.25999999
   18.67972183   78.39420319    0.09000000    0.25999999
   18.68388748   79.89320374    0.09000000    0.25999999
   18.68722153   79.73560333    0.09000000    0.25999999
   18.69027710   78.41840363    0.09000000    0.25999999
   18.69361115   72.75260162    0.09000000    0.25999999
   18.69694328   71.76750183    0.09000000    0.25999999
   18.70000076   73.96970367    0.09000000    0.25999999
   18.70333481   75.46569824    0.09000000    0.25999999
   18.70666695   78.40769958    0.09000000    0.25999999
   18.70972252   72.41339874    0.09000000    0.25999999
   18.71111107   73.52819824    0.09000000    0.25999999
   18.71361160   75.26249695    0.09000000    0.25999999
   18.71694565   75.12680054    0.09000000    0.25999999
   18.72277832   75.12680054    0.09000000    0.25999999
   18.72666740   76.68240356    0.09000000    0.25999999
   18.73000145   74.24770355    0.09000000    0.25999999
   18.73333359   75.40720367    0.09000000    0.25999999
   18.73666763   75.28099823    0.09000000    0.25999999
   18.73972321   72.18630219    0.09000000    0.25999999
   18.74305534   76.21080017    0.09000000    0.25999999
   18.74416733   74.37570190    0.09000000    0.25999999
   18.74666786   76.57479858    0.09000000    0.25999999
   18.75000000   79.51709747    0.09000000    0.25999999
   18.75305557   74.37519836    0.09000000    0.25999999
   18.75638962   75.48159790    0.09000000    0.25999999
   18.75972176   73.44290161    0.09000000    0.25999999
   18.76555634   73.44290161    0.09000000    0.25999999
   18.76972198   74.38359833    0.09000000    0.25999999
   18.77277756   74.19609833    0.09000000    0.25999999
   18.77611160   74.84750366    0.09000000    0.25999999
   18.77750015   74.67890167    0.09000000    0.25999999
   18.77972221   78.79010010    0.09000000    0.25999999
   18.78305435   79.32450104    0.09000000    0.25999999
   18.78610992   75.22499847    0.09000000    0.25999999
   18.78944397   74.92040253    0.09000000    0.25999999
   18.79249954   80.00810242    0.09000000    0.25999999
   18.79583359   80.03800201    0.09000000    0.25999999
   18.79916573   75.86620331    0.09000000    0.25999999
   18.80222130   81.68910217    0.09000000    0.25999999
   18.80833244   81.68910217    0.09000000    0.25999999
   18.82666779   79.04570007    0.09000000    0.25999999
   18.83000183   78.42199707    0.09000000    0.25999999
   18.83333397   77.08529663    0.09000000    0.25999999
   18.83638954   75.16259766    0.09000000    0.25999999
   18.83972359   74.32890320    0.09000000    0.25999999
   18.84277916   76.74880219    0.09000000    0.25999999
   18.84611130   76.01020050    0.09000000    0.25999999
   18.85138893   76.01020050    0.09000000    0.25999999
   18.85555649   75.27010345    0.09000000    0.25999999
   18.85888863   76.93640137    0.09000000    0.25999999
   18.85972214   73.16220093    0.09000000    0.25999999
   18.86250114   75.67790222    0.09000000    0.25999999
   18.86555672   74.84919739    0.09000000    0.25999999
   18.86888885   73.67019653    0.09000000    0.25999999
   18.87222290   72.54779816    0.09000000    0.25999999
   18.87527847   75.20490265    0.09000000    0.25999999
   18.87861061   76.41130066    0.09000000    0.25999999
   18.88194466   76.32479858    0.09000000    0.25999999
   18.88500023   75.79959869    0.09000000    0.25999999
   18.88833237   72.58039856    0.09000000    0.25999999
   18.89416695   72.58039856    0.09000000    0.25999999
   18.89833260   73.99880219    0.09000000    0.25999999
   18.90166664   73.46060181    0.09000000    0.25999999
   18.90472221   75.04309845    0.09000000    0.25999999
   18.90805435   75.97530365    0.09000000    0.25999999
   18.91138840   75.81719971    0.09000000    0.25999999
   18.91444397   77.48040009    0.09000000    0.25999999
   18.91777802   76.00930023    0.09000000    0.25999999
   18.92111015   75.79440308    0.09000000    0.25999999
   18.92416573   77.30020142    0.09000000    0.25999999
   18.92638779   72.62740326    0.09000000    0.25999999
   18.92777634   74.23259735    0.09000000    0.25999999
   18.93083191   80.94719696    0.09000000    0.25999999
   18.93722153   80.94719696    0.09000000    0.25999999
   18.94111061   72.64679718    0.09000000    0.25999999
   18.94444275   75.24420166    0.09000000    0.25999999
   18.94777679   77.88539886    0.09000000    0.25999999
   18.95083427   71.57450104    0.09000000    0.25999999
   18.95416832   74.17259979    0.09000000    0.25999999
   18.95750046   74.20230103    0.09000000    0.25999999
   18.95972252   76.30139923    0.09000000    0.25999999
   18.96111107   73.54699707    0.09000000    0.25999999
   18.96416664   76.70369720    0.09000000    0.25999999
   18.96750069   73.30349731    0.09000000    0.25999999
   18.97083473   72.67520142    0.09000000    0.25999999
   18.97389030   76.49849701    0.09000000    0.25999999
   18.98000145   76.49849701    0.09000000    0.25999999
   18.98416710   74.74320221    0.09000000    0.25999999
   18.98722267   71.73030090    0.09000000    0.25999999
   18.99055672   74.47149658    0.09000000    0.25999999
   18.99305534   72.58249664    0.09000000    0.25999999
   18.99416733   71.43910217    0.09000000    0.25999999
   18.99749947   73.75779724    0.09000000    0.25999999
   19.00055504   75.26319885    0.09000000    0.25999999
   19.00388908   74.57579803    0.09000000    0.25999999
   19.00722313   77.05970001    0.09000000    0.25999999
   19.01027870   73.12909698    0.09000000    0.25999999
   19.01361084   77.65460205    0.09000000    0.25999999
   19.01666641   73.29799652    0.09000000    0.25999999
   19.02277756   73.29799652    0.09000000    0.25999999
   19.02694511   75.74880219    0.09000000    0.25999999
   19.03027725   76.70020294    0.09000000    0.25999999
   19.03333282   72.43769836    0.09000000    0.25999999
   19.03666687   75.62100220    0.09000000    0.25999999
   19.03972244   73.99839783    0.09000000    0.25999999
   19.04305458   73.72679901    0.09000000    0.25999999
   19.04638863   72.54350281    0.09000000    0.25999999
   19.04944420   78.08769989    0.09000000    0.25999999
   19.05277634   75.15769958    0.09000000    0.25999999
   19.05611038   77.95290375    0.09000000    0.25999999
   19.05916595   79.89440155    0.09000000    0.25999999
   19.05972099   77.17849731    0.09000000    0.25999999
   19.06555557   77.17849731    0.09000000    0.25999999
   19.06972313   72.32769775    0.09000000    0.25999999
   19.07305717   77.16780090    0.09000000    0.25999999
   19.07611275   75.37329865    0.09000000    0.25999999
   19.07944489   77.08869934    0.09000000    0.25999999
   19.08277893   73.31829834    0.09000000    0.25999999
   19.08583450   75.86409760    0.09000000    0.25999999
   19.08916664   74.57849884    0.09000000    0.25999999
   19.09250069   74.91220093    0.09000000    0.25999999
   19.09305573   73.77140045    0.09000000    0.25999999
   19.09611130   74.56199646    0.09000000    0.25999999
   19.09944534   75.51159668    0.09000000    0.25999999
   19.10250092   75.58899689    0.09000000    0.25999999
   19.10833359   75.58899689    0.09000000    0.25999999
   19.11250114   76.07240295    0.09000000    0.25999999
   19.11583328   74.69529724    0.09000000    0.25999999
   19.11916733   75.32679749    0.09000000    0.25999999
   19.12222290   77.55930328    0.09000000    0.25999999
   19.12555504   76.98069763    0.09000000    0.25999999
   19.12638855   75.81610107    0.09000000    0.25999999
   19.12916756   76.16079712    0.09000000    0.25999999
   19.13249969   72.45320129    0.09000000    0.25999999
   19.13555527   74.36959839    0.09000000    0.25999999
   19.13888931   74.81030273    0.09000000    0.25999999
   19.14194489   73.53739929    0.09000000    0.25999999
   19.14527702   72.95680237    0.09000000    0.25999999
   19.15138817   72.95680237    0.09000000    0.25999999
   19.15555573   74.86759949    0.09000000    0.25999999
   19.15861130   73.65260315    0.09000000    0.25999999
   19.15972137   74.77359772    0.09000000    0.25999999
   19.16222191   74.53759766    0.09000000    0.25999999
   19.16555595   76.47850037    0.09000000    0.25999999
   19.16860962   73.94969940    0.09000000    0.25999999
   19.17194366   77.86769867    0.09000000    0.25999999
   19.17499924   73.83419800    0.09000000    0.25999999
   19.17833328   73.62419891    0.09000000    0.25999999
   19.18166542   75.62830353    0.09000000    0.25999999
   19.18472099   73.44860077    0.09000000    0.25999999
   19.18805504   73.67109680    0.09000000    0.25999999
   19.19416618   73.67109680    0.09000000    0.25999999
   19.19833183   74.68859863    0.09000000    0.25999999
   19.20166779   74.79959869    0.09000000    0.25999999
   19.20472336   73.49539948    0.09000000    0.25999999
   19.20805550   75.61409760    0.09000000    0.25999999
   19.21111107   74.27989960    0.09000000    0.25999999
   19.21444511   76.42579651    0.09000000    0.25999999
   19.21777916   75.55870056    0.09000000    0.25999999
   19.22083473   75.07479858    0.09000000    0.25999999
   19.22416687   75.89959717    0.09000000    0.25999999
   19.22638893   74.32099915    0.09000000    0.25999999
   19.22777748   76.17729950    0.09000000    0.25999999
   19.23111153   74.00550079    0.09000000    0.25999999
   19.23694420   74.00550079    0.09000000    0.25999999
   19.24111176   74.30010223    0.09000000    0.25999999
   19.24444389   75.60549927    0.09000000    0.25999999
   19.24749947   74.62449646    0.09000000    0.25999999
   19.25083351   73.11740112    0.09000000    0.25999999
   19.25416756   72.76589966    0.09000000    0.25999999
   19.25722313   72.58860016    0.09000000    0.25999999
   19.25972176   77.11689758    0.09000000    0.25999999
   19.26083374   76.43699646    0.09000000    0.25999999
   19.26416588   75.74759674    0.09000000    0.25999999
   19.26722145   75.96440125    0.09000000    0.25999999
   19.27055550   74.83670044    0.09000000    0.25999999
   19.27361107   76.73590088    0.09000000    0.25999999
   19.28000069   76.73590088    0.09000000    0.25999999
   19.28388786   74.53009796    0.09000000    0.25999999
   19.28722191   74.80180359    0.09000000    0.25999999
   19.29055595   73.48090363    0.09000000    0.25999999
   19.29305458   72.58149719    0.09000000    0.25999999
   19.29416656   74.86060333    0.09000000    0.25999999
   19.29749870   79.79350281    0.09000000    0.25999999
   19.30055428   74.23419952    0.09000000    0.25999999
   19.30388832   72.69460297    0.09000000    0.25999999
   19.30694389   73.43640137    0.09000000    0.25999999
   19.31027794   74.49600220    0.09000000    0.25999999
   19.31361008   74.77339935    0.09000000    0.25999999
   19.31666756   72.69830322    0.09000000    0.25999999
   19.32277870   72.69830322    0.09000000    0.25999999
   19.32694626   76.73079681    0.09000000    0.25999999
   19.33027840   75.34519958    0.09000000    0.25999999
   19.33333397   77.26619720    0.09000000    0.25999999
   19.33666801   73.77850342    0.09000000    0.25999999
   19.33972359   72.48880005    0.09000000    0.25999999
   19.34305573   77.78990173    0.09000000    0.25999999
   19.34638977   74.20320129    0.09000000    0.25999999
   19.34944534   76.33879852    0.09000000    0.25999999
   19.35277748   74.37779999    0.09000000    0.25999999
   19.35611153   74.25550079    0.09000000    0.25999999
   19.35916710   80.08119965    0.09000000    0.25999999
   19.35972214   75.79049683    0.09000000    0.25999999
   19.36555672   75.79049683    0.09000000    0.25999999
   19.36972237   72.69210052    0.09000000    0.25999999
   19.37305641   72.27639771    0.09000000    0.25999999
   19.37611198   75.34190369    0.09000000    0.25999999
   19.37944412   71.76540375    0.09000000    0.25999999
   19.38249969   74.07099915    0.09000000    0.25999999
   19.38583374   74.23709869    0.09000000    0.25999999
   19.38916588   74.79879761    0.09000000    0.25999999
   19.39222145   74.90799713    0.09000000    0.25999999
   19.39305496   73.51190186    0.09000000    0.25999999
   19.39583397   73.61869812    0.09000000    0.25999999
   19.39916611   82.81500244    0.09000000    0.25999999
   19.40222168   73.39669800    0.09000000    0.25999999
   19.40833282   73.39669800    0.09000000    0.25999999
   19.41250038   72.84130096    0.09000000    0.25999999
   19.41583252   74.06980133    0.09000000    0.25999999
   19.41916656   72.56620026    0.09000000    0.25999999
   19.42222214   71.84220123    0.09000000    0.25999999
   19.42555428   73.29979706    0.09000000    0.25999999
   19.42638779   73.88200378    0.09000000    0.25999999
   19.42916679   73.96499634    0.09000000    0.25999999
   19.43249893   77.99269867    0.09000000    0.25999999
   19.43555450   73.65809631    0.09000000    0.25999999
   19.43888855   74.14510345    0.09000000    0.25999999
   19.44222069   72.87850189    0.09000000    0.25999999
   19.44527626   74.06559753    0.09000000    0.25999999
   19.45111275   74.06559753    0.09000000    0.25999999
   19.45527840   72.41179657    0.09000000    0.25999999
   19.45861244   73.70899963    0.09000000    0.25999999
   19.45972252   72.44069672    0.09000000    0.25999999
   19.46222305   73.39479828    0.09000000    0.25999999
   19.46555710   74.12719727    0.09000000    0.25999999
   19.46861076   73.97589874    0.09000000    0.25999999
   19.47194481   73.99160004    0.09000000    0.25999999
   19.47527885   73.17700195    0.09000000    0.25999999
   19.47833443   72.58540344    0.09000000    0.25999999
   19.48166656   70.59329987    0.09000000    0.25999999
   19.48472214   72.65760040    0.09000000    0.25999999
   19.48805618   72.10019684    0.09000000    0.25999999
   19.49416733   72.10019684    0.09000000    0.25999999
   19.49833298   73.74960327    0.09000000    0.25999999
   19.50138855   73.25710297    0.09000000    0.25999999
   19.50472260   75.97889709    0.09000000    0.25999999
   19.50805473   73.98200226    0.09000000    0.25999999
   19.51111031   71.90440369    0.09000000    0.25999999
   19.51444435   74.48349762    0.09000000    0.25999999
   19.51749992   77.28649902    0.09000000    0.25999999
   19.52083397   77.54550171    0.09000000    0.25999999
   19.52416611   79.50160217    0.09000000    0.25999999
   19.52638817   72.33560181    0.09000000    0.25999999
   19.52777672   73.96459961    0.09000000    0.25999999
   19.53111076   75.64140320    0.09000000    0.25999999
   19.53694344   75.64140320    0.09000000    0.25999999
   19.54111099   74.42539978    0.09000000    0.25999999
   19.54444313   74.07679749    0.09000000    0.25999999
   19.54749870   73.99579620    0.09000000    0.25999999
   19.55083275   74.07980347    0.09000000    0.25999999
   19.55388832  167.95300293    0.09000000    0.25999999
   19.55749893   73.33090210    0.09000000    0.25999999
   19.55972099   74.64510345    0.09000000    0.25999999
   19.56110954   73.11579895    0.09000000    0.25999999
   19.56444359   75.15219879    0.09000000    0.25999999
   19.56750107   72.51020050    0.09000000    0.25999999
   19.57083511   74.74690247    0.09000000    0.25999999
   19.57416725   72.29740143    0.09000000    0.25999999
   19.57972336   72.29740143    0.09000000    0.25999999
   19.58388901   78.13790131    0.09000000    0.25999999
   19.58722305   73.26039886    0.09000000    0.25999999
   19.59027863   74.31130219    0.09000000    0.25999999
   19.59305573   76.37719727    0.09000000    0.25999999
   19.59388924   73.17440033    0.09000000    0.25999999
   19.59722328   72.92859650    0.09000000    0.25999999
   19.60027885   70.69249725    0.09000000    0.25999999
   19.60361099   75.52960205    0.09000000    0.25999999
   19.60694504   73.47579956    0.09000000    0.25999999
   19.61000061   76.61920166    0.09000000    0.25999999
   19.61333466   73.52519989    0.09000000    0.25999999
   19.61638832   74.27300262    0.09000000    0.25999999
   19.62249947   74.27300262    0.09000000    0.25999999
   19.62666702   72.30519867    0.09000000    0.25999999
   19.63000107   76.50669861    0.09000000    0.25999999
   19.63333321   75.41570282    0.09000000    0.25999999
   19.63638878   74.78289795    0.09000000    0.25999999
   19.63972282  100.47699738    0.09000000    0.25999999
   19.64305496   71.31300354    0.09000000    0.25999999
   19.64611053   74.27320099    0.09000000    0.25999999
   19.64944458   77.39420319    0.09000000    0.25999999
   19.65250015   74.93080139    0.09000000    0.25999999
   19.65583229   72.99819946    0.09000000    0.25999999
   19.65916634   73.50170135    0.09000000    0.25999999
   19.65972137   73.60870361    0.09000000    0.25999999
   19.66555595   73.60870361    0.09000000    0.25999999
   19.66972160   74.40850067    0.09000000    0.25999999
   19.67277718   77.05259705    0.09000000    0.25999999
   19.67611122   72.03050232    0.09000000    0.25999999
   19.67944336   77.58059692    0.09000000    0.25999999
   19.68277740   75.42079926    0.09000000    0.25999999
   19.68583298   74.58979797    0.09000000    0.25999999
   19.68916512   79.98269653    0.09000000    0.25999999
   19.69222069   74.30359650    0.09000000    0.25999999
   19.69305420   74.97509766    0.09000000    0.25999999
   19.69583321   74.18099976    0.09000000    0.25999999
   19.69916534   75.06590271    0.09000000    0.25999999
   19.70222282   74.64379883    0.09000000    0.25999999
   19.70833397   74.64379883    0.09000000    0.25999999
   19.71250153   76.11879730    0.09000000    0.25999999
   19.71583366   74.03910065    0.09000000    0.25999999
   19.71888924   74.93280029    0.09000000    0.25999999
   19.72222328   75.70210266    0.09000000    0.25999999
   19.72527885   75.30020142    0.09000000    0.25999999
   19.72666740   73.89160156    0.09000000    0.25999999
   19.72888947   76.58300018    0.09000000    0.25999999
   19.73222351   74.89250183    0.09000000    0.25999999
   19.73527718   77.90000153    0.09000000    0.25999999
   19.73861122   80.25859833    0.09000000    0.25999999
   19.74194527   74.21600342    0.09000000    0.25999999
   19.74500084   73.61160278    0.09000000    0.25999999
   19.75111198   73.61160278    0.09000000    0.25999999
   19.75527763   75.52059937    0.09000000    0.25999999
   19.75861168   75.65750122    0.09000000    0.25999999
   19.76000023   74.05290222    0.09000000    0.25999999
   19.76222229   75.20529938    0.09000000    0.25999999
   19.76555634   73.04550171    0.09000000    0.25999999
   19.76861000   75.23809814    0.09000000    0.25999999
   19.77194405   73.86119843    0.09000000    0.25999999
   19.77527809   75.23239899    0.09000000    0.25999999
   19.77833366   74.78929901    0.09000000    0.25999999
   19.78166580   73.17120361    0.09000000    0.25999999
   19.78499985   75.75299835    0.09000000    0.25999999
   19.78805542   72.63230133    0.09000000    0.25999999
   19.79388809   72.63230133    0.09000000    0.25999999
   19.79805565   75.32869720    0.09000000    0.25999999
   19.80138779   71.82710266    0.09000000    0.25999999
   19.80472183   73.37010193    0.09000000    0.25999999
   19.80777740   72.85479736    0.09000000    0.25999999
   19.81110954   72.80650330    0.09000000    0.25999999
   19.81416512   72.82630157    0.09000000    0.25999999
   19.81750107   72.90309906    0.09000000    0.25999999
   19.82083511   72.44699860    0.09000000    0.25999999
   19.82389069   73.71489716    0.09000000    0.25999999
   19.82666779   76.72720337    0.09000000    0.25999999
   19.84722328   76.72720337    0.09000000    0.25999999
   19.85138893   76.25260162    0.09000000    0.25999999
   19.85444450   76.48619843    0.09000000    0.25999999
   19.85777855   73.87560272    0.09000000    0.25999999
   19.86000061   73.49559784    0.09000000    0.25999999
   19.86166763   71.47609711    0.09000000    0.25999999
   19.86472321   72.82180023    0.09000000    0.25999999
   19.86805534   73.96099854    0.09000000    0.25999999
   19.87111092   73.01480103    0.09000000    0.25999999
   19.87444496   73.95349884    0.09000000    0.25999999
   19.87777710   74.89279938    0.09000000    0.25999999
   19.88083267   77.56169891    0.09000000    0.25999999
   19.88416672   74.37850189    0.09000000    0.25999999
   19.88999939   74.37850189    0.09000000    0.25999999
   19.89416695   73.58020020    0.09000000    0.25999999
   19.89722252   74.96019745    0.09000000    0.25999999
   19.90055466   76.57080078    0.09000000    0.25999999
   19.90361023   75.57009888    0.09000000    0.25999999
   19.90694427   72.73280334    0.09000000    0.25999999
   19.91027832   72.42489624    0.09000000    0.25999999
   19.91333389   73.18789673    0.09000000    0.25999999
   19.91666603   75.26300049    0.09000000    0.25999999
   19.92000008   73.97080231    0.09000000    0.25999999
   19.92305565   74.50599670    0.09000000    0.25999999
   19.92638779   76.51219940    0.09000000    0.25999999
   19.92694473   76.39830017    0.09000000    0.25999999
   19.93277740   76.39830017    0.09000000    0.25999999
   19.93694305   75.46730042    0.09000000    0.25999999
   19.93999863   75.25859833    0.09000000    0.25999999
   19.94333267   76.90609741    0.09000000    0.25999999
   19.94666672   73.35530090    0.09000000    0.25999999
   19.94972038   78.99250031    0.09000000    0.25999999
   19.95305634   74.48200226    0.09000000    0.25999999
   19.95639038   76.31649780    0.09000000    0.25999999
   19.95944595   74.23359680    0.09000000    0.25999999
   19.96027946   76.27909851    0.09000000    0.25999999
   19.96305656   76.62760162    0.09000000    0.25999999
   19.96638870   78.35269928    0.09000000    0.25999999
   19.96972275   78.35890198    0.09000000    0.25999999
   19.97555542   78.35890198    0.09000000    0.25999999
   19.98000145   75.61650085    0.09000000    0.25999999
   19.98333359   74.31030273    0.09000000    0.25999999
   19.98666763   75.32649994    0.09000000    0.25999999
   19.98972321   75.90599823    0.09000000    0.25999999
   19.99305534   79.32450104    0.09000000    0.25999999
   19.99361229   74.55149841    0.09000000    0.25999999
   19.99638939   79.47000122    0.09000000    0.25999999
   19.99972153   75.05419922    0.09000000    0.25999999
   20.00305557   75.90380096    0.09000000    0.25999999
   20.00611115   75.71099854    0.09000000    0.25999999
   20.00944519   75.52210236    0.09000000    0.25999999
   20.01277733   76.11479950    0.09000000    0.25999999
   20.01833344   76.11479950    0.09000000    0.25999999
   20.02249908   74.36750031    0.09000000    0.25999999
   20.02583313   74.48979950    0.09000000    0.25999999
   20.02694511   75.76059723    0.09000000    0.25999999
   20.02944374   76.20580292    0.09000000    0.25999999
   20.03277779   76.01370239    0.09000000    0.25999999
   20.03610992   72.12319946    0.09000000    0.25999999
   20.03916550   81.64649963    0.09000000    0.25999999
   20.04249954   76.59529877    0.09000000    0.25999999
   20.04555511   78.82769775    0.09000000    0.25999999
   20.04888916   72.62809753    0.09000000    0.25999999
   20.05222130   75.04229736    0.09000000    0.25999999
   20.05527687   73.17449951    0.09000000    0.25999999
   20.06138802   73.17449951    0.09000000    0.25999999
   20.06555557   72.61409760    0.09000000    0.25999999
   20.06861115   73.36589813    0.09000000    0.25999999
   20.07194519   73.58809662    0.09000000    0.25999999
   20.07500076   74.20700073    0.09000000    0.25999999
   20.07833481   71.93679810    0.09000000    0.25999999
   20.08166695   76.03919983    0.09000000    0.25999999
   20.08472252   72.37640381    0.09000000    0.25999999
   20.08805656   71.42880249    0.09000000    0.25999999
   20.09138870   75.03510284    0.09000000    0.25999999
   20.09361267   71.76329803    0.09000000    0.25999999
   20.09472275   74.59989929    0.09000000    0.25999999
   20.09805679   77.00379944    0.09000000    0.25999999
   20.10416794   77.00379944    0.09000000    0.25999999
   20.10833359   74.20210266    0.09000000    0.25999999
   20.11138916   77.62879944    0.09000000    0.25999999
   20.11472321   76.12629700    0.09000000    0.25999999
   20.11805534   75.55460358    0.09000000    0.25999999
   20.12111092   78.04540253    0.09000000    0.25999999
   20.12444496   74.97570038    0.09000000    0.25999999
   20.12694550   78.24250031    0.09000000    0.25999999
   20.12805557   75.24919891    0.09000000    0.25999999
   20.13138962   78.34750366    0.09000000    0.25999999
   20.13472176   75.69180298    0.09000000    0.25999999
   20.13777733   76.20310211    0.09000000    0.25999999
   20.14111137   79.28140259    0.09000000    0.25999999
   20.14694405   79.28140259    0.09000000    0.25999999
   20.15111160   74.53489685    0.09000000    0.25999999
   20.15444374   74.25070190    0.09000000    0.25999999
   20.15749931   73.80629730    0.09000000    0.25999999
   20.16027832   74.91909790    0.09000000    0.25999999
   20.16110992   74.35929871    0.09000000    0.25999999
   20.16444397   75.21009827    0.09000000    0.25999999
   20.16777802   76.16560364    0.09000000    0.25999999
   20.17083359   72.45939636    0.09000000    0.25999999
   20.17416573   73.43540192    0.09000000    0.25999999
   20.17749977   78.49459839    0.09000000    0.25999999
   20.18055534  157.32699585    0.09000000    0.25999999
   20.18388748   77.08229828    0.09000000    0.25999999
   20.18972206   77.08229828    0.09000000    0.25999999
   20.19388771   74.08750153    0.09000000    0.25999999
   20.19722176   73.86969757    0.09000000    0.25999999
   20.20027924   75.36509705    0.09000000    0.25999999
   20.20361137   77.77860260    0.09000000    0.25999999
   20.20694542   75.12799835    0.09000000    0.25999999
   20.21000099   73.02950287    0.09000000    0.25999999
   20.21333504   78.25309753    0.09000000    0.25999999
   20.21666718   73.31240082    0.09000000    0.25999999
   20.21972275   73.98500061    0.09000000    0.25999999
   20.22305679   78.53070068    0.09000000    0.25999999
   20.22611237   75.03649902    0.09000000    0.25999999
   20.22694588   76.28189850    0.09000000    0.25999999
   20.23277855   76.28189850    0.09000000    0.25999999
   20.23694420   74.41049957    0.09000000    0.25999999
   20.23999977   75.73310089    0.09000000    0.25999999
   20.24333382   77.62999725    0.09000000    0.25999999
   20.24638939   77.01390076    0.09000000    0.25999999
   20.24972153   72.65609741    0.09000000    0.25999999
   20.25305557   76.99970245    0.09000000    0.25999999
   20.25611115   73.67060089    0.09000000    0.25999999
   20.25944519   75.73799896    0.09000000    0.25999999
   20.26027870   75.25299835    0.09000000    0.25999999
   20.26277733   77.06289673    0.09000000    0.25999999
   20.26611137   78.31369781    0.09000000    0.25999999
   20.26944351   74.74960327    0.09000000    0.25999999
   20.27555466   74.74960327    0.09000000    0.25999999
   20.27972221   75.26039886    0.09000000    0.25999999
   20.28277779   74.84310150    0.09000000    0.25999999
   20.28610992   72.83779907    0.09000000    0.25999999
   20.28944397   73.85800171    0.09000000    0.25999999
   20.29249954   74.27269745    0.09000000    0.25999999
   20.29361153   73.96669769    0.09000000    0.25999999
   20.29611015   75.22910309    0.09000000    0.25999999
   20.29944420   72.82189941    0.09000000    0.25999999
   20.30277634   73.70359802    0.09000000    0.25999999
   20.30583191   73.54329681    0.09000000    0.25999999
   20.30916595   72.82499695    0.09000000    0.25999999
   20.31250000   73.14409637    0.09000000    0.25999999
   20.31833458   73.14409637    0.09000000    0.25999999
   20.32250023   74.58709717    0.09000000    0.25999999
   20.32583427   74.34809875    0.09000000    0.25999999
   20.32694626   75.70300293    0.09000000    0.25999999
   20.32944489   72.38159943    0.09000000    0.25999999
   20.33250046   76.38580322    0.09000000    0.25999999
   20.33583450   73.56449890    0.09000000    0.25999999
   20.33889008   74.98269653    0.09000000    0.25999999
   20.34222221   74.05560303    0.09000000    0.25999999
   20.34555626   72.84320068    0.09000000    0.25999999
   20.34861183   72.68759918    0.09000000    0.25999999
   20.35194397   73.52629852    0.09000000    0.25999999
   20.35527802   74.42389679    0.09000000    0.25999999
   20.36111069   74.42389679    0.09000000    0.25999999
   20.36527824   75.09790039    0.09000000    0.25999999
   20.36861038   74.43409729    0.09000000    0.25999999
   20.37166595   74.73169708    0.09000000    0.25999999
   20.37500000   73.38289642    0.09000000    0.25999999
   20.37833405   75.25060272    0.09000000    0.25999999
   20.38138962   72.51809692    0.09000000    0.25999999
   20.38472176   72.20899963    0.09000000    0.25999999
   20.38805580   72.75879669    0.09000000    0.25999999
   20.39111137   71.65010071    0.09000000    0.25999999
   20.39361191   72.45279694    0.09000000    0.25999999
   20.39527702   71.74019623    0.09000000    0.25999999
   20.39833260   71.83609772    0.09000000    0.25999999
   20.40416718   71.83609772    0.09000000    0.25999999
   20.40805435   72.26629639    0.09000000    0.25999999
   20.41138840   73.60479736    0.09000000    0.25999999
   20.41472244   75.70089722    0.09000000    0.25999999
   20.41777802   75.71710205    0.09000000    0.25999999
   20.42111015   77.68289948    0.09000000    0.25999999
   20.42444420   72.73480225    0.09000000    0.25999999
   20.42694473   75.76450348    0.09000000    0.25999999
   20.42777634   76.20629883    0.09000000    0.25999999
   20.43111038   76.62229919    0.09000000    0.25999999
   20.43444443   79.15979767    0.09000000    0.25999999
   20.43750000   75.10690308    0.09000000    0.25999999
   20.44083214   73.80690002    0.09000000    0.25999999
   20.44694328   73.80690002    0.09000000    0.25999999
   20.45111275   76.92870331    0.09000000    0.25999999
   20.45416832   77.59989929    0.09000000    0.25999999
   20.45750046   73.54779816    0.09000000    0.25999999
   20.46027946   74.12159729    0.09000000    0.25999999
   20.46083450   73.12200165    0.09000000    0.25999999
   20.46416664   71.85990143    0.09000000    0.25999999
   20.46750069   72.40059662    0.09000000    0.25999999
   20.47055626   72.96839905    0.09000000    0.25999999
   20.47389030   74.64089966    0.09000000    0.25999999
   20.47722244   73.31030273    0.09000000    0.25999999
   20.48027802   72.71579742    0.09000000    0.25999999
   20.48361206   76.07830048    0.09000000    0.25999999
   20.48972321   76.07830048    0.09000000    0.25999999
   20.49388885   76.28040314    0.09000000    0.25999999
   20.49722290   77.16230011    0.09000000    0.25999999
   20.50027847   75.24410248    0.09000000    0.25999999
   20.50361061   74.52259827    0.09000000    0.25999999
   20.50666618   77.40180206    0.09000000    0.25999999
   20.51000023   75.09619904    0.09000000    0.25999999
   20.51333427   76.94960022    0.09000000    0.25999999
   20.51638794   76.80930328    0.09000000    0.25999999
   20.51972198   74.67070007    0.09000000    0.25999999
   20.52277756   75.58830261    0.09000000    0.25999999
   20.52611160   76.32959747    0.09000000    0.25999999
   20.52694511   75.12930298    0.09000000    0.25999999
   20.53249931   75.12930298    0.09000000    0.25999999
   20.53666687   73.01370239    0.09000000    0.25999999
   20.53999901   75.96410370    0.09000000    0.25999999
   20.54305458   76.25669861    0.09000000    0.25999999
   20.54638863   74.79239655    0.09000000    0.25999999
   20.54972076   76.03279877    0.09000000    0.25999999
   20.55305481   73.19650269    0.09000000    0.25999999
   20.55611038   71.81050110    0.09000000    0.25999999
   20.55944443   76.10610199    0.09000000    0.25999999
   20.56027794   75.54019928    0.09000000    0.25999999
   20.56277657   76.62779999    0.09000000    0.25999999
   20.56611061   74.76460266    0.09000000    0.25999999
   20.56944466   73.15760040    0.09000000    0.25999999
   20.57527924   73.15760040    0.09000000    0.25999999
   20.57944489   72.54579926    0.09000000    0.25999999
   20.58277893   75.42060089    0.09000000    0.25999999
   20.58611107   74.61060333    0.09000000    0.25999999
   20.58916664   76.77439880    0.09000000    0.25999999
   20.59250069   74.48079681    0.09000000    0.25999999
   20.59361267   72.14640045    0.09000000    0.25999999
   20.59611130   74.78530121    0.09000000    0.25999999
   20.59916687   80.40859985    0.09000000    0.25999999
   20.60250092   75.53669739    0.09000000    0.25999999
   20.60555649   73.81900024    0.09000000    0.25999999
   20.60888863   78.24479675    0.09000000    0.25999999
   20.61222267   72.46640015    0.09000000    0.25999999
   20.61833382   72.46640015    0.09000000    0.25999999
   20.62249947   75.91680145    0.09000000    0.25999999
   20.62555504   71.51689911    0.09000000    0.25999999
   20.62694550   72.91950226    0.09000000    0.25999999
   20.62944412   71.65380096    0.09000000    0.25999999
   20.63249969   72.29100037    0.09000000    0.25999999
   20.63583374   73.17240143    0.09000000    0.25999999
   20.63916588   74.45210266    0.09000000    0.25999999
   20.64222145   76.53029633    0.09000000    0.25999999
   20.64555550   73.01119995    0.09000000    0.25999999
   20.64888954   73.29979706    0.09000000    0.25999999
   20.65194321   75.92500305    0.09000000    0.25999999
   20.65527725   79.12139893    0.09000000    0.25999999
   20.66110992   79.12139893    0.09000000    0.25999999
   20.66527748   74.33399963    0.09000000    0.25999999
   20.66860962   73.28250122    0.09000000    0.25999999
   20.67166519   76.98320007    0.09000000    0.25999999
   20.67499924   73.28399658    0.09000000    0.25999999
   20.67805481   76.45659637    0.09000000    0.25999999
   20.68138885   76.80359650    0.09000000    0.25999999
   20.68472099   74.50930023    0.09000000    0.25999999
   20.68777657   73.54709625    0.09000000    0.25999999
   20.69111061   73.43289948    0.09000000    0.25999999
   20.69361115   73.10079956    0.09000000    0.25999999
   20.69472122   72.67130280    0.09000000    0.25999999
   20.69777679   72.27870178    0.09000000    0.25999999
   20.70388985   72.27870178    0.09000000    0.25999999
   20.70805550   72.20050049    0.09000000    0.25999999
   20.71138954   73.55480194    0.09000000    0.25999999
   20.71472359   73.63349915    0.09000000    0.25999999
   20.71777916   82.97599792    0.09000000    0.25999999
   20.72111130   72.85739899    0.09000000    0.25999999
   20.72444534   74.00260162    0.09000000    0.25999999
   20.72694588   73.86340332    0.09000000    0.25999999
   20.72805595   74.97820282    0.09000000    0.25999999
   20.73111153   73.38539886    0.09000000    0.25999999
   20.73444557   72.39600372    0.09000000    0.25999999
   20.73777771   72.02490234    0.09000000    0.25999999
   20.74083328   72.16899872    0.09000000    0.25999999
   20.74694443   72.16899872    0.09000000    0.25999999
   20.75083351   73.60330200    0.09000000    0.25999999
   20.75416756   72.94770050    0.09000000    0.25999999
   20.75749969   73.00000000    0.09000000    0.25999999
   20.76027870   73.79470062    0.09000000    0.25999999
   20.76111031   73.94370270    0.09000000    0.25999999
   20.76416588   73.29489899    0.09000000    0.25999999
   20.76749992   78.58229828    0.09000000    0.25999999
   20.77055550   73.84899902    0.09000000    0.25999999
   20.77388954   76.85410309    0.09000000    0.25999999
   20.77722168   74.85739899    0.09000000    0.25999999
   20.78027725   72.96640015    0.09000000    0.25999999
   20.78361130   72.20729828    0.09000000    0.25999999
   20.78972244   72.20729828    0.09000000    0.25999999
   20.79388809   72.39649963    0.09000000    0.25999999
   20.79694366   78.49819946    0.09000000    0.25999999
   20.80027771   71.70629883    0.09000000    0.25999999
   20.80333328   73.33010101    0.09000000    0.25999999
   20.80666542   74.95210266    0.09000000    0.25999999
   20.80999947   73.39630127    0.09000000    0.25999999
   20.81305504   74.30549622    0.09000000    0.25999999
   20.81638718   76.18979645    0.09000000    0.25999999
   20.81972313   74.86889648    0.09000000    0.25999999
   20.82277870   73.06390381    0.09000000    0.25999999
   20.82611275   73.01959991    0.09000000    0.25999999
   20.82694626   76.23629761    0.09000000    0.25999999
   20.83250046   76.23629761    0.09000000    0.25999999
   20.83666801   73.80220032    0.09000000    0.25999999
   20.83972359   74.63510132    0.09000000    0.25999999
   20.84305573   72.63269806    0.09000000    0.25999999
   20.86055565   74.56210327    0.09000000    0.25999999
   20.86305618   73.07479858    0.09000000    0.25999999
   20.86611176   74.91570282    0.09000000    0.25999999
   20.86944389   73.69909668    0.09000000    0.25999999
   20.87555504   73.69909668    0.09000000    0.25999999
   20.87972260   73.57150269    0.09000000    0.25999999
   20.88277817   72.86869812    0.09000000    0.25999999
   20.88611031   73.44499969    0.09000000    0.25999999
   20.88916588   73.85949707    0.09000000    0.25999999
   20.89249992   72.48300171    0.09000000    0.25999999
   20.89388847   75.62429810    0.09000000    0.25999999
   20.89638901   72.00150299    0.09000000    0.25999999
   20.89944458   71.15119934    0.09000000    0.25999999
   20.90277672   74.72630310    0.09000000    0.25999999
   20.90611076   72.63259888    0.09000000    0.25999999
   20.90916634   70.96540070    0.09000000    0.25999999
   20.91250038   75.25859833    0.09000000    0.25999999
   20.91833305   75.25859833    0.09000000    0.25999999
   20.92249870   72.74510193    0.09000000    0.25999999
   20.92555428   72.29789734    0.09000000    0.25999999
   20.92722130   72.79380035    0.09000000    0.25999999
   20.92944336   72.43109894    0.09000000    0.25999999
   20.93249893   72.94750214    0.09000000    0.25999999
   20.93583298   72.56009674    0.09000000    0.25999999
   20.93916512   72.93099976    0.09000000    0.25999999
   20.94222069   73.74970245    0.09000000    0.25999999
   20.94555473   71.26820374    0.09000000    0.25999999
   20.94861031   72.28810120    0.09000000    0.25999999
   20.95194435   73.09809875    0.09000000    0.25999999
   20.95527840   75.84510040    0.09000000    0.25999999
   20.96111107   75.84510040    0.09000000    0.25999999
   20.96527863   75.17839813    0.09000000    0.25999999
   20.96861076   75.81659698    0.09000000    0.25999999
   20.97166634   74.69609833    0.09000000    0.25999999
   20.97500038   74.53179932    0.09000000    0.25999999
   20.97833443   73.16290283    0.09000000    0.25999999
   20.98139000   73.67389679    0.09000000    0.25999999
   20.98472214   73.42330170    0.09000000    0.25999999
   20.98777771   73.24449921    0.09000000    0.25999999
   20.99111176   74.17230225    0.09000000    0.25999999
   20.99388885   75.76540375    0.09000000    0.25999999
   20.99472237   75.43150330    0.09000000    0.25999999
   20.99777794   74.25820160    0.09000000    0.25999999
   21.00388908   74.25820160    0.09000000    0.25999999
   21.00805473   72.67199707    0.09000000    0.25999999
   21.01138878   73.30210114    0.09000000    0.25999999
   21.01472282   74.90049744    0.09000000    0.25999999
   21.01777840   73.78199768    0.09000000    0.25999999
   21.02111053   75.70529938    0.09000000    0.25999999
   21.02444458   72.01940155    0.09000000    0.25999999
   21.02722168   74.16850281    0.09000000    0.25999999
   21.02805519   74.03610229    0.09000000    0.25999999
   21.03138924   74.88890076    0.09000000    0.25999999
   21.03444481   73.96669769    0.09000000    0.25999999
   21.03777695   72.02760315    0.09000000    0.25999999
   21.04083252   72.90010071    0.09000000    0.25999999
   21.04694366   72.90010071    0.09000000    0.25999999
   21.05111122   75.82240295    0.09000000    0.25999999
   21.05416679   74.17639923    0.09000000    0.25999999
   21.05749893   75.20240021    0.09000000    0.25999999
   21.06055450   73.05210114    0.09000000    0.25999999
   21.06110954   75.11190033    0.09000000    0.25999999
   21.06444359   73.70700073    0.09000000    0.25999999
   21.06750107   71.18830109    0.09000000    0.25999999
   21.07083511   73.66320038    0.09000000    0.25999999
   21.07416725   74.19609833    0.09000000    0.25999999
   21.07722282   72.88159943    0.09000000    0.25999999
   21.08055687   76.34429932    0.09000000    0.25999999
   21.08388901   80.24900055    0.09000000    0.25999999
   21.08972359   80.24900055    0.09000000    0.25999999
   21.09388924   75.26730347    0.09000000    0.25999999
   21.09444427   75.47029877    0.09000000    0.25999999
   21.09777832   73.98860168    0.09000000    0.25999999
   21.10083389   76.10440063    0.09000000    0.25999999
   21.10416794   76.91429901    0.09000000    0.25999999
   21.10722351   73.62609863    0.09000000    0.25999999
   21.11055565   72.65380096    0.09000000    0.25999999
   21.11388969   74.77760315    0.09000000    0.25999999
   21.11694527   79.05130005    0.09000000    0.25999999
   21.12027740   78.32659912    0.09000000    0.25999999
   21.12361145   77.59549713    0.09000000    0.25999999
   21.12666702   76.91290283    0.09000000    0.25999999
   21.12777710   75.24909973    0.09000000    0.25999999
   21.13249969   75.24909973    0.09000000    0.25999999
   21.13666725   73.84590149    0.09000000    0.25999999
   21.13999939   73.47260284    0.09000000    0.25999999
   21.14333344   76.83439636    0.09000000    0.25999999
   21.14638901   76.60169983    0.09000000    0.25999999
   21.14972115   74.97709656    0.09000000    0.25999999
   21.15305519   72.76010132    0.09000000    0.25999999
   21.15611076   76.40609741    0.09000000    0.25999999
   21.15944481   76.55870056    0.09000000    0.25999999
   21.16110992   75.36530304    0.09000000    0.25999999
   21.16305542   74.27529907    0.09000000    0.25999999
   21.16611099   74.16169739    0.09000000    0.25999999
   21.16944313   74.26439667    0.09000000    0.25999999
   21.17555428   74.26439667    0.09000000    0.25999999
   21.17944336   75.75140381    0.09000000    0.25999999
   21.18277740   77.86060333    0.09000000    0.25999999
   21.18610954   72.81559753    0.09000000    0.25999999
   21.18916512   74.49559784    0.09000000    0.25999999
   21.19249916   73.24500275    0.09000000    0.25999999
   21.19444275   72.23519897    0.09000000    0.25999999
   21.19583321   72.49269867    0.09000000    0.25999999
   21.19916534   74.87020111    0.09000000    0.25999999
   21.20250130   73.33789825    0.09000000    0.25999999
   21.20555687   75.13539886    0.09000000    0.25999999
   21.20888901   75.84839630    0.09000000    0.25999999
   21.21222305   71.94219971    0.09000000    0.25999999
   21.21833420   71.94219971    0.09000000    0.25999999
   21.22249985   74.71880341    0.09000000    0.25999999
   21.22555542   73.90280151    0.09000000    0.25999999
   21.22777748   74.71569824    0.09000000    0.25999999
   21.22916794   73.08049774    0.09000000    0.25999999
   21.23250008   73.91310120    0.09000000    0.25999999
   21.23583412   75.81020355    0.09000000    0.25999999
   21.23888969   77.16649628    0.09000000    0.25999999
   21.24222183   77.04389954    0.09000000    0.25999999
   21.24555588   76.72789764    0.09000000    0.25999999
   21.24861145   79.51069641    0.09000000    0.25999999
   21.25194359   74.48609924    0.09000000    0.25999999
   21.25499916   73.27839661    0.09000000    0.25999999
   21.26111031   73.27839661    0.09000000    0.25999999
   21.26527786   75.75309753    0.09000000    0.25999999
   21.26833344   73.39369965    0.09000000    0.25999999
   21.27166557   73.70619965    0.09000000    0.25999999
   21.27499962   72.99050140    0.09000000    0.25999999
   21.27805519   73.68060303    0.09000000    0.25999999
   21.28138924   77.55570221    0.09000000    0.25999999
   21.28472137   75.18229675    0.09000000    0.25999999
   21.28777695   76.99130249    0.09000000    0.25999999
   21.29111099   77.82340240    0.09000000    0.25999999
   21.29416656   74.82119751    0.09000000    0.25999999
   21.29472160   75.35230255    0.09000000    0.25999999
   21.29805565   74.70539856    0.09000000    0.25999999
   21.30388832   74.70539856    0.09000000    0.25999999
   21.30805397   74.67130280    0.09000000    0.25999999
   21.31138802   73.37380219    0.09000000    0.25999999
   21.31444359   74.96350098    0.09000000    0.25999999
   21.31777954   74.20870209    0.09000000    0.25999999
   21.32111168   76.40239716    0.09000000    0.25999999
   21.32416725   75.89679718    0.09000000    0.25999999
   21.32750130   75.10150146    0.09000000    0.25999999
   21.32805634   75.24150085    0.09000000    0.25999999
   21.33111191   75.17299652    0.09000000    0.25999999
   21.33444595   74.35649872    0.09000000    0.25999999
   21.33750153   74.12590027    0.09000000    0.25999999
   21.34083366   73.00890350    0.09000000    0.25999999
   21.34666824   73.00890350    0.09000000    0.25999999
   21.35083389   73.54049683    0.09000000    0.25999999
   21.35416794   74.04850006    0.09000000    0.25999999
   21.35750008   75.26660156    0.09000000    0.25999999
   21.36055565   77.15730286    0.09000000    0.25999999
   21.36138916   74.31459808    0.09000000    0.25999999
   21.36416626   74.86250305    0.09000000    0.25999999
   21.36750031   73.96299744    0.09000000    0.25999999
   21.37055588   73.07189941    0.09000000    0.25999999
   21.37388992   72.63269806    0.09000000    0.25999999
   21.37694550   73.06880188    0.09000000    0.25999999
   21.38027763   73.35230255    0.09000000    0.25999999
   21.38361168   75.17579651    0.09000000    0.25999999
   21.38972282   75.17579651    0.09000000    0.25999999
   21.39388847   79.07319641    0.09000000    0.25999999
   21.39472198   76.18560028    0.09000000    0.25999999
   21.39749908   78.68949890    0.09000000    0.25999999
   21.40083313   73.87799835    0.09000000    0.25999999
   21.40388870   73.67120361    0.09000000    0.25999999
   21.40722275   75.34619904    0.09000000    0.25999999
   21.41027832   75.10520172    0.09000000    0.25999999
   21.41361046   78.62689972    0.09000000    0.25999999
   21.41694450   73.88849640    0.09000000    0.25999999
   21.42000008   79.78330231    0.09000000    0.25999999
   21.42333221   75.38220215    0.09000000    0.25999999
   21.42666626   74.15509796    0.09000000    0.25999999
   21.42805481   74.93160248    0.09000000    0.25999999
   21.43249893   74.93160248    0.09000000    0.25999999
   21.43666649   74.65059662    0.09000000    0.25999999
   21.43999863   73.67489624    0.09000000    0.25999999
   21.44305420   75.27980042    0.09000000    0.25999999
   21.44638824   76.13639832    0.09000000    0.25999999
   21.44944382   73.98110199    0.09000000    0.25999999
   21.45277786   73.02069855    0.09000000    0.25999999
   21.45611191   73.58750153    0.09000000    0.25999999
   21.45916748   75.32420349    0.09000000    0.25999999
   21.46138954   74.91000366    0.09000000    0.25999999
   21.46277809   76.06420135    0.09000000    0.25999999
   21.46611214   78.43630219    0.09000000    0.25999999
   21.46916771   74.39550018    0.09000000    0.25999999
   21.47527885   74.39550018    0.09000000    0.25999999
   21.47944450   76.82240295    0.09000000    0.25999999
   21.48277855   74.31289673    0.09000000    0.25999999
   21.48583412   74.70680237    0.09000000    0.25999999
   21.48916626   75.09790039    0.09000000    0.25999999
   21.49250031   78.92160034    0.09000000    0.25999999
   21.49472237   75.36090088    0.09000000    0.25999999
   21.49611092   82.20429993    0.09000000    0.25999999
   21.49944496   80.27359772    0.09000000    0.25999999
   21.50250053   87.35910034    0.09000000    0.25999999
   21.50583267   81.31729889    0.09000000    0.25999999
   21.50916672   75.95929718    0.09000000    0.25999999
   21.51222229   75.31030273    0.09000000    0.25999999
   21.51833344   75.31030273    0.09000000    0.25999999
   21.52222252   74.40339661    0.09000000    0.25999999
   21.52555466   74.35099792    0.09000000    0.25999999
   21.52805519   77.70870209    0.09000000    0.25999999
   21.52916718   78.63520050    0.09000000    0.25999999
   21.53249931   74.72679901    0.09000000    0.25999999
   21.53555489   77.34429932    0.09000000    0.25999999
   21.53888893   73.86049652    0.09000000    0.25999999
   21.54194450   77.28459930    0.09000000    0.25999999
   21.54527664   75.53079987    0.09000000    0.25999999
   21.54861069   78.22889709    0.09000000    0.25999999
   21.55166626   76.46920013    0.09000000    0.25999999
   21.55499840   81.86309814    0.09000000    0.25999999
   21.56110954   81.86309814    0.09000000    0.25999999
   21.56527710   76.36509705    0.09000000    0.25999999
   21.56833458   79.44210052    0.09000000    0.25999999
   21.57166672   79.21739960    0.09000000    0.25999999
   21.57472229   77.27909851    0.09000000    0.25999999
   21.57805634   78.99400330    0.09000000    0.25999999
   21.58139038   76.59300232    0.09000000    0.25999999
   21.58444595   79.12870026    0.09000000    0.25999999
   21.58777809   84.03500366    0.09000000    0.25999999
   21.59111214   80.93750000    0.09000000    0.25999999
   21.59416771   76.44159698    0.09000000    0.25999999
   21.59611130   85.16369629    0.09000000    0.25999999
   21.59777832   78.54560089    0.09000000    0.25999999
   21.60388947   78.54560089    0.09000000    0.25999999
   21.60805511   76.44380188    0.09000000    0.25999999
   21.61111069   80.61399841    0.09000000    0.25999999
   21.61444473   77.61910248    0.09000000    0.25999999
   21.61777878   75.66300201    0.09000000    0.25999999
   21.62083435   76.20420074    0.09000000    0.25999999
   21.62416649   78.13980103    0.09000000    0.25999999
   21.62750053   74.56430054    0.09000000    0.25999999
   21.62944412   74.66829681    0.09000000    0.25999999
   21.63083267   75.66590118    0.09000000    0.25999999
   21.63416672   79.25530243    0.09000000    0.25999999
   21.63750076   74.56870270    0.09000000    0.25999999
   21.64055634   73.72229767    0.09000000    0.25999999
   21.64666748   73.72229767    0.09000000    0.25999999
   21.65083313   74.29759979    0.09000000    0.25999999
   21.65416718   74.64810181    0.09000000    0.25999999
   21.65722275   73.16799927    0.09000000    0.25999999
   21.66083336   74.30570221    0.09000000    0.25999999
   21.66305542   73.71140289    0.09000000    0.25999999
   21.66444397   76.49109650    0.09000000    0.25999999
   21.66777802   74.23840332    0.09000000    0.25999999
   21.67083359   74.74649811    0.09000000    0.25999999
   21.67416573   76.57779694    0.09000000    0.25999999
   21.67749977   78.30410004    0.09000000    0.25999999
   21.68055534   76.46579742    0.09000000    0.25999999
   21.68388748   77.01709747    0.09000000    0.25999999
   21.68944359   77.01709747    0.09000000    0.25999999
   21.69361115   78.09279633    0.09000000    0.25999999
   21.69638824   73.09819794    0.09000000    0.25999999
   21.69722176   72.66619873    0.09000000    0.25999999
   21.70055580   75.49639893    0.09000000    0.25999999
   21.70361137   74.21109772    0.09000000    0.25999999
   21.70694542   83.43039703    0.09000000    0.25999999
   21.71027946   76.01840210    0.09000000    0.25999999
   21.71333504   82.28910065    0.09000000    0.25999999
   21.71666718   76.96710205    0.09000000    0.25999999
   21.72000122   76.65309906    0.09000000    0.25999999
   21.72305679   76.41139984    0.09000000    0.25999999
   21.72638893   81.13990021    0.09000000    0.25999999
   21.73250008   81.13990021    0.09000000    0.25999999
   21.73666763   83.25720215    0.09000000    0.25999999
   21.73972321   77.53130341    0.09000000    0.25999999
   21.74305534   78.40080261    0.09000000    0.25999999
   21.74638939   78.16960144    0.09000000    0.25999999
   21.74944496   82.08149719    0.09000000    0.25999999
   21.75277710   82.63500214    0.09000000    0.25999999
   21.75611115   78.71150208    0.09000000    0.25999999
   21.75916672   80.97650146    0.09000000    0.25999999
   21.76250076   77.32319641    0.09000000    0.25999999
   21.76333427   79.00250244    0.09000000    0.25999999
   21.76611137   78.74510193    0.09000000    0.25999999
   21.76916695   77.52390289    0.09000000    0.25999999
   21.77527809   77.52390289    0.09000000    0.25999999
   21.77944374   76.13520050    0.09000000    0.25999999
   21.78249931   75.49410248    0.09000000    0.25999999
   21.78583336   80.01550293    0.09000000    0.25999999
   21.78916550   75.80580139    0.09000000    0.25999999
   21.79222107   75.85559845    0.09000000    0.25999999
   21.79555511   75.31970215    0.09000000    0.25999999
   21.79666710   79.30519867    0.09000000    0.25999999
   21.79916573   78.12560272    0.09000000    0.25999999
   21.80222130   74.18720245    0.09000000    0.25999999
   21.80555534   78.47660065    0.09000000    0.25999999
   21.80888748   82.12249756    0.09000000    0.25999999
   21.81194305   80.65129852    0.09000000    0.25999999
   21.81805611   80.65129852    0.09000000    0.25999999
   21.82222366   79.42259979    0.09000000    0.25999999
   21.82555580   79.59929657    0.09000000    0.25999999
   21.82861137   76.35610199    0.09000000    0.25999999
   21.83027840   78.56950378    0.09000000    0.25999999
   21.83250046   84.86479950    0.09000000    0.25999999
   21.83555603   76.72850037    0.09000000    0.25999999
   21.83889008   79.62770081    0.09000000    0.25999999
   21.84194565   77.51979828    0.09000000    0.25999999
   21.84527779   75.57089996    0.09000000    0.25999999
   21.84861183   76.04429626    0.09000000    0.25999999
   21.85166740   78.23239899    0.09000000    0.25999999
   21.85499954   80.79840088    0.09000000    0.25999999
   21.86083412   80.79840088    0.09000000    0.25999999
   21.87944412   82.90509796    0.09000000    0.25999999
   21.88249969   78.74579620    0.09000000    0.25999999
   21.88583374   77.38829803    0.09000000    0.25999999
   21.88916588   77.40280151    0.09000000    0.25999999
   21.89222145   75.73780060    0.09000000    0.25999999
   21.89555550   80.89610291    0.09000000    0.25999999
   21.89861107   76.79199982    0.09000000    0.25999999
   21.90416718   76.79199982    0.09000000    0.25999999
   21.90805435   78.97129822    0.09000000    0.25999999
   21.91138840   80.36460114    0.09000000    0.25999999
   21.91250038   85.21260071    0.09000000    0.25999999
   21.91499901   78.95300293    0.09000000    0.25999999
   21.91833305   80.08139801    0.09000000    0.25999999
   21.92138863   77.22460175    0.09000000    0.25999999
   21.92472076   79.41490173    0.09000000    0.25999999
   21.92805481   82.35500336    0.09000000    0.25999999
   21.93138885   79.03119659    0.09000000    0.25999999
   21.93444443   77.03559875    0.09000000    0.25999999
   21.93777657   80.76100159    0.09000000    0.25999999
   21.94083214   83.36640167    0.09000000    0.25999999
   21.94694328   83.36640167    0.09000000    0.25999999
   21.95111275   81.27819824    0.09000000    0.25999999
   21.95416832   83.92070007    0.09000000    0.25999999
   21.95750046   84.13899994    0.09000000    0.25999999
   21.96083450   83.49859619    0.09000000    0.25999999
   21.96389008   79.98049927    0.09000000    0.25999999
   21.96722221   79.97480011    0.09000000    0.25999999
   21.97027779   76.30970001    0.09000000    0.25999999
   21.97361183   79.42790222    0.09000000    0.25999999
   21.97694588   78.92350006    0.09000000    0.25999999
   21.97916794   79.80970001    0.09000000    0.25999999
   21.98027802   78.51619720    0.09000000    0.25999999
   21.98361206   80.04840088    0.09000000    0.25999999
   21.98972321   80.04840088    0.09000000    0.25999999
   21.99388885   80.12400055    0.09000000    0.25999999
   21.99722290   77.90209961    0.09000000    0.25999999
   22.00027847   80.10289764    0.09000000    0.25999999
   22.00361061   80.02369690    0.09000000    0.25999999
   22.00666618   80.72769928    0.09000000    0.25999999
   22.01000023   80.12799835    0.09000000    0.25999999
   22.01250076   77.25559998    0.09000000    0.25999999
   22.01361084   81.96150208    0.09000000    0.25999999
   22.01694489   80.68699646    0.09000000    0.25999999
   22.02027702   77.50270081    0.09000000    0.25999999
   22.02333260   77.99420166    0.09000000    0.25999999
   22.02666664   78.82859802    0.09000000    0.25999999
   22.03249931   78.82859802    0.09000000    0.25999999
   22.03666687   76.70020294    0.09000000    0.25999999
   22.03999901   76.07740021    0.09000000    0.25999999
   22.04305458   78.11280060    0.09000000    0.25999999
   22.04583359   79.13569641    0.09000000    0.25999999
   22.04666710   77.48819733    0.09000000    0.25999999
   22.04999924   79.46589661    0.09000000    0.25999999
   22.05333328   76.66359711    0.09000000    0.25999999
   22.05638885   77.65809631    0.09000000    0.25999999
   22.05972099   76.20700073    0.09000000    0.25999999
   22.06277657   78.30609894    0.09000000    0.25999999
   22.06611061   75.57559967    0.09000000    0.25999999
   22.06944466   76.51499939    0.09000000    0.25999999
   22.07527924   76.51499939    0.09000000    0.25999999
   22.07944489   77.45570374    0.09000000    0.25999999
   22.08277893   78.59480286    0.09000000    0.25999999
   22.08611107   78.48739624    0.09000000    0.25999999
   22.08916664   78.29740143    0.09000000    0.25999999
   22.09250069   81.34140015    0.09000000    0.25999999
   22.09611130   78.26080322    0.09000000    0.25999999
   22.09916687   75.98190308    0.09000000    0.25999999
   22.10250092   77.60939789    0.09000000    0.25999999
   22.10583305   81.13410187    0.09000000    0.25999999
   22.10888863   80.18659973    0.09000000    0.25999999
   22.11222267   77.05529785    0.09000000    0.25999999
   22.11277771   79.82949829    0.09000000    0.25999999
   22.11833382   79.82949829    0.09000000    0.25999999
   22.12249947   83.98090363    0.09000000    0.25999999
   22.12555504   79.22250366    0.09000000    0.25999999
   22.12888908   77.78060150    0.09000000    0.25999999
   22.13222313   78.40850067    0.09000000    0.25999999
   22.13527679   84.82340240    0.09000000    0.25999999
   22.13861084   81.80259705    0.09000000    0.25999999
   22.14166641   85.39099884    0.09000000    0.25999999
   22.14500046   80.93959808    0.09000000    0.25999999
   22.14611053   84.21080017    0.09000000    0.25999999
   22.14861107   80.25279999    0.09000000    0.25999999
   22.15194321   78.39109802    0.09000000    0.25999999
   22.15527725   81.32430267    0.09000000    0.25999999
   22.16110992   81.32430267    0.09000000    0.25999999
   22.16527748   81.14669800    0.09000000    0.25999999
   22.16833305   79.56310272    0.09000000    0.25999999
   22.17166519   83.64820099    0.09000000    0.25999999
   22.17499924   82.07839966    0.09000000    0.25999999
   22.17805481   77.77680206    0.09000000    0.25999999
   22.17944336   83.82319641    0.09000000    0.25999999
   22.18166542   84.15950012    0.09000000    0.25999999
   22.18499947   80.67859650    0.09000000    0.25999999
   22.18833160   81.62619781    0.09000000    0.25999999
   22.19138718   85.94779968    0.09000000    0.25999999
   22.19472122   82.76950073    0.09000000    0.25999999
   22.19777679   79.09040070    0.09000000    0.25999999
   22.20388985   79.09040070    0.09000000    0.25999999
   22.20805550   79.94180298    0.09000000    0.25999999
   22.21138954   79.79630280    0.09000000    0.25999999
   22.21277809   77.90609741    0.09000000    0.25999999
   22.21472359   79.99189758    0.09000000    0.25999999
   22.21805573   82.01770020    0.09000000    0.25999999
   22.22138977   81.35279846    0.09000000    0.25999999
   22.22444534   80.81839752    0.09000000    0.25999999
   22.22777748   80.24669647    0.09000000    0.25999999
   22.23083305   87.41269684    0.09000000    0.25999999
   22.23416710   83.10700226    0.09000000    0.25999999
   22.23750114   82.08129883    0.09000000    0.25999999
   22.24055672   77.23539734    0.09000000    0.25999999
   22.24666786   77.23539734    0.09000000    0.25999999
   22.25083351   80.40059662    0.09000000    0.25999999
   22.25416756   80.19450378    0.09000000    0.25999999
   22.25749969   80.70790100    0.09000000    0.25999999
   22.26055527   87.87419891    0.09000000    0.25999999
   22.26388931   82.01390076    0.09000000    0.25999999
   22.26722145   85.79389954    0.09000000    0.25999999
   22.27027702   79.42610168    0.09000000    0.25999999
   22.27361107   85.47959900    0.09000000    0.25999999
   22.27694511   85.99780273    0.09000000    0.25999999
   22.27944374   92.53859711    0.09000000    0.25999999
   22.28027725   88.22530365    0.09000000    0.25999999
   22.28361130   84.20809937    0.09000000    0.25999999
   22.28972244   84.20809937    0.09000000    0.25999999
   22.29388809  146.01400757    0.09000000    0.25999999
   22.29694366  203.33599854    0.09000000    0.25999999
   22.30027771  214.94500732    0.09000000    0.25999999
   22.30333328  293.72198486    0.09000000    0.25999999
   22.30666542  307.44699097    0.09000000    0.25999999
   22.30999947  155.22599792    0.09000000    0.25999999
   22.31277657  126.54900360    0.09000000    0.25999999
   22.31333351  140.87600708    0.09000000    0.25999999
   22.31666756   -1.00000000    0.09000000    0.25999999
