    HOUR (UT)   FLARE FACTOR    SKY TESTER    SUN TESTER
   11.03388977   -1.00000000   -1.00000000   -1.00000000
   11.05361176   98.90350342    3.89000010    1.60000002
   11.05861092   98.56819916    3.86999989    1.61000001
   11.06194496  106.39499664    3.86999989    1.61000001
   11.06527805   95.42130280    3.84999990    1.61000001
   11.06833363  102.37799835    3.82999992    1.63000000
   11.07166672   99.24310303    3.82999992    1.63000000
   11.07499981   95.23860168    3.82999992    1.63000000
   11.07805538  100.98999786    3.82999992    1.63000000
   11.08138847   89.36009979    3.82999992    1.63000000
   11.08444405   88.69069672    3.82999992    1.64999998
   11.08694458   87.10669708    3.82999992    1.64999998
   11.08833313   91.20120239    3.82999992    1.64999998
   11.09138870   87.46520233    3.82999992    1.64999998
   11.09472179   87.16999817    3.84999990    1.64999998
   11.09805489   88.40930176    3.84999990    1.66999996
   11.10111141  101.74600220    3.84999990    1.66999996
   11.10444450  100.29699707    3.82999992    1.66999996
   11.10777855   98.90709686    3.82999992    1.66999996
   11.11083412  111.43499756    3.80999994    1.69000006
   11.11416721   96.04260254    3.76999998    1.69000006
   11.11722279   88.41570282    3.76999998    1.69000006
   11.12027836   88.60720062    3.75000000    1.69000006
   11.12111092   86.56199646    3.75000000    1.69000006
   11.12416649   85.64260101    3.75000000    1.71000004
   11.12750053   86.44709778    3.73000002    1.71000004
   11.13083363   89.16290283    3.72000003    1.69000006
   11.13388920   92.71320343    3.72000003    1.71000004
   11.13722229   84.07319641    3.72000003    1.71000004
   11.14027786   86.59889984    3.72000003    1.71000004
   11.14361095   87.92109680    3.72000003    1.73000002
   11.14694405   84.26129913    3.72000003    1.73000002
   11.14999962   85.40920258    3.72000003    1.75000000
   11.15333271   90.41190338    3.70000005    1.73000002
   11.15388870   96.98570251    3.72000003    1.75000000
   11.15694427   93.76180267    3.72000003    1.73000002
   11.16027737   96.10220337    3.70000005    1.75000000
   11.16361046   97.82279968    3.72000003    1.75000000
   11.16666698  100.73999786    3.72000003    1.75000000
   11.17000008   95.20359802    3.72000003    1.76999998
   11.17333412   93.13950348    3.70000005    1.78999996
   11.17638874   92.26390076    3.68000007    1.76999998
   11.17972279   92.59269714    3.68000007    1.76999998
   11.18277836   84.62449646    3.68000007    1.76999998
   11.18611145   85.12180328    3.66000009    1.78999996
   11.18722248   83.55840302    3.66000009    1.78999996
   11.18972206   86.57759857    3.64000010    1.78999996
   11.19305515   89.56659698    3.64000010    1.78999996
   11.19638920   89.91639709    3.64000010    1.78999996
   11.19944477  107.45700073    3.64000010    1.78999996
   11.20277786  104.30200195    3.61999989    1.78999996
   11.20611095   91.41439819    3.61999989    1.80999994
   11.20916653  101.57399750    3.61999989    1.80999994
   11.21249962   94.45050049    3.59999990    1.80999994
   11.21555519   99.25830078    3.59999990    1.80999994
   11.21888828   90.17410278    3.59999990    1.80999994
   11.22055531   95.91110229    3.57999992    1.80999994
   11.22249985   97.10500336    3.59999990    1.83000004
   11.22583294   90.42120361    3.59999990    1.83000004
   11.22916603   93.17690277    3.59999990    1.85000002
   11.23222160   90.81590271    3.57999992    1.85000002
   11.23555565   83.64430237    3.57999992    1.85000002
   11.23888874   86.26699829    3.57999992    1.85000002
   11.24194431   93.11370087    3.57999992    1.85000002
   11.24527836   93.70980072    3.57999992    1.85000002
   11.24833393   80.67379761    3.59999990    1.85000002
   11.25166702   82.32820129    3.59999990    1.86000001
   11.25388908   83.62699890    3.59999990    1.86000001
   11.25527763   83.59940338    3.59999990    1.85000002
   11.25861073   95.76000214    3.57999992    1.85000002
   11.26194477  100.27899933    3.59999990    1.86000001
   11.26500034   92.26450348    3.57999992    1.86000001
   11.26833344  101.80799866    3.55999994    1.86000001
   11.27166653   96.00669861    3.55999994    1.86000001
   11.27472210   95.79759979    3.55999994    1.88000000
   11.27805519   94.96700287    3.53999996    1.86000001
   11.28111076   92.38549805    3.51999998    1.88000000
   11.28444481   84.32299805    3.51999998    1.88000000
   11.28722286   87.18920135    3.48000002    1.88000000
   11.28833389   82.36060333    3.48000002    1.88000000
   11.29138947   85.07170105    3.46000004    1.88000000
   11.29472256   84.44059753    3.45000005    1.88000000
   11.29777813   89.37999725    3.43000007    1.88000000
   11.30111122   83.64089966    3.43000007    1.89999998
   11.30444431   91.54799652    3.39000010    1.89999998
   11.30749989   96.30590057    3.36999989    1.89999998
   11.31083393  101.08100128    3.34999990    1.89999998
   11.31416702   96.71199799    3.32999992    1.91999996
   11.31722260   96.74880219    3.30999994    1.91999996
   11.32083321   94.94650269    3.28999996    1.91999996
   11.32138920   90.66649628    3.26999998    1.91999996
   11.32444477   98.55549622    3.25000000    1.91999996
   11.32777786   95.11789703    3.23000002    1.91999996
   11.33111095   93.41449738    3.21000004    1.91999996
   11.33416653   93.16179657    3.21000004    1.91999996
   11.33749962   92.46130371    3.21000004    1.94000006
   11.34055519   86.40560150    3.21000004    1.94000006
   11.34388828   88.17289734    3.20000005    1.94000006
   11.34722233   80.62830353    3.18000007    1.96000004
   11.35027790   83.81719971    3.16000009    1.94000006
   11.35361195   89.59690094    3.16000009    1.94000006
   11.35416698   89.28800201    3.16000009    1.94000006
   11.35722256   87.97760010    3.16000009    1.96000004
   11.36055565   93.45670319    3.16000009    1.96000004
   11.36388969   87.92579651    3.14000010    1.96000004
   11.36694431   88.41239929    3.14000010    1.96000004
   11.37027836   88.00229645    3.11999989    1.98000002
   11.37361145   86.03540039    3.14000010    1.96000004
   11.37666702   89.86889648    3.11999989    1.98000002
   11.38000011   93.15149689    3.11999989    1.98000002
   11.38305569  104.88300323    3.09999990    1.98000002
   11.38638878  102.68800354    3.07999992    1.98000002
   11.38749981  100.53199768    3.07999992    1.98000002
   11.39000034   98.98010254    3.05999994    2.00000000
   11.39333344   94.36450195    3.05999994    2.00000000
   11.39666653   96.17659760    3.03999996    1.98000002
   11.39972210   93.23989868    3.05999994    2.00000000
   11.40305519   93.90090179    3.07999992    2.00000000
   11.40638828   91.34040070    3.05999994    2.00000000
   11.40944386   92.40460205    3.05999994    2.00000000
   11.41277695   92.07790375    3.05999994    2.00000000
   11.41583252   85.73880005    3.05999994    2.00000000
   11.41916656   91.57199860    3.05999994    2.01999998
   11.42083359   83.15029907    3.07999992    2.00000000
   11.42277813   90.89029694    3.07999992    2.01999998
   11.42611122   83.06610107    3.05999994    2.01999998
   11.42944431   91.37920380    3.03999996    2.01999998
   11.43249989   91.17800140    3.01999998    2.01999998
   11.43583298   94.14170074    3.01999998    2.01999998
   11.43916702   92.25820160    3.00000000    2.01999998
   11.44222260   96.10469818    2.98000002    2.01999998
   11.44555569   94.00569916    2.96000004    2.03999996
   11.44861126   87.49949646    2.96000004    2.03999996
   11.45194435   88.15769958    2.96000004    2.03999996
   11.45416641   87.20590210    2.96000004    2.05999994
   11.45555496   86.98960114    2.96000004    2.03999996
   11.45888901   89.00740051    2.96000004    2.05999994
   11.46222210   92.32150269    2.96000004    2.03999996
   11.46527767   89.10340118    2.96000004    2.03999996
   11.46861076   86.89479828    2.94000006    2.05999994
   11.47194386  100.28500366    2.93000007    2.05999994
   11.47499943   91.57469940    2.91000009    2.03999996
   11.47833252  100.39199829    2.91000009    2.05999994
   11.48138809  101.49900055    2.91000009    2.07999992
   11.48472214   94.64800262    2.91000009    2.07999992
   11.48750019   95.07319641    2.91000009    2.07999992
   11.48833370   92.74349976    2.89000010    2.07999992
   11.49166679   95.42659760    2.89000010    2.07999992
   11.49499989   94.22859955    2.89000010    2.05999994
   11.49805546   99.62239838    2.89000010    2.07999992
   11.50138855   90.49559784    2.89000010    2.07999992
   11.50472260   90.70690155    2.86999989    2.07999992
   11.50777817   90.35050201    2.86999989    2.07999992
   11.51111126   94.24720001    2.84999990    2.07999992
   11.51416683   93.80750275    2.80999994    2.07999992
   11.51749992   88.99590302    2.80999994    2.07999992
   11.52083302   98.39769745    2.78999996    2.07999992
   11.52111053   89.79190063    2.78999996    2.07999992
   11.52444458   92.55069733    2.76999998    2.09999990
   11.52777767   90.53330231    2.75000000    2.09999990
   11.53083324   88.07160187    2.75000000    2.09999990
   11.53416729   89.04160309    2.71000004    2.09999990
   11.53750038   94.07579803    2.69000006    2.09999990
   11.54055595   93.77269745    2.67000008    2.09999990
   11.54388905   99.85119629    2.66000009    2.11999989
   11.54722309   98.97170258    2.66000009    2.11999989
   11.55027771  103.72299957    2.66000009    2.11999989
   11.55361176  100.14399719    2.66000009    2.11999989
   11.55416679  103.44300079    2.66000009    2.11999989
   11.55722237  104.43599701    2.66000009    2.11999989
   11.56027794   96.21530151    2.64000010    2.11999989
   11.56388950   96.23539734    2.66000009    2.11999989
   11.56722260   95.22779846    2.64000010    2.11999989
   11.57027817   99.99040222    2.64000010    2.11999989
   11.57361126  106.36900330    2.64000010    2.13000011
   11.57666683  106.53500366    2.59999990    2.13000011
   11.57999992  103.57499695    2.59999990    2.13000011
   11.58333302  109.72499847    2.55999994    2.13000011
   11.58638859  109.73400116    2.55999994    2.13000011
   11.58749962  108.98799896    2.55999994    2.13000011
   11.59027767  109.12999725    2.53999996    2.13000011
   11.59333324   98.12779999    2.51999998    2.13000011
   11.59666634   97.39869690    2.53999996    2.13000011
   11.59972191  103.39800262    2.51999998    2.13000011
   11.60305595   88.79989624    2.51999998    2.13000011
   11.60638905   90.83630371    2.51999998    2.15000010
   11.60944462   93.06539917    2.51999998    2.15000010
   11.61277771  100.57199860    2.53999996    2.15000010
   11.61611176   87.51519775    2.55999994    2.15000010
   11.61916637   85.97820282    2.55999994    2.15000010
   11.62083340   90.74490356    2.57999992    2.15000010
   11.62305546   90.76309967    2.55999994    2.17000008
   11.62611103   88.16049957    2.55999994    2.17000008
   11.62944412   92.23190308    2.55999994    2.15000010
   11.63277817   88.75759888    2.55999994    2.15000010
   11.63583279   84.31069946    2.57999992    2.17000008
   11.63916683   93.62830353    2.57999992    2.15000010
   11.64249992   90.27950287    2.57999992    2.17000008
   11.64555550   93.90859985    2.55999994    2.17000008
   11.64888859   99.95880127    2.55999994    2.17000008
   11.65194416   99.90670013    2.53999996    2.19000006
   11.65416622  104.12999725    2.51999998    2.17000008
   11.65583324   93.02359772    2.50000000    2.17000008
   11.65888882   96.45880127    2.50000000    2.17000008
   11.66222191  101.48100281    2.46000004    2.19000006
   11.66527748  100.38899994    2.44000006    2.19000006
   11.66861153   95.47260284    2.42000008    2.19000006
   11.67194462   93.70300293    2.42000008    2.19000006
   11.67500019   89.44490051    2.40000010    2.21000004
   11.67833328   91.70970154    2.39000010    2.19000006
   11.68166733   99.27420044    2.39000010    2.19000006
   11.68472195   91.81369781    2.39000010    2.19000006
   11.68750000   91.25000000    2.36999989    2.19000006
   11.68861103   93.15149689    2.36999989    2.19000006
   11.69166660   89.82050323    2.36999989    2.21000004
   11.69499969   83.03060150    2.36999989    2.19000006
   11.69805527   99.56890106    2.34999990    2.21000004
   11.70138836   96.37030029    2.36999989    2.21000004
   11.70472240   87.41010284    2.34999990    2.21000004
   11.70777798   87.91770172    2.32999992    2.19000006
   11.71111107   88.69319916    2.32999992    2.21000004
   11.71444416   84.40840149    2.32999992    2.23000002
   11.71749973   76.26840210    2.30999994    2.21000004
   11.72083282   86.90920258    2.28999996    2.21000004
   11.72138882   87.54029846    2.28999996    2.21000004
   11.72444439   85.74199677    2.28999996    2.21000004
   11.72777748   86.50559998    2.28999996    2.23000002
   11.73083305   90.10440063    2.28999996    2.25000000
   11.73416710   89.69000244    2.28999996    2.21000004
   11.73750019   98.76399994    2.28999996    2.23000002
   11.74083328   95.74089813    2.30999994    2.23000002
   11.74416733   99.37560272    2.30999994    2.23000002
   11.74750042   89.07559967    2.30999994    2.23000002
   11.75055599   93.51409912    2.30999994    2.23000002
   11.75388908   82.12370300    2.30999994    2.23000002
   11.75444412   89.90519714    2.30999994    2.23000002
   11.75749969   90.54620361    2.30999994    2.23000002
   11.76083374   89.63780212    2.28999996    2.23000002
   11.76416683   97.10169983    2.32999992    2.23000002
   11.76722240   94.75129700    2.30999994    2.25000000
   11.77055550   74.56189728    2.34999990    2.25000000
   11.77388859   85.34970093    2.32999992    2.23000002
   11.77694416   77.18890381    2.30999994    2.25000000
   11.78027725   94.52770233    2.30999994    2.25000000
   11.78333378   91.20259857    2.30999994    2.23000002
   11.78666687   93.91149902    2.28999996    2.25000000
   11.78777790   86.90059662    2.28999996    2.25000000
   11.79027843   91.59400177    2.28999996    2.25000000
   11.79361153   88.38179779    2.28999996    2.25000000
   11.79694462   94.04280090    2.28999996    2.25000000
   11.80000019   95.47319794    2.25000000    2.25000000
   11.80333328   95.93920135    2.23000002    2.25000000
   11.80666733   97.89589691    2.23000002    2.25000000
   11.80972195   92.62969971    2.25000000    2.26999998
   11.81305599   91.23639679    2.23000002    2.25000000
   11.81611156   84.13359833    2.25000000    2.26999998
   11.81944466   80.81189728    2.25000000    2.26999998
   11.82111073   92.82389832    2.25000000    2.26999998
   11.82305527   94.96890259    2.23000002    2.25000000
   11.82638836   90.62909698    2.23000002    2.26999998
   11.82972240   92.96369934    2.23000002    2.28999996
   11.83277798   82.13359833    2.23000002    2.25000000
   11.83611107   87.72650146    2.23000002    2.26999998
   11.83944416   92.51080322    2.21000004    2.26999998
   11.84249973   90.21920013    2.17000008    2.28999996
   11.84583282   92.46600342    2.17000008    2.28999996
   11.84888840   96.70500183    2.17000008    2.26999998
   11.85222244   89.79000092    2.15000010    2.26999998
   11.85444450   97.26139832    2.13000011    2.28999996
   11.85583401   94.53430176    2.13000011    2.28999996
   11.85916710   93.42549896    2.13000011    2.28999996
   11.86250019   95.42150116    2.13000011    2.28999996
   11.86555576   87.16819763    2.13000011    2.28999996
   11.86888885   98.78710175    2.13000011    2.28999996
   11.87222195  104.60199738    2.13000011    2.28999996
   11.87527752   90.40249634    2.11999989    2.30999994
   11.87861156   86.45259857    2.13000011    2.28999996
   11.88166714   84.99939728    2.13000011    2.30999994
   11.88500023   93.35929871    2.13000011    2.28999996
   11.88777733   88.85150146    2.13000011    2.30999994
   11.88861084   91.34079742    2.13000011    2.28999996
   11.89194393   91.79699707    2.13000011    2.30999994
   11.89527798   94.72760010    2.13000011    2.28999996
   11.89833355   90.47350311    2.15000010    2.28999996
   11.90166664   92.57230377    2.13000011    2.30999994
   11.90499973   94.14179993    2.11999989    2.30999994
   11.90805531  106.15699768    2.11999989    2.30999994
   11.91138840   90.79139709    2.09999990    2.30999994
   11.91444397   90.44640350    2.09999990    2.30999994
   11.91777802   93.37850189    2.07999992    2.30999994
   11.92111111   95.78679657    2.07999992    2.30999994
   11.92138958  106.66899872    2.07999992    2.30999994
   11.92472267   94.14440155    2.05999994    2.30999994
   11.92805576   96.94300079    2.05999994    2.30999994
   11.93111134   94.61309814    2.01999998    2.30999994
   11.93444443  106.56400299    2.01999998    2.32999992
   11.93777752  105.17600250    2.01999998    2.30999994
   11.94083309   95.11319733    2.01999998    2.32999992
   11.94416714  116.59999847    2.01999998    2.32999992
   11.94722271   98.62079620    2.03999996    2.32999992
   11.95055580   96.94619751    2.03999996    2.30999994
   11.95388889  106.58300018    2.05999994    2.32999992
   11.95444393   92.29679871    2.05999994    2.32999992
   11.95749950  101.37100220    2.05999994    2.32999992
   11.96055508   98.78939819    2.05999994    2.32999992
   11.96388912  102.21800232    2.05999994    2.32999992
   11.96722221   94.45020294    2.05999994    2.32999992
   11.97027779  100.03299713    2.05999994    2.32999992
   11.97361088   98.00959778    2.03999996    2.32999992
   11.97694397   88.22019958    2.05999994    2.32999992
   11.97999954   94.57579803    2.03999996    2.32999992
   11.98333359   96.70140076    2.03999996    2.32999992
   11.98638916   92.35790253    2.05999994    2.34999990
   11.98777771   94.24839783    2.03999996    2.32999992
   11.99027824   91.40290070    2.03999996    2.34999990
   11.99333382   96.76930237    2.01999998    2.34999990
   11.99666691  100.44000244    2.01999998    2.34999990
   11.99972248   96.25520325    2.03999996    2.34999990
   12.00305557   94.30719757    2.03999996    2.34999990
   12.00638866   95.10859680    2.01999998    2.34999990
   12.00944424   91.99310303    2.01999998    2.34999990
   12.01277733   92.71920013    2.01999998    2.34999990
   12.01611137   98.39230347    2.01999998    2.34999990
   12.01916599  100.91899872    2.01999998    2.34999990
   12.02111053   90.93740082    2.01999998    2.34999990
   12.02305508  100.12000275    2.01999998    2.34999990
   12.02611065   93.86070251    2.01999998    2.34999990
   12.02944374   89.17299652    2.03999996    2.34999990
   12.03249931   88.08769989    2.01999998    2.34999990
   12.03583336   98.39589691    2.03999996    2.34999990
   12.03916740   96.14320374    2.03999996    2.34999990
   12.04222298   96.65910339    2.03999996    2.32999992
   12.04555607   92.34269714    2.03999996    2.36999989
   12.04888916   88.48889923    2.03999996    2.36999989
   12.05194473   91.95659637    2.05999994    2.34999990
   12.07027817   94.94490051    2.05999994    2.36999989
   12.07194424   95.31500244    2.07999992    2.36999989
   12.07499981   95.28510284    2.05999994    2.36999989
   12.07833290  105.28099823    2.05999994    2.36999989
   12.08166695   97.97660065    2.03999996    2.36999989
   12.08472157   91.05280304    2.03999996    2.36999989
   12.08805561   94.59590149    2.03999996    2.39000010
   12.09111118   89.43959808    2.01999998    2.36999989
   12.09444427   88.04699707    2.01999998    2.36999989
   12.09777737   94.15249634    2.01999998    2.36999989
   12.10083389   96.91960144    2.01999998    2.39000010
   12.10361195   94.77709961    2.01999998    2.36999989
   12.10444450   94.44950104    2.01999998    2.39000010
   12.10777855   94.96260071    2.01999998    2.39000010
   12.11111164   88.71499634    2.03999996    2.39000010
   12.11416721   89.55159760    2.03999996    2.39000010
   12.11750031   90.63150024    2.03999996    2.39000010
   12.12055588   92.80110168    2.03999996    2.39000010
   12.12388897   92.87940216    2.03999996    2.39000010
   12.12722206   94.96230316    2.03999996    2.39000010
   12.13027763   92.79660034    2.03999996    2.39000010
   12.13361073   95.70149994    2.03999996    2.39000010
   12.13694477   94.46779633    2.03999996    2.39000010
   12.13749981   95.52629852    2.03999996    2.39000010
   12.14055538   96.28260040    2.03999996    2.36999989
   12.14388847   94.38009644    2.05999994    2.40000010
   12.14722252   98.49259949    2.05999994    2.40000010
   12.15027714  100.49600220    2.05999994    2.39000010
   12.15361118   91.12059784    2.03999996    2.39000010
   12.15666676   93.46990204    2.03999996    2.39000010
   12.15999985   93.27269745    2.01999998    2.39000010
   12.16333294   97.52670288    2.01999998    2.39000010
   12.16638851   94.91459656    2.01999998    2.39000010
   12.16972256   94.87979889    2.01999998    2.39000010
   12.17027855   98.86830139    2.01999998    2.39000010
   12.17333412   88.71060181    2.01999998    2.39000010
   12.17638874   91.17250061    2.01999998    2.39000010
   12.17972279   94.43699646    2.00000000    2.40000010
   12.18305588   86.84719849    2.00000000    2.40000010
   12.18611145   93.56320190    2.00000000    2.40000010
   12.18944454   95.41059875    1.98000002    2.39000010
   12.19250011   96.96700287    1.98000002    2.39000010
   12.19583321   94.78579712    1.98000002    2.39000010
   12.19916630   93.41230011    2.00000000    2.39000010
   12.20222187   87.71810150    2.01999998    2.39000010
   12.20361137   91.68800354    2.01999998    2.39000010
   12.20611095   90.90650177    2.03999996    2.39000010
   12.20916653   93.08769989    2.05999994    2.39000010
   12.21249962   95.87969971    2.03999996    2.40000010
   12.21583271   97.28230286    2.01999998    2.40000010
   12.21888828   89.52500153    2.01999998    2.39000010
   12.22222137   91.46859741    2.01999998    2.39000010
   12.22555542   90.05660248    2.05999994    2.39000010
   12.22861099   94.64029694    2.03999996    2.40000010
   12.23194408   96.06890106    2.03999996    2.39000010
   12.23527813   95.21189880    2.01999998    2.39000010
   12.23694515   95.84670258    2.01999998    2.40000010
   12.23888874   90.86949921    2.03999996    2.39000010
   12.24194431   97.02269745    2.01999998    2.40000010
   12.24527836   95.45760345    2.01999998    2.40000010
   12.24861145   93.60340118    2.00000000    2.42000008
   12.25166702   93.87470245    1.98000002    2.40000010
   12.25500011   97.78919983    1.98000002    2.39000010
   12.25805569   91.08039856    1.98000002    2.44000006
   12.26138878   91.85510254    2.01999998    2.39000010
   12.26472187   92.84470367    2.01999998    2.40000010
   12.26777744   86.91709900    2.03999996    2.40000010
   12.27027798   91.38469696    2.03999996    2.40000010
   12.27166653   90.98609924    2.03999996    2.42000008
   12.27472210   91.30110168    2.03999996    2.39000010
   12.27805519   90.21450043    2.03999996    2.40000010
   12.28138828   94.44059753    2.03999996    2.40000010
   12.28444481   94.74379730    2.05999994    2.40000010
   12.28777790   94.86769867    2.05999994    2.40000010
   12.29111195   94.45829773    2.05999994    2.40000010
   12.29416752   94.36460114    2.05999994    2.40000010
   12.29750061   94.74349976    2.01999998    2.40000010
   12.30055618   95.32450104    2.00000000    2.42000008
   12.30361176   97.32099915    1.98000002    2.42000008
   12.30444431   91.71160126    1.98000002    2.42000008
   12.30749989   97.24220276    1.96000004    2.42000008
   12.31083393   93.43569946    1.96000004    2.42000008
   12.31416702   98.38770294    1.91999996    2.42000008
   12.31722260   92.57599640    1.88000000    2.44000006
   12.32055569   92.99040222    1.88000000    2.42000008
   12.32388878   92.15740204    1.88000000    2.42000008
   12.32694435   93.34110260    1.88000000    2.42000008
   12.33027744   93.32869720    1.86000001    2.44000006
   12.33333302   92.59230042    1.86000001    2.44000006
   12.33666611   93.38339996    1.83000004    2.42000008
   12.33722210   98.42340088    1.83000004    2.42000008
   12.34055519   89.87709808    1.83000004    2.42000008
   12.34388828   95.09169769    1.83000004    2.42000008
   12.34694386   91.77050018    1.85000002    2.42000008
   12.35027790   91.25569916    1.85000002    2.42000008
   12.35361195   93.86199951    1.89999998    2.42000008
   12.35666752   93.14720154    1.89999998    2.40000010
   12.36000061   93.17169952    1.89999998    2.44000006
   12.36305618   95.95899963    1.89999998    2.42000008
   12.36638927   90.12989807    1.88000000    2.44000006
   12.36972237   98.04109955    1.88000000    2.44000006
   12.37055588   87.43910217    1.86000001    2.44000006
   12.37333393   91.39369965    1.86000001    2.44000006
   12.37638855   94.26280212    1.86000001    2.42000008
   12.37972260   95.15869904    1.86000001    2.44000006
   12.38277817   95.63529968    1.86000001    2.44000006
   12.38611126   89.46640015    1.83000004    2.44000006
   12.38944435   92.38050079    1.85000002    2.44000006
   12.39277744   95.69249725    1.85000002    2.44000006
   12.39583302   95.48760223    1.85000002    2.44000006
   12.39916611   91.40499878    1.85000002    2.44000006
   12.40222168   87.97100067    1.85000002    2.44000006
   12.40388870   90.26599884    1.85000002    2.44000006
   12.40611076  100.06600189    1.85000002    2.46000004
   12.40916634   93.35669708    1.85000002    2.46000004
   12.41249943   94.64610291    1.85000002    2.46000004
   12.41555500   99.23509979    1.86000001    2.42000008
   12.41888905   88.04299927    1.88000000    2.44000006
   12.42222214   87.81880188    1.88000000    2.44000006
   12.42527771   91.17539978    1.88000000    2.44000006
   12.42861176   91.98100281    1.86000001    2.44000006
   12.43194485   96.74369812    1.86000001    2.46000004
   12.43500042   90.40270233    1.86000001    2.44000006
   12.43722248   91.79879761    1.86000001    2.44000006
   12.43888855   91.32279968    1.85000002    2.46000004
   12.44194412   93.49549866    1.85000002    2.46000004
   12.44527817   92.74909973    1.83000004    2.46000004
   12.44833374   91.78910065    1.80999994    2.46000004
   12.45166683   90.23549652    1.78999996    2.46000004
   12.45499992   88.64540100    1.78999996    2.46000004
   12.45805550   97.55239868    1.76999998    2.46000004
   12.46138859   99.03469849    1.76999998    2.46000004
   12.46472168   88.65209961    1.75000000    2.44000006
   12.46777725   92.07489777    1.73000002    2.46000004
   12.47055531   92.93820190    1.73000002    2.46000004
   12.47166634   90.99859619    1.73000002    2.46000004
   12.47472191   86.54609680    1.73000002    2.46000004
   12.47805500   86.50980377    1.76999998    2.46000004
   12.48111057   84.24539948    1.75000000    2.46000004
   12.48444462   86.78119659    1.75000000    2.46000004
   12.48777771   89.14649963    1.75000000    2.46000004
   12.49083328   89.46739960    1.75000000    2.46000004
   12.49416733   84.68450165    1.75000000    2.46000004
   12.49750042   87.98590088    1.76999998    2.48000002
   12.50055599   89.45490265    1.76999998    2.46000004
   12.50388908   87.49420166    1.78999996    2.46000004
   12.50444412   87.08560181    1.78999996    2.46000004
   12.50749969   89.23179626    1.78999996    2.46000004
   12.51083374   89.70960236    1.78999996    2.46000004
   12.51416683   91.43689728    1.78999996    2.46000004
   12.51722240   89.29039764    1.76999998    2.46000004
   12.52055550   94.50430298    1.75000000    2.46000004
   12.52388859   88.64430237    1.75000000    2.46000004
   12.52694416   88.95580292    1.75000000    2.46000004
   12.53027725   93.31639862    1.75000000    2.46000004
   12.53333378   88.51010132    1.73000002    2.48000002
   12.53666687   87.57910156    1.69000006    2.48000002
   12.53722286   87.91049957    1.69000006    2.48000002
   12.54027843   87.99739838    1.66999996    2.48000002
   12.54333401   84.83560181    1.66999996    2.46000004
   12.54666710   87.94619751    1.66999996    2.46000004
   12.55000019   93.55169678    1.66999996    2.46000004
   12.55305576   91.73660278    1.66999996    2.46000004
   12.55638885   91.02449799    1.66999996    2.48000002
   12.55944443   99.62039948    1.66999996    2.48000002
   12.56277752   88.80339813    1.66999996    2.46000004
   12.56611156   90.25730133    1.66999996    2.48000002
   12.56916618   90.05319977    1.66999996    2.48000002
   12.57055569   88.54440308    1.66999996    2.48000002
   12.57305527   80.59190369    1.66999996    2.48000002
   12.57611084   86.63099670    1.66999996    2.48000002
   12.57944393   94.16500092    1.66999996    2.48000002
   12.58277798   96.25229645    1.71000004    2.48000002
   12.58583260   85.70259857    1.73000002    2.48000002
   12.58916664   92.00189972    1.75000000    2.48000002
   12.59249973   91.41590118    1.75000000    2.48000002
   12.59555531   93.00060272    1.71000004    2.50000000
   12.59888840   92.75640106    1.69000006    2.48000002
   12.60194492   91.69490051    1.69000006    2.48000002
   12.60388947   96.53440094    1.69000006    2.48000002
   12.60583401   93.54219818    1.69000006    2.48000002
   12.60916710   96.06259918    1.66999996    2.48000002
   12.61250019   93.96299744    1.66999996    2.48000002
   12.61555576   84.51789856    1.64999998    2.48000002
   12.61888885   96.61599731    1.63000000    2.48000002
   12.62194443   92.98179626    1.64999998    2.50000000
   12.62527752   91.97270203    1.63000000    2.48000002
   12.62861156   94.95899963    1.63000000    2.50000000
   12.63166714   94.47100067    1.63000000    2.50000000
   12.63500023   92.47170258    1.60000002    2.48000002
   12.63722229   91.68679810    1.60000002    2.48000002
   12.63861084   94.84429932    1.58000004    2.48000002
   12.64166641   92.07569885    1.58000004    2.48000002
   12.64499950   88.02179718    1.60000002    2.50000000
   12.64833355   91.33509827    1.61000001    2.50000000
   12.65138817   90.45890045    1.61000001    2.50000000
   12.65472221   92.38760376    1.60000002    2.50000000
   12.65777779   93.20369720    1.58000004    2.50000000
   12.66111088   88.84590149    1.58000004    2.50000000
   12.66444397   87.30909729    1.55999994    2.50000000
   12.66750050   88.59809875    1.55999994    2.50000000
   12.67055607   94.51460266    1.58000004    2.51999998
   12.67138958   86.55439758    1.58000004    2.51999998
   12.67444515   90.27529907    1.60000002    2.50000000
   12.67777824   96.83329773    1.55999994    2.50000000
   12.68111134   91.97010040    1.55999994    2.48000002
   12.68416691   99.28639984    1.53999996    2.50000000
   12.68750000   91.22270203    1.53999996    2.50000000
   12.69055557   90.84770203    1.53999996    2.50000000
   12.69388866   92.76439667    1.51999998    2.50000000
   12.69722271   96.81939697    1.51999998    2.50000000
   12.70027733   98.15280151    1.51999998    2.50000000
   12.70361137   91.97699738    1.53999996    2.51999998
   12.70416641   96.68910217    1.53999996    2.51999998
   12.70722198   94.97499847    1.51999998    2.50000000
   12.71083355   92.30909729    1.50000000    2.50000000
   12.71388912   89.17330170    1.48000002    2.50000000
   12.71722221   91.70259857    1.53999996    2.50000000
   12.72055531   92.82499695    1.53999996    2.50000000
   12.72361088   88.92350006    1.55999994    2.51999998
   12.72694397   89.52210236    1.51999998    2.50000000
   12.72999954   99.51439667    1.51999998    2.50000000
   12.73333359   90.94069672    1.48000002    2.50000000
   12.73666668   89.34490204    1.48000002    2.51999998
   12.73750019   93.67160034    1.48000002    2.51999998
   12.74000072   96.04930115    1.48000002    2.51999998
   12.74333382   96.57250214    1.48000002    2.51999998
   12.74666691   89.29109955    1.46000004    2.51999998
   12.74972248   94.02600098    1.46000004    2.51999998
   12.75305557   95.19480133    1.41999996    2.50000000
   12.75638866   93.52100372    1.41999996    2.51999998
   12.75944424   98.40249634    1.41999996    2.51999998
   12.76277733   90.21900177    1.46000004    2.51999998
   12.76583290   90.87300110    1.46000004    2.51999998
   12.76916599   97.38980103    1.50000000    2.50000000
   12.77083302   89.27590179    1.50000000    2.50000000
   12.77277756   96.76329803    1.50000000    2.51999998
   12.77611065   95.12359619    1.50000000    2.51999998
   12.77944374   85.78469849    1.48000002    2.50000000
   12.78249931   89.53240204    1.44000006    2.51999998
   12.78583336   94.27179718    1.44000006    2.51999998
   12.78916740   93.77790070    1.46000004    2.51999998
   12.79222298   94.21130371    1.46000004    2.51999998
   12.79555607   95.16670227    1.44000006    2.51999998
   12.79861164   97.06030273    1.46000004    2.51999998
   12.80194473   93.26809692    1.48000002    2.51999998
   12.80416679   90.67510223    1.48000002    2.51999998
   12.80555534   93.49079895    1.50000000    2.51999998
   12.80888939   87.04409790    1.50000000    2.51999998
   12.81222248   90.44509888    1.50000000    2.51999998
   12.81527805   92.04370117    1.48000002    2.51999998
   12.81861115   99.55329895    1.50000000    2.51999998
   12.82194424   87.09670258    1.48000002    2.51999998
   12.82499981   85.74600220    1.48000002    2.51999998
   12.82833290  100.21199799    1.50000000    2.51999998
   12.83138847   89.32620239    1.50000000    2.51999998
   12.83472157   91.21939850    1.50000000    2.51999998
   12.83749962   95.37419891    1.50000000    2.51999998
   12.83861065   95.82689667    1.50000000    2.51999998
   12.84166622   86.37310028    1.50000000    2.51999998
   12.84499931   91.62049866    1.44000006    2.51999998
   12.84805489   90.57510376    1.44000006    2.51999998
   12.85138893   90.98889923    1.46000004    2.51999998
   12.85472298   91.35169983    1.44000006    2.53999996
   12.85777855   87.28710175    1.44000006    2.53999996
   12.86111164   93.59369659    1.41999996    2.53999996
   12.86444473   93.91200256    1.41999996    2.53999996
   12.86750031   86.50309753    1.41999996    2.51999998
   12.87083340   91.53220367    1.39999998    2.53999996
   12.87111092   99.63790131    1.39999998    2.53999996
   12.87444496   90.55229950    1.39999998    2.53999996
   12.87777805   90.45320129    1.38000000    2.53999996
   12.88083363   85.01830292    1.34000003    2.53999996
   12.88416672   90.36180115    1.34000003    2.53999996
   12.88749981   87.94270325    1.36000001    2.53999996
   12.89083290   93.40370178    1.36000001    2.53999996
   12.89388847   88.13880157    1.36000001    2.53999996
   12.89722252   86.68399811    1.33000004    2.53999996
   12.90027714   95.28859711    1.33000004    2.55999994
   12.90361118   92.33190155    1.34000003    2.53999996
   12.90416622   95.08270264    1.34000003    2.53999996
   12.90722179   95.30280304    1.34000003    2.53999996
   12.91027737   91.73709869    1.34000003    2.55999994
   12.91361046   94.12519836    1.34000003    2.53999996
   12.91666698   88.57790375    1.34000003    2.53999996
   12.92000008   99.11589813    1.34000003    2.53999996
   12.92333412   89.90730286    1.34000003    2.53999996
   12.92638874   95.13729858    1.39999998    2.53999996
   12.92972279   88.84239960    1.38000000    2.51999998
   12.93305588   89.66059875    1.36000001    2.53999996
   12.93611145   91.02040100    1.36000001    2.53999996
   12.93750000   90.29019928    1.36000001    2.55999994
   12.94000053   93.87860107    1.36000001    2.55999994
   12.94305515   94.19719696    1.34000003    2.53999996
   12.94638920   90.91889954    1.36000001    2.55999994
   12.94972229   90.49009705    1.36000001    2.53999996
   12.95305538   92.31040192    1.36000001    2.53999996
   12.95611095   91.25509644    1.36000001    2.53999996
   12.95944405   90.02510071    1.36000001    2.53999996
   12.96277714   92.54460144    1.36000001    2.53999996
   12.96583271   89.57579803    1.33000004    2.53999996
   12.96916580   87.21620178    1.33000004    2.53999996
   12.97083282   84.73449707    1.33000004    2.53999996
   12.97277737   81.89800262    1.34000003    2.53999996
   12.97611046   88.09369659    1.34000003    2.53999996
   12.97916603   80.91179657    1.34000003    2.53999996
   12.98249912   86.01640320    1.30999994    2.55999994
   12.98555565   82.12220001    1.30999994    2.55999994
   12.98888874   85.30619812    1.26999998    2.55999994
   12.99222279   86.07949829    1.25000000    2.53999996
   12.99527836   87.98850250    1.25000000    2.55999994
   12.99861145   90.80239868    1.25000000    2.55999994
   13.00194454   85.86430359    1.26999998    2.53999996
   13.00416660   88.24669647    1.28999996    2.55999994
   13.00555515   90.39759827    1.28999996    2.55999994
   13.00861073   91.03890228    1.33000004    2.55999994
   13.01194477   89.90370178    1.33000004    2.55999994
   13.01527786   85.45629883    1.33000004    2.55999994
   13.01833344   88.55439758    1.33000004    2.55999994
   13.02166653   89.80709839    1.33000004    2.55999994
   13.02472210   94.23320007    1.34000003    2.55999994
   13.02805519   91.13790131    1.34000003    2.53999996
   13.03138828   85.01100159    1.34000003    2.55999994
   13.03444481   84.40049744    1.36000001    2.53999996
   13.03750038   82.67140198    1.36000001    2.53999996
   13.03833389   80.68150330    1.36000001    2.53999996
   13.04138947   89.12909698    1.38000000    2.53999996
   13.04472256   92.39610291    1.38000000    2.53999996
   13.04777813   93.18070221    1.36000001    2.55999994
   13.05111122   88.01580048    1.34000003    2.55999994
   13.05444431   89.38729858    1.30999994    2.57999992
   13.05749989   88.35780334    1.30999994    2.57999992
   13.06083393   89.08789825    1.30999994    2.55999994
   13.06416702   84.71640015    1.28999996    2.53999996
   13.06750011   91.70059967    1.30999994    2.55999994
   13.08694458   88.97029877    1.33000004    2.55999994
   13.08722210   85.59470367    1.33000004    2.55999994
   13.09055519   91.04160309    1.30999994    2.55999994
   13.09388828   91.19219971    1.30999994    2.55999994
   13.09694386   87.16480255    1.30999994    2.55999994
   13.10027790   86.48200226    1.28999996    2.55999994
   13.10361195   93.27839661    1.30999994    2.55999994
   13.10666752   87.71199799    1.30999994    2.57999992
   13.11000061   86.86799622    1.30999994    2.53999996
   13.11305618   91.58450317    1.33000004    2.55999994
   13.11638927   87.89959717    1.33000004    2.55999994
   13.11972237   88.26609802    1.36000001    2.55999994
   13.12027836   88.93160248    1.36000001    2.55999994
   13.12305546   89.93789673    1.34000003    2.55999994
   13.12638855   88.34500122    1.36000001    2.57999992
   13.12944412   84.77169800    1.34000003    2.57999992
   13.13277817   87.99700165    1.36000001    2.57999992
   13.13611126   87.88259888    1.36000001    2.57999992
   13.13916683   91.43350220    1.36000001    2.55999994
   13.14249992   88.04509735    1.36000001    2.57999992
   13.14583302   87.84149933    1.38000000    2.57999992
   13.14888859   84.17949677    1.38000000    2.57999992
   13.15222168   91.95770264    1.34000003    2.57999992
   13.15361118   86.53279877    1.34000003    2.57999992
   13.15611076   88.25080109    1.34000003    2.57999992
   13.15944386   88.36889648    1.34000003    2.57999992
   13.16277695   92.87920380    1.34000003    2.57999992
   13.16583252   91.92259979    1.34000003    2.55999994
   13.16916656   90.60530090    1.25000000    2.55999994
   13.17222214   85.54920197    1.25000000    2.57999992
   13.17555618   87.74299622    1.21000004    2.57999992
   13.17888927   86.65950012    1.21000004    2.57999992
   13.18194485   84.94319916    1.23000002    2.57999992
   13.18527794   90.07700348    1.21000004    2.55999994
   13.18694496   95.09410095    1.21000004    2.57999992
   13.18888855   86.65809631    1.23000002    2.57999992
   13.19194412   92.66989899    1.25000000    2.57999992
   13.19527817   87.55229950    1.25000000    2.57999992
   13.19833374   89.31009674    1.25000000    2.57999992
   13.20166683   92.67220306    1.25000000    2.57999992
   13.20499992   90.18620300    1.25000000    2.57999992
   13.20805550   85.84819794    1.25000000    2.57999992
   13.21138859   89.70369720    1.25000000    2.57999992
   13.21472168   89.24400330    1.25000000    2.57999992
   13.21777725   91.01899719    1.25000000    2.59999990
   13.22027779   91.27449799    1.26999998    2.59999990
   13.22166634   88.11229706    1.26999998    2.59999990
   13.22472191   83.79419708    1.25000000    2.59999990
   13.22805500   87.86219788    1.25000000    2.59999990
   13.23138809   86.10610199    1.25000000    2.59999990
   13.23444462   90.61840057    1.23000002    2.57999992
   13.23777771   90.61679840    1.23000002    2.57999992
   13.24111176   88.69170380    1.21000004    2.59999990
   13.24444485   82.89990234    1.19000006    2.57999992
   13.24777794   87.69570160    1.19000006    2.57999992
   13.25083351   85.64340210    1.16999996    2.57999992
   13.25361156   83.06060028    1.16999996    2.57999992
   13.25444412   80.21189880    1.16999996    2.57999992
   13.25777817   86.83499908    1.19000006    2.59999990
   13.26111126   92.43199921    1.19000006    2.59999990
   13.26416683   89.01550293    1.21000004    2.59999990
   13.26749992   95.10150146    1.21000004    2.59999990
   13.27083302   85.09300232    1.19000006    2.59999990
   13.27388859   85.44850159    1.19000006    2.59999990
   13.27722168   80.79049683    1.19000006    2.57999992
   13.28027725   85.03420258    1.19000006    2.57999992
   13.28361130   85.25599670    1.16999996    2.59999990
   13.28694534   84.36199951    1.14999998    2.57999992
   13.28750038   84.91690063    1.14999998    2.57999992
   13.29055595   87.75980377    1.14999998    2.64000010
   13.29388905   87.98020172    1.14999998    2.57999992
   13.29694462   79.90180206    1.16999996    2.59999990
   13.30027771   87.26940155    1.16999996    2.59999990
   13.30361176   83.85269928    1.16999996    2.57999992
   13.30666733   83.79029846    1.16999996    2.57999992
   13.31000042   79.71869659    1.16999996    2.59999990
   13.31305599   79.50330353    1.16999996    2.59999990
   13.31638908   86.59750366    1.16999996    2.59999990
   13.31972218   85.34159851    1.16999996    2.59999990
   13.32027817   83.41989899    1.16999996    2.59999990
   13.32333374   83.32910156    1.16999996    2.59999990
   13.32666683   84.80960083    1.14999998    2.59999990
   13.32972240   86.98370361    1.11000001    2.59999990
   13.33305550   80.12310028    1.11000001    2.59999990
   13.33611107   87.26039886    1.13000000    2.59999990
   13.33944416   86.90180206    1.09000003    2.59999990
   13.34277725   80.59290314    1.09000003    2.57999992
   13.34583282   89.26049805    1.07000005    2.57999992
   13.34916592   81.34919739    1.07000005    2.57999992
   13.35222244   86.32080078    1.05999994    2.59999990
   13.35361195   78.28130341    1.05999994    2.59999990
   13.35611153   80.73699951    1.05999994    2.59999990
   13.35916710   84.90570068    1.03999996    2.59999990
   13.36250019   84.99700165    1.05999994    2.61999989
   13.36555576   82.72080231    1.05999994    2.61999989
   13.36888885   83.30570221    1.07000005    2.59999990
   13.37222195   81.11759949    1.07000005    2.59999990
   13.37555599   80.70469666    1.07000005    2.61999989
   13.37861156   81.69490051    1.05999994    2.61999989
   13.38194466   78.78849792    1.05999994    2.61999989
   13.38527775   80.80989838    1.05999994    2.59999990
   13.38694477   85.50720215    1.03999996    2.59999990
   13.38888836   81.49400330    1.03999996    2.59999990
   13.39194393   84.52069855    1.00000000    2.64000010
   13.39527798   90.09030151    0.98000002    2.61999989
   13.39861107   90.41840363    0.94000000    2.59999990
   13.40166664   85.93389893    0.94000000    2.59999990
   13.40499973   89.06320190    0.94000000    2.59999990
   13.40833282   87.46040344    0.95999998    2.59999990
   13.41166592   89.54689789    0.95999998    2.59999990
   13.41472149   85.02420044    0.98000002    2.59999990
   13.41805553   85.52369690    0.98000002    2.59999990
   13.42027855   87.32240295    1.01999998    2.59999990
   13.42166710   82.24109650    1.01999998    2.59999990
   13.42472267   84.26190186    1.03999996    2.59999990
   13.42805576   81.00370026    1.03999996    2.59999990
   13.43138885   89.50820160    1.05999994    2.61999989
   13.43444443   86.90650177    1.05999994    2.61999989
   13.43777752   76.68859863    1.03999996    2.61999989
   13.44083309   86.09829712    1.00000000    2.61999989
   13.44416714   87.67880249    1.00000000    2.61999989
   13.44750023   85.36289978    0.95999998    2.59999990
   13.45055580   80.87590027    0.95999998    2.61999989
   13.45361137   85.52510071    0.95999998    2.61999989
   13.45444393   87.86840057    0.95999998    2.61999989
   13.45749950   88.30529785    0.95999998    2.61999989
   13.46083355   83.34719849    0.98000002    2.61999989
   13.46416664   86.46260071    0.98000002    2.61999989
   13.46722221   88.67849731    1.00000000    2.64000010
   13.47055531   88.98729706    1.01999998    2.61999989
   13.47361088   86.95089722    1.03999996    2.61999989
   13.47694397   90.41120148    1.03999996    2.61999989
   13.48027706   89.48829651    1.05999994    2.61999989
   13.48333359   87.68659973    1.03999996    2.61999989
   13.48666668   83.44560242    1.05999994    2.59999990
   13.48722267   83.64540100    1.05999994    2.59999990
   13.49055576   86.63259888    1.03999996    2.59999990
   13.49361134   97.22350311    1.03999996    2.59999990
   13.49694443   88.82250214    1.01999998    2.61999989
   13.50027752   90.57569885    0.98000002    2.61999989
   13.50333309   87.98549652    0.95999998    2.61999989
   13.50666714   85.81469727    0.94000000    2.61999989
   13.51000023   88.70780182    0.92000002    2.61999989
   13.51305580   84.63680267    0.92000002    2.61999989
   13.51638889   86.27570343    0.89999998    2.61999989
   13.51944447   98.72250366    0.89999998    2.61999989
   13.52055550   87.15170288    0.89999998    2.61999989
   13.52333355   93.61080170    0.88000000    2.61999989
   13.52638817   85.21330261    0.89999998    2.61999989
   13.52972221   88.82720184    0.89999998    2.61999989
   13.53277779   96.43530273    0.88000000    2.61999989
   13.53611183   88.79910278    0.89999998    2.64000010
   13.53944492   84.63929749    0.89999998    2.61999989
   13.54250050   91.27369690    0.89999998    2.61999989
   13.54583359   94.04419708    0.89999998    2.61999989
   13.54916668  100.92900085    0.89999998    2.64000010
   13.55222225   94.43190002    0.89999998    2.61999989
   13.55388927   96.74279785    0.89999998    2.61999989
   13.55583382   93.59110260    0.89999998    2.61999989
   13.55916691   92.45890045    0.88000000    2.64000010
   13.56250000   86.38909912    0.86000001    2.64000010
   13.56555557   85.07810211    0.86000001    2.64000010
   13.56888866   87.59539795    0.81999999    2.64000010
   13.57222176   93.87660217    0.80000001    2.61999989
   13.57555580   95.24389648    0.81999999    2.61999989
   13.57861137   86.23570251    0.80000001    2.61999989
   13.58194447   90.85389709    0.80000001    2.61999989
   13.58527756   86.50520325    0.81999999    2.61999989
   13.58722210  107.78700256    0.86000001    2.61999989
   13.58888817   95.68969727    0.86000001    2.61999989
   13.59194374   90.59249878    0.88000000    2.61999989
   13.59527779   95.35099792    0.92000002    2.64000010
   13.59833336   95.14610291    0.95999998    2.61999989
   13.60166740   91.79350281    0.95999998    2.61999989
   13.60500050   91.13259888    1.05999994    2.61999989
   13.60805607   95.75330353    1.05999994    2.61999989
   13.61138916   94.61920166    1.07000005    2.61999989
   13.61472225   90.07199860    1.11000001    2.61999989
   13.61777782   87.18979645    1.11000001    2.61999989
   13.62055588   93.24990082    1.05999994    2.61999989
   13.62166691   90.85990143    1.05999994    2.61999989
   13.62472248   86.32949829    1.01999998    2.61999989
   13.62805557   86.45369720    1.01999998    2.64000010
   13.63111115   87.93810272    1.01999998    2.64000010
   13.63444424   94.74269867    1.01999998    2.64000010
   13.63777733   97.27950287    1.01999998    2.64000010
   13.64083290   90.23419952    1.00000000    2.61999989
   13.64416695   92.96749878    1.01999998    2.64000010
   13.64750004   87.62879944    1.03999996    2.64000010
   13.65055561   87.19869995    1.07000005    2.61999989
   13.65388870   84.80090332    1.11000001    2.61999989
   13.65444374   90.17900085    1.11000001    2.61999989
   13.65749931   93.86959839    1.11000001    2.61999989
   13.66083336   92.72399902    1.11000001    2.64000010
   13.66388893   90.50140381    1.09000003    2.61999989
   13.66722298   95.23680115    1.09000003    2.61999989
   13.67055607   87.39360046    1.11000001    2.64000010
   13.67388916   90.31349945    1.09000003    2.64000010
   13.67722225   93.76609802    1.05999994    2.61999989
   13.68027782   93.22650146    1.05999994    2.61999989
   13.68361092   89.46209717    1.03999996    2.61999989
   13.68666649   89.94999695    1.00000000    2.64000010
   13.68722248   91.93240356    1.00000000    2.64000010
   13.69027805   95.52999878    1.01999998    2.64000010
   13.69361115   87.81700134    1.03999996    2.61999989
   13.69666672   89.17489624    1.01999998    2.64000010
   13.69999981   89.97419739    1.01999998    2.64000010
   13.70305538   89.43139648    1.01999998    2.64000010
   13.70638847   84.61470032    1.00000000    2.64000010
   13.70972157   92.38059998    0.98000002    2.64000010
   13.71277714   85.43669891    0.98000002    2.64000010
   13.71611118   92.56479645    0.98000002    2.64000010
   13.71944427   86.10330200    0.95999998    2.64000010
   13.72055531   92.33390045    0.95999998    2.64000010
   13.72305489   85.26750183    0.94000000    2.64000010
   13.72638798   90.48889923    0.89999998    2.64000010
   13.72944355   90.56130219    0.88000000    2.64000010
   13.73277760   84.01820374    0.86000001    2.64000010
   13.73583317   86.04000092    0.86000001    2.64000010
   13.73916721   91.91490173    0.89999998    2.64000010
   13.74250031   88.01159668    0.88000000    2.66000009
   13.74555588   82.05660248    0.88000000    2.64000010
   13.74888897   85.58999634    0.88000000    2.64000010
   13.75222206   91.88359833    0.88000000    2.64000010
   13.75388908   87.91300201    0.86000001    2.64000010
   13.75583363   90.32939911    0.86000001    2.64000010
   13.75916672   86.99520111    0.83999997    2.64000010
   13.76222229   84.80500031    0.88000000    2.66000009
   13.76555538   82.23560333    0.89999998    2.64000010
   13.76888847   78.84809875    0.89999998    2.64000010
   13.77194405   79.97609711    0.88000000    2.64000010
   13.77527714   86.18340302    0.88000000    2.64000010
   13.77833271   81.65399933    0.88000000    2.64000010
   13.78166676   82.75499725    0.86000001    2.64000010
   13.78500080   82.86260223    0.83999997    2.64000010
   13.78722286   84.08730316    0.83999997    2.64000010
   13.78861141   79.57540131    0.81999999    2.66000009
   13.79194450   83.98889923    0.81999999    2.64000010
   13.79500008   87.49089813    0.83999997    2.66000009
   13.79833412   82.57610321    0.83999997    2.66000009
   13.80138874   84.52519989    0.83999997    2.66000009
   13.80472279   78.52960205    0.83999997    2.64000010
   13.80805588   80.96350098    0.81999999    2.64000010
   13.81111145   75.61840057    0.81999999    2.64000010
   13.81444454   79.34870148    0.81999999    2.64000010
   13.81777763   81.27940369    0.83999997    2.64000010
   13.82055569   81.88529968    0.80000001    2.64000010
   13.82138920   81.07550049    0.80000001    2.64000010
   13.92805576   -1.00000000   -1.00000000   -1.00000000
   14.02944374   -1.00000000   -1.00000000   -1.00000000
   14.13194466   -1.00000000   -1.00000000   -1.00000000
   14.15805531   66.06379700    0.64999998    2.67000008
   14.16138840   75.63410187    0.64999998    2.66000009
   14.16472149   83.63300323    0.67000002    2.66000009
   14.16777802   81.08059692    0.67000002    2.66000009
   14.17111111   83.42459869    0.69000000    2.69000006
   14.17416668   84.05079651    0.69000000    2.69000006
   14.17833328   84.05079651    0.69000000    2.67000008
   14.18249989   83.16909790    0.69000000    2.69000006
   14.18583298   81.16110229    0.67000002    2.69000006
   14.18888855   84.10269928    0.69000000    2.69000006
   14.19138908   80.11370087    0.69000000    2.69000006
   14.19277763   80.31900024    0.73000002    2.67000008
   14.19583321   82.65480042    0.70999998    2.67000008
   14.19916630   78.44460297    0.70999998    2.67000008
   14.20249939   78.31999969    0.69000000    2.66000009
   14.20555496   79.04470062    0.69000000    2.66000009
   14.20888901   82.88999939    0.67000002    2.69000006
   14.21194458   83.31819916    0.69000000    2.67000008
   14.21527767   83.07440186    0.67000002    2.67000008
   14.22111034   83.07440186    0.67000002    2.67000008
   14.22527695   83.57409668    0.64999998    2.69000006
   14.22861099   84.93779755    0.67000002    2.67000008
   14.23194408   82.52390289    0.67000002    2.67000008
   14.23500061   81.05069733    0.69000000    2.67000008
   14.23833370   84.15740204    0.67000002    2.67000008
   14.24138927   84.07230377    0.67000002    2.67000008
   14.24472237   86.56880188    0.67000002    2.67000008
   14.24805546   82.44969940    0.64999998    2.69000006
   14.25111103   83.04540253    0.67000002    2.69000006
   14.25444412   83.80919647    0.67000002    2.67000008
   14.25777817   82.07749939    0.67000002    2.67000008
   14.25805569   85.06310272    0.67000002    2.69000006
   14.26416683   85.06310272    0.69000000    2.67000008
   14.26833344   86.96520233    0.69000000    2.67000008
   14.27138901   82.71060181    0.69000000    2.67000008
   14.27472210   82.56659698    0.69000000    2.67000008
   14.27777767   85.54579926    0.67000002    2.67000008
   14.28111076   82.05930328    0.67000002    2.69000006
   14.28444481   85.95110321    0.64999998    2.69000006
   14.28750038   84.42340088    0.64999998    2.69000006
   14.29083347   81.92019653    0.64999998    2.69000006
   14.29166698   86.56009674    0.64999998    2.69000006
   14.29444504   83.23549652    0.64999998    2.67000008
   14.29777813   88.01239777    0.64999998    2.69000006
   14.30083370   80.92060089    0.64999998    2.69000006
   14.30694485   80.92060089    0.63000000    2.69000006
   14.31111145   84.67050171    0.63000000    2.67000008
   14.31444454   84.27429962    0.58999997    2.67000008
   14.31750011   81.69249725    0.58999997    2.69000006
   14.32083321   85.50469971    0.58999997    2.69000006
   14.32388878   85.28500366    0.58999997    2.67000008
   14.32499981   82.51219940    0.58999997    2.67000008
   14.32750034   80.63130188    0.56999999    2.71000004
   14.33083344   89.05609894    0.58999997    2.69000006
   14.33388901   79.40339661    0.61000001    2.67000008
   14.33722210   82.23529816    0.63000000    2.69000006
   14.34055519   83.82499695    0.63000000    2.69000006
   14.34388828   85.49269867    0.64999998    2.71000004
   14.34972191   85.49269867    0.69000000    2.69000006
   14.35388947   82.82969666    0.70999998    2.69000006
   14.35722256   82.45619965    0.70999998    2.69000006
   14.35833359   80.04260254    0.70999998    2.69000006
   14.36083412   79.38790131    0.75000000    2.69000006
   14.36416721   83.06310272    0.75000000    2.69000006
   14.36722279   81.73020172    0.73000002    2.67000008
   14.37055588   83.78130341    0.70999998    2.67000008
   14.37388897   88.71990204    0.70999998    2.69000006
   14.37694454   86.06050110    0.70999998    2.69000006
   14.38027763   85.88880157    0.67000002    2.69000006
   14.38361073   79.74960327    0.64999998    2.67000008
   14.38666630   90.61100006    0.64999998    2.67000008
   14.39249992   90.61100006    0.63000000    2.69000006
   14.39666653   83.99960327    0.61000001    2.69000006
   14.39999962   81.90350342    0.61000001    2.69000006
   14.40333271   82.21920013    0.61000001    2.71000004
   14.40638828   85.17099762    0.61000001    2.69000006
   14.40972137   79.30370331    0.58999997    2.69000006
   14.41305542   79.21589661    0.58999997    2.69000006
   14.41611099   85.26119995    0.58999997    2.69000006
   14.41944504   84.96929932    0.55000001    2.69000006
   14.42250061   80.13320160    0.56999999    2.69000006
   14.42500019   82.31150055    0.56999999    2.69000006
   14.42611122   81.11519623    0.58999997    2.69000006
   14.42944431   85.53949738    0.61000001    2.69000006
   14.43555546   85.53949738    0.61000001    2.69000006
   14.43972206   85.03639984    0.63000000    2.69000006
   14.44277763   84.24510193    0.64999998    2.69000006
   14.44611073   84.10610199    0.64999998    2.69000006
   14.44916630   84.28410339    0.64999998    2.69000006
   14.45249939   84.20400238    0.64999998    2.69000006
   14.45583344   85.77729797    0.63000000    2.71000004
   14.45833302   83.71880341    0.58999997    2.69000006
   14.45916653   84.41400146    0.58999997    2.69000006
   14.46249962   83.20379639    0.58999997    2.69000006
   14.46555519   81.63870239    0.56999999    2.69000006
   14.46888828   82.98789978    0.55000001    2.69000006
   14.47222137   80.35410309    0.55000001    2.69000006
   14.47833252   80.35410309    0.55000001    2.69000006
   14.48249912   81.05670166    0.52999997    2.69000006
   14.48555565   81.34290314    0.52999997    2.69000006
   14.48888874   78.29840088    0.55000001    2.69000006
   14.49166679   80.15010071    0.52999997    2.69000006
   14.49250031   82.87830353    0.52999997    2.69000006
   14.49583340   81.66840363    0.55000001    2.69000006
   14.49916649   84.68609619    0.55000001    2.69000006
   14.50222206   81.84539795    0.55000001    2.69000006
   14.50555515   82.36129761    0.55000001    2.69000006
   14.50888920   81.59200287    0.56999999    2.69000006
   14.51194477   82.38639832    0.56999999    2.69000006
   14.51527786   84.64600372    0.56999999    2.69000006
   14.52111053   84.64600372    0.58999997    2.69000006
   14.52527714   83.70469666    0.61000001    2.69000006
   14.52861118   84.89579773    0.58999997    2.71000004
   14.53166676   83.01940155    0.56999999    2.69000006
   14.53500080   77.67179871    0.55000001    2.69000006
   14.53833389   84.83769989    0.55000001    2.69000006
   14.54138947   82.25789642    0.56999999    2.69000006
   14.54472256   84.88600159    0.56999999    2.69000006
   14.54777813   88.58640289    0.55000001    2.69000006
   14.55111122   87.48500061    0.55000001    2.69000006
   14.55444431   83.73480225    0.55000001    2.69000006
   14.55749989   90.11080170    0.55000001    2.69000006
   14.55833340   88.21089935    0.55000001    2.69000006
   14.56416702   88.21089935    0.55000001    2.71000004
   14.56833363   84.85790253    0.52999997    2.69000006
   14.57138920   85.73909760    0.52999997    2.69000006
   14.57472229   83.76450348    0.52999997    2.69000006
   14.57777786   84.19930267    0.52999997    2.69000006
   14.58111095   81.50189972    0.52999997    2.69000006
   14.58444405   86.01640320    0.55000001    2.71000004
   14.58749962   81.75740051    0.55000001    2.71000004
   14.59083271   79.54940033    0.55000001    2.69000006
   14.59166622   83.55419922    0.55000001    2.69000006
   14.59444427   89.59310150    0.55000001    2.71000004
   14.59777737   81.92549896    0.55000001    2.71000004
   14.60111141   83.48919678    0.55000001    2.69000006
   14.60694504   83.48919678    0.56999999    2.71000004
   14.61111164   82.95369720    0.56999999    2.71000004
   14.61416721   82.42590332    0.56999999    2.69000006
   14.61750031   81.74120331    0.55000001    2.71000004
   14.62055588   77.49880219    0.55000001    2.69000006
   14.62388897   84.79499817    0.52999997    2.69000006
   14.62500000   85.26979828    0.52999997    2.69000006
   14.62750053   83.49230194    0.51999998    2.69000006
   14.63083363   78.36830139    0.51999998    2.69000006
   14.63416672   85.14389801    0.51999998    2.71000004
   14.63722229   85.81649780    0.52999997    2.71000004
   14.64055538   89.41739655    0.52999997    2.69000006
   14.64388847   82.78849792    0.52999997    2.71000004
   14.64972210   82.78849792    0.55000001    2.69000006
   14.65388870   88.43920135    0.52999997    2.71000004
   14.65694427   83.74240112    0.52999997    2.69000006
   14.65833282   78.93609619    0.52999997    2.69000006
   14.66055489   80.48670197    0.55000001    2.71000004
   14.66388893   80.45120239    0.55000001    2.71000004
   14.66722298   80.94080353    0.56999999    2.71000004
   14.67027855   84.07289886    0.56999999    2.71000004
   14.67361164   83.77339935    0.58999997    2.69000006
   14.67694473   82.14589691    0.58999997    2.71000004
   14.68000031   84.32830048    0.56999999    2.71000004
   14.68333340   82.30650330    0.58999997    2.69000006
   14.68666649   82.91929626    0.61000001    2.69000006
   14.69250011   82.91929626    0.61000001    2.69000006
   14.69666672   85.26730347    0.61000001    2.69000006
   14.69999981   82.13330078    0.58999997    2.71000004
   14.70305538   86.36009979    0.58999997    2.71000004
   14.70638847   83.48809814    0.56999999    2.71000004
   14.70972157   82.57820129    0.56999999    2.71000004
   14.71277714   83.23719788    0.61000001    2.71000004
   14.71611118   84.18910217    0.63000000    2.69000006
   14.71944427   81.29450226    0.61000001    2.71000004
   14.72249985   81.41470337    0.61000001    2.71000004
   14.72499943   81.60359955    0.61000001    2.71000004
   14.72611046   82.80439758    0.61000001    2.71000004
   14.72944355   85.59999847    0.61000001    2.71000004
   14.73527813   85.59999847    0.61000001    2.71000004
   14.73944473   82.89730072    0.58999997    2.71000004
   14.74277782   80.93399811    0.61000001    2.71000004
   14.74611092   85.55989838    0.61000001    2.71000004
   14.74916649   82.45749664    0.61000001    2.71000004
   14.75249958   87.58840179    0.58999997    2.71000004
   14.75583363   84.41719818    0.58999997    2.69000006
   14.75833321   86.80190277    0.58999997    2.69000006
   14.75916672   84.47679901    0.56999999    2.71000004
   14.76249981   82.11080170    0.56999999    2.71000004
   14.76583290   82.74780273    0.56999999    2.69000006
   14.76888847   84.31060028    0.55000001    2.71000004
   14.77222157   84.94750214    0.55000001    2.71000004
   14.77833271   84.94750214    0.52999997    2.71000004
   14.78249931   87.44039917    0.52999997    2.71000004
   14.78555584   84.77519989    0.51999998    2.71000004
   14.78888893   88.77619934    0.51999998    2.71000004
   14.79166698   88.16210175    0.51999998    2.71000004
   14.79250050   83.67949677    0.51999998    2.71000004
   14.79583359   82.83329773    0.51999998    2.71000004
   14.79916668   81.88099670    0.51999998    2.71000004
   14.80222225   82.20099640    0.51999998    2.71000004
   14.80555534   84.20230103    0.51999998    2.71000004
   14.80888939   82.57340240    0.51999998    2.71000004
   14.81194496   83.70059967    0.51999998    2.71000004
   14.81527805   85.71260071    0.51999998    2.71000004
   14.82111073   85.71260071    0.51999998    2.71000004
   14.82527733   86.35919952    0.52999997    2.71000004
   14.82833290   85.40339661    0.52999997    2.71000004
   14.83166695   83.91899872    0.52999997    2.71000004
   14.83500004   76.51750183    0.52999997    2.71000004
   14.83805561   84.48750305    0.52999997    2.71000004
   14.84138870   85.42269897    0.52999997    2.71000004
   14.84472179   85.71029663    0.52999997    2.71000004
   14.84777737   83.92839813    0.52999997    2.71000004
   14.85111141   90.46900177    0.52999997    2.71000004
   14.85416698   76.68039703    0.56999999    2.71000004
   14.85750008   81.90219879    0.63000000    2.71000004
   14.85833359   77.17859650    0.63000000    2.71000004
   14.86388969   77.17859650    0.69000000    2.71000004
   14.86805534   82.47419739    0.69000000    2.71000004
   14.87138939   80.05239868    0.70999998    2.71000004
   14.87444496   79.30670166    0.70999998    2.71000004
   14.87777805   80.03160095    0.75000000    2.71000004
   14.88111115   80.88269806    0.67000002    2.71000004
   14.88416672   80.63899994    0.63000000    2.71000004
   14.88749981   75.43180084    0.64999998    2.71000004
   14.89055538   82.68800354    0.64999998    2.71000004
   14.89166641   81.79199982    0.64999998    2.71000004
   14.89416695   80.47429657    0.64999998    2.71000004
   14.89750004   83.02870178    0.69000000    2.69000006
   14.90083313   82.39160156    0.67000002    2.69000006
   14.90694427   82.39160156    0.64999998    2.71000004
   14.91083336   83.18609619    0.64999998    2.71000004
   14.91416645   79.12319946    0.63000000    2.71000004
   14.91750050   77.35649872    0.63000000    2.71000004
   14.92055607   81.54620361    0.61000001    2.71000004
   14.92388916   76.90599823    0.56999999    2.71000004
   14.92500019   77.34400177    0.56999999    2.71000004
   14.92722225   77.20210266    0.55000001    2.71000004
   14.93055630   84.27369690    0.55000001    2.71000004
   14.93388939   81.93450165    0.52999997    2.73000002
   14.93694496   78.22450256    0.52999997    2.73000002
   14.94027805   78.94429779    0.55000001    2.71000004
   14.94361115   79.25260162    0.55000001    2.71000004
   14.94972229   79.25260162    0.56999999    2.71000004
   14.95388889   76.96340179    0.55000001    2.71000004
   14.95694447   79.06600189    0.55000001    2.71000004
   14.95833302   77.08789825    0.55000001    2.71000004
   14.96055508   78.31130219    0.55000001    2.71000004
   14.96388912   81.06839752    0.55000001    2.71000004
   14.96722221   81.13059998    0.52999997    2.71000004
   14.97027779   78.40489960    0.52999997    2.71000004
   14.97361088   83.21440125    0.51999998    2.71000004
   14.97694397   81.84559631    0.52999997    2.73000002
   14.97999954   80.00309753    0.51999998    2.71000004
   14.98333359   81.92030334    0.51999998    2.73000002
   14.98666668   82.53260040    0.51999998    2.71000004
   14.99250031   82.53260040    0.51999998    2.71000004
   14.99666691   79.45099640    0.51999998    2.71000004
   15.00000000   80.06020355    0.51999998    2.71000004
   15.00305557   81.83039856    0.55000001    2.71000004
   15.00638866   77.78130341    0.55000001    2.71000004
   15.00972176   81.46920013    0.55000001    2.71000004
   15.01277733   80.72119904    0.55000001    2.71000004
   15.01611137   74.95059967    0.55000001    2.71000004
   15.01944447   78.49690247    0.55000001    2.71000004
   15.02250004   79.60230255    0.56999999    2.73000002
   15.02499962   79.87760162    0.55000001    2.71000004
   15.02611065   76.72579956    0.55000001    2.71000004
   15.02944374   85.66249847    0.56999999    2.71000004
   15.03527832   85.66249847    0.58999997    2.71000004
   15.03944492   80.38210297    0.56999999    2.71000004
   15.04277802   85.02529907    0.56999999    2.73000002
   15.04583359   79.76110077    0.56999999    2.71000004
   15.04916668   87.27130127    0.56999999    2.71000004
   15.05222225   85.48359680    0.56999999    2.71000004
   15.05555534   84.08080292    0.58999997    2.71000004
   15.05833340   81.07710266    0.58999997    2.73000002
   15.05944443   81.48699951    0.58999997    2.73000002
   15.06250000   81.70939636    0.61000001    2.71000004
   15.06583309   80.21569824    0.58999997    2.71000004
   15.06888866   84.26409912    0.58999997    2.71000004
   15.07222176   82.26850128    0.56999999    2.71000004
   15.07805538   82.26850128    0.56999999    2.71000004
   15.08222198   78.75019836    0.55000001    2.71000004
   15.08555508   81.64769745    0.55000001    2.73000002
   15.08861065   78.80770111    0.55000001    2.73000002
   15.09166622   83.85420227    0.55000001    2.71000004
   15.09222221   80.29360199    0.55000001    2.71000004
   15.09555531   83.97840118    0.56999999    2.71000004
   15.09888840   76.49859619    0.56999999    2.71000004
   15.10222244   77.56510162    0.58999997    2.71000004
   15.10527802   78.75920105    0.56999999    2.73000002
   15.10861111   83.16950226    0.58999997    2.71000004
   15.11194515   79.36550140    0.58999997    2.71000004
   15.11500072   86.04090118    0.61000001    2.73000002
   15.12111092   86.04090118    0.63000000    2.71000004
   15.12527752   82.45159912    0.63000000    2.71000004
   15.12833309   82.29250336    0.63000000    2.71000004
   15.13166714   85.34970093    0.63000000    2.71000004
   15.13472176   94.49169922    0.63000000    2.71000004
   15.13805580   89.42579651    0.61000001    2.73000002
   15.14138889   96.95929718    0.58999997    2.71000004
   15.14472198   98.18849945    0.58999997    2.73000002
   15.14805508  105.76300049    0.58999997    2.73000002
   15.15111065  102.47100067    0.61000001    2.73000002
   15.15444374   89.64089966    0.61000001    2.71000004
   15.15777779   91.55909729    0.61000001    2.71000004
   15.15833282   91.86830139    0.61000001    2.71000004
   15.17916679   91.86830139    0.52999997    2.71000004
   15.18333340   86.78610229    0.51999998    2.73000002
   15.18638897   78.37470245    0.55000001    2.73000002
   15.18972206   94.26609802    0.55000001    2.73000002
   15.19166660   87.90850067    0.55000001    2.71000004
   15.19333363   78.57189941    0.55000001    2.71000004
   15.19666672   88.34960175    0.55000001    2.73000002
   15.19999981   81.82679749    0.52999997    2.71000004
   15.20333290   78.93689728    0.52999997    2.71000004
   15.20638847   82.85359955    0.52999997    2.73000002
   15.20972157   85.41519928    0.52999997    2.71000004
   15.21277714   77.40119934    0.52999997    2.71000004
   15.21611118   87.94080353    0.55000001    2.71000004
   15.22194386   87.94080353    0.55000001    2.71000004
   15.22583294   80.82969666    0.52999997    2.73000002
   15.22916603   82.68879700    0.51999998    2.73000002
   15.23249912   81.55660248    0.51999998    2.73000002
   15.23555565   83.37799835    0.50000000    2.71000004
   15.23888874   87.71600342    0.50000000    2.73000002
   15.24222279   83.77179718    0.50000000    2.73000002
   15.24527836   95.32980347    0.50000000    2.73000002
   15.24861145   89.98229980    0.51999998    2.73000002
   15.25194454   85.19789886    0.51999998    2.73000002
   15.25500011   81.53589630    0.51999998    2.73000002
   15.25833321   84.90609741    0.51999998    2.73000002
   15.25888920   85.63269806    0.51999998    2.73000002
   15.26472187   85.63269806    0.52999997    2.73000002
   15.26888847   91.39499664    0.52999997    2.73000002
   15.27194405   83.06999969    0.55000001    2.71000004
   15.27527714   82.70559692    0.51999998    2.73000002
   15.27861118   81.71540070    0.51999998    2.73000002
   15.28166676   84.99050140    0.51999998    2.73000002
   15.28500080   82.58229828    0.51999998    2.71000004
   15.28833389   82.03119659    0.51999998    2.71000004
   15.29138947   85.41159821    0.51999998    2.71000004
   15.29194450   87.13089752    0.50000000    2.71000004
   15.29527855   85.42659760    0.50000000    2.71000004
   15.29833412   81.95110321    0.51999998    2.73000002
   15.30166721   87.11769867    0.51999998    2.71000004
   15.30749989   87.11769867    0.50000000    2.71000004
   15.31166649   85.45690155    0.51999998    2.73000002
   15.31500053   82.59970093    0.50000000    2.73000002
   15.31805515   79.60079956    0.47999999    2.71000004
   15.32138920   80.47650146    0.47999999    2.71000004
   15.32472229   79.11119843    0.47999999    2.73000002
   15.32527733   79.36509705    0.47999999    2.73000002
   15.32833290   77.17659760    0.47999999    2.73000002
   15.33138847   77.55410004    0.50000000    2.73000002
   15.33472157   81.85269928    0.50000000    2.73000002
   15.33805561   88.00129700    0.50000000    2.71000004
   15.34111118   84.62020111    0.50000000    2.73000002
   15.34444427   81.28559875    0.51999998    2.73000002
   15.35027790   81.28559875    0.51999998    2.73000002
   15.35444450   91.55280304    0.52999997    2.73000002
   15.35833359   88.18340302    0.52999997    2.71000004
   15.35888958   80.04550171    0.52999997    2.71000004
   15.36194515   81.32839966    0.52999997    2.73000002
   15.36500072   80.63700104    0.52999997    2.71000004
   15.36833382   84.02449799    0.55000001    2.73000002
   15.37166691   80.32640076    0.56999999    2.73000002
   15.37500000   80.97290039    0.56999999    2.73000002
   15.37805557   79.75250244    0.56999999    2.71000004
   15.38138866   82.79479980    0.55000001    2.71000004
   15.38472176   81.33999634    0.51999998    2.73000002
   15.38777733   81.60870361    0.52999997    2.73000002
   15.39305496   81.60870361    0.51999998    2.73000002
   15.39722252   80.59239960    0.51999998    2.73000002
   15.40055561   87.56500244    0.51999998    2.73000002
   15.40388870   82.99050140    0.51999998    2.71000004
   15.40694427   82.35240173    0.51999998    2.73000002
   15.41027737   82.16429901    0.50000000    2.71000004
   15.41361046   81.53540039    0.50000000    2.71000004
   15.41666698   83.88240051    0.50000000    2.71000004
   15.42000008   81.66020203    0.50000000    2.73000002
   15.42305565   82.86569977    0.47999999    2.73000002
   15.42555618   83.94180298    0.47999999    2.73000002
   15.42694473   84.16339874    0.47999999    2.71000004
   15.43000031   81.68250275    0.47999999    2.73000002
   15.43611145   81.68250275    0.47999999    2.73000002
   15.44027805   81.23880005    0.46000001    2.73000002
   15.44333363   84.91850281    0.46000001    2.73000002
   15.44666672   85.01959991    0.46000001    2.73000002
   15.44999981   81.04370117    0.46000001    2.73000002
   15.45305538   85.31700134    0.46000001    2.73000002
   15.45638847   82.51740265    0.46000001    2.73000002
   15.45888901   80.27059937    0.46000001    2.73000002
   15.46000004   73.81950378    0.46000001    2.73000002
   15.46305561   77.05090332    0.46000001    2.73000002
   15.46638870   82.51290131    0.46000001    2.73000002
   15.46972179   75.87159729    0.46000001    2.73000002
   15.47277737   82.10990143    0.46000001    2.73000002
   15.47888851   82.10990143    0.46000001    2.73000002
   15.48305511   83.22129822    0.47999999    2.73000002
   15.48638916   84.18499756    0.46000001    2.73000002
   15.48944473   82.33570099    0.44000000    2.73000002
   15.49222279   81.84539795    0.41999999    2.73000002
   15.49333382   85.92379761    0.41999999    2.73000002
   15.49638939   86.15579987    0.41999999    2.73000002
   15.49972248   81.95880127    0.41999999    2.73000002
   15.50305557   79.32350159    0.44000000    2.73000002
   15.50611115   82.05740356    0.44000000    2.73000002
   15.50944424   82.11150360    0.46000001    2.73000002
   15.51249981   78.08380127    0.46000001    2.73000002
   15.51583290   82.06580353    0.46000001    2.73000002
   15.52166653   82.06580353    0.47999999    2.71000004
   15.52583313   82.46739960    0.50000000    2.73000002
   15.52916622   81.69909668    0.50000000    2.73000002
   15.53222179   79.50260162    0.50000000    2.73000002
   15.53555584   73.79149628    0.50000000    2.73000002
   15.53888893   80.79170227    0.50000000    2.73000002
   15.54194450   80.60079956    0.50000000    2.75000000
   15.54527855   80.91149902    0.50000000    2.75000000
   15.54861164   79.72810364    0.51999998    2.73000002
   15.55166721   82.35939789    0.51999998    2.73000002
   15.55500031   79.59660339    0.52999997    2.73000002
   15.55805588   77.54640198    0.51999998    2.73000002
   15.55888939   83.98680115    0.51999998    2.73000002
   15.56444454   83.98680115    0.51999998    2.73000002
   15.56861115   81.02259827    0.51999998    2.75000000
   15.57194424   76.19760132    0.50000000    2.73000002
   15.57527733   77.28769684    0.51999998    2.73000002
   15.57833290   78.87300110    0.51999998    2.73000002
   15.58166695   81.41280365    0.50000000    2.75000000
   15.58472157   78.62640381    0.50000000    2.75000000
   15.58805561   80.47399902    0.50000000    2.75000000
   15.59138870   84.45939636    0.50000000    2.73000002
   15.59222221   83.89980316    0.50000000    2.73000002
   15.59499931   87.33509827    0.47999999    2.75000000
   15.59805489   79.78759766    0.47999999    2.75000000
   15.60138893   80.88739777    0.50000000    2.73000002
   15.60750008   80.88739777    0.50000000    2.73000002
   15.61166668   86.63809967    0.51999998    2.73000002
   15.61472225   85.52610016    0.52999997    2.73000002
   15.61805534   81.21309662    0.52999997    2.73000002
   15.62111092   89.77929688    0.55000001    2.73000002
   15.62444496   80.89450073    0.51999998    2.75000000
   15.62555599   84.93560028    0.51999998    2.75000000
   15.62805557   81.82910156    0.51999998    2.75000000
   15.63111115   82.59490204    0.51999998    2.75000000
   15.63444424   86.32199860    0.51999998    2.73000002
   15.63777733   82.75689697    0.51999998    2.73000002
   15.64083290   79.76799774    0.51999998    2.73000002
   15.64416695   80.59709930    0.51999998    2.73000002
   15.65027714   80.59709930    0.52999997    2.75000000
   15.65444374   82.61409760    0.52999997    2.73000002
   15.65749931   82.25209808    0.51999998    2.75000000
   15.65888882   84.09079742    0.51999998    2.73000002
   15.66138840   83.48570251    0.51999998    2.73000002
   15.66444397   84.85790253    0.50000000    2.73000002
   15.66777802   84.21540070    0.50000000    2.73000002
   15.67111111   82.53520203    0.51999998    2.73000002
   15.67416668   81.25119781    0.51999998    2.73000002
   15.67750072   80.70780182    0.50000000    2.73000002
   15.68083382   76.84179688    0.50000000    2.75000000
   15.68388939   85.87550354    0.50000000    2.71000004
   15.68722248   82.62460327    0.52999997    2.73000002
   15.69305515   82.62460327    0.51999998    2.73000002
   15.69722271   82.23989868    0.51999998    2.75000000
   15.70055580   82.08550262    0.51999998    2.75000000
   15.70361137   80.55229950    0.50000000    2.73000002
   15.70694447   79.21420288    0.50000000    2.73000002
   15.71027756   77.33709717    0.51999998    2.73000002
   15.71333313   82.37570190    0.51999998    2.73000002
   15.71666622   81.44290161    0.51999998    2.73000002
   15.71972179   85.18759918    0.51999998    2.73000002
   15.72305489  113.97599792    0.50000000    2.73000002
   15.72555542   87.78050232    0.50000000    2.73000002
   15.72666645   83.29679871    0.50000000    2.73000002
   15.72972202   81.05269623    0.50000000    2.73000002
   15.73583317   81.05269623    0.47999999    2.75000000
   15.74000072   80.13929749    0.47999999    2.75000000
   15.74333382   81.91429901    0.47999999    2.73000002
   15.74666691   77.25969696    0.47999999    2.73000002
   15.74972248   85.47450256    0.50000000    2.73000002
   15.75305557   80.93759918    0.47999999    2.73000002
   15.75611115   79.19200134    0.47999999    2.73000002
   15.75888920   83.19650269    0.47999999    2.71000004
   15.76000023   81.35320282    0.47999999    2.71000004
   15.76305580   87.17459869    0.47999999    2.73000002
   15.76638889   83.73870087    0.47999999    2.73000002
   15.76972198   78.88439941    0.47999999    2.75000000
   15.77277756   79.01860046    0.47999999    2.75000000
   15.77888870   79.01860046    0.47999999    2.75000000
   15.78305531   76.54560089    0.47999999    2.71000004
   15.78611183   81.15760040    0.47999999    2.73000002
   15.78944492   82.43840027    0.47999999    2.73000002
   15.79222298   85.50340271    0.47999999    2.73000002
   15.79305553   80.37290192    0.47999999    2.73000002
   15.79611111   83.10839844    0.50000000    2.73000002
   15.79944515   83.92880249    0.50000000    2.73000002
   15.80277824   82.53780365    0.50000000    2.73000002
   15.80583382   85.20760345    0.50000000    2.73000002
   15.80916691   79.34929657    0.50000000    2.73000002
   15.81250000   82.27339935    0.47999999    2.73000002
   15.81555557   81.29399872    0.50000000    2.73000002
   15.82166672   81.29399872    0.47999999    2.73000002
   15.82583332   82.54740143    0.50000000    2.73000002
   15.82888889   79.24210358    0.50000000    2.73000002
   15.83222198   78.21209717    0.50000000    2.75000000
   15.83555508   81.83989716    0.47999999    2.73000002
   15.83861065   81.65480042    0.47999999    2.73000002
   15.84194374   83.64749908    0.50000000    2.75000000
   15.84527779   80.15950012    0.50000000    2.75000000
   15.84833336   81.88110352    0.51999998    2.73000002
   15.85166740   82.46949768    0.51999998    2.75000000
   15.85500050   82.36859894    0.50000000    2.73000002
   15.85805607   82.22779846    0.50000000    2.73000002
   15.85888958   82.12650299    0.50000000    2.73000002
   15.86444473   82.12650299    0.51999998    2.73000002
   15.86861134   84.03099823    0.50000000    2.75000000
   15.87194443   81.11049652    0.47999999    2.73000002
   15.87500000   89.35250092    0.50000000    2.75000000
   15.87833309   80.24189758    0.50000000    2.73000002
   15.88166714   76.13580322    0.50000000    2.75000000
   15.88500023   79.60600281    0.50000000    2.73000002
   15.88805580   82.38639832    0.50000000    2.73000002
   15.89138889   78.76750183    0.50000000    2.73000002
   15.89222240   79.76740265    0.50000000    2.73000002
   15.89499950   84.50440216    0.47999999    2.73000002
   15.89805508   86.23760223    0.46000001    2.75000000
   15.90138817   83.56099701    0.47999999    2.75000000
   15.90722179   83.56099701    0.47999999    2.73000002
   15.91138840   82.61560059    0.47999999    2.73000002
   15.91472149   85.84639740    0.47999999    2.75000000
   15.91805553   84.57080078    0.47999999    2.73000002
   15.92111111   87.41139984    0.47999999    2.73000002
   15.92444515   88.49649811    0.47999999    2.73000002
   15.92555618   88.05300140    0.50000000    2.75000000
   15.92805576   87.04129791    0.50000000    2.75000000
   15.93138885   84.03289795    0.51999998    2.75000000
   15.93444443   86.36730194    0.51999998    2.75000000
   15.93777752   88.35250092    0.51999998    2.75000000
   15.94083309   86.25129700    0.52999997    2.73000002
   15.94416714   83.34349823    0.52999997    2.73000002
   15.95027733   83.34349823    0.51999998    2.75000000
   15.95444393   85.56439972    0.52999997    2.73000002
   15.95749950   80.59429932    0.51999998    2.75000000
   15.95888901   82.69519806    0.51999998    2.75000000
   15.96111107   84.60449982    0.52999997    2.73000002
   15.96444416   87.63880157    0.52999997    2.75000000
   15.96749973   85.36019897    0.52999997    2.75000000
   15.97083282   83.24770355    0.52999997    2.75000000
   15.97388840   78.98120117    0.51999998    2.75000000
   15.97722149   81.04730225    0.52999997    2.75000000
   15.98055553   77.42240143    0.55000001    2.75000000
   15.98361111   83.35929871    0.58999997    2.75000000
   15.98694515   86.19020081    0.58999997    2.75000000
   15.99305534   86.19020081    0.58999997    2.75000000
   15.99722290   86.12680054    0.61000001    2.73000002
   16.00027847   81.94699860    0.56999999    2.75000000
   16.00361061   81.88739777    0.55000001    2.75000000
   16.00694466   81.87380219    0.56999999    2.75000000
   16.01000023   84.37439728    0.58999997    2.75000000
   16.01333427  151.01600647    0.58999997    2.75000000
   16.01666641   80.64640045    0.56999999    2.75000000
   16.01972198   80.51020050    0.56999999    2.75000000
   16.02305603   83.19360352    0.56999999    2.75000000
   16.02555466   79.84300232    0.67000002    2.75000000
   16.02666664   81.06310272    0.67000002    2.75000000
   16.02972221   82.14920044    0.70999998    2.75000000
   16.03583336   82.14920044    0.70999998    2.75000000
   16.03999901   80.16739655    0.70999998    2.75000000
   16.04333305   78.27449799    0.70999998    2.75000000
   16.04638863   81.32949829    0.64999998    2.75000000
   16.04972076   82.70520020    0.64999998    2.75000000
   16.05305481   86.54399872    0.61000001    2.73000002
   16.05611038   86.28279877    0.61000001    2.75000000
   16.05888748   80.89710236    0.63000000    2.75000000
   16.05972099   81.73570251    0.63000000    2.75000000
   16.06305504   81.80169678    0.63000000    2.75000000
   16.06611061   86.10540009    0.63000000    2.75000000
   16.06944466   85.71009827    0.61000001    2.73000002
   16.07250023   86.01499939    0.61000001    2.75000000
   16.07861137   86.01499939    0.61000001    2.75000000
   16.08277893   82.21209717    0.64999998    2.75000000
   16.08611107   83.80580139    0.64999998    2.75000000
   16.08944511   81.24369812    0.67000002    2.75000000
   16.09222221   79.92520142    0.70999998    2.75000000
   16.09305573   81.14589691    0.70999998    2.75000000
   16.09611130   83.37799835    0.67000002    2.75000000
   16.09944534   80.52300262    0.67000002    2.75000000
   16.10277748   84.71759796    0.70999998    2.75000000
   16.10583305   84.67199707    0.70999998    2.75000000
   16.10916710   81.64569855    0.67000002    2.75000000
   16.11250114   82.60079956    0.67000002    2.75000000
   16.11555672   78.04930115    0.67000002    2.75000000
   16.12166595   78.04930115    0.76999998    2.75000000
   16.12583351   82.10959625    0.79000002    2.75000000
   16.12888908   77.67919922    0.80000001    2.75000000
   16.13222313   83.28710175    0.80000001    2.75000000
   16.13527679   86.77749634    0.83999997    2.75000000
   16.13861084   83.81469727    0.83999997    2.75000000
   16.14194489   79.55770111    0.89999998    2.75000000
   16.14500046   85.33350372    0.86000001    2.75000000
   16.14833260   84.09929657    0.86000001    2.75000000
   16.15166664   87.08699799    0.83999997    2.75000000
   16.15472221   83.67389679    0.79000002    2.75000000
   16.15805435   83.34059906    0.76999998    2.76999998
   16.15888786   84.21209717    0.76999998    2.76999998
   16.16444397   84.21209717    0.79000002    2.73000002
   16.16860962   86.94730377    0.80000001    2.75000000
   16.17166519   79.34970093    0.80000001    2.75000000
   16.17499924   83.24040222    0.79000002    2.75000000
   16.19249916   81.39600372    0.73000002    2.75000000
   16.19499969   81.29060364    0.73000002    2.75000000
   16.19805527   85.07700348    0.75000000    2.75000000
   16.20138931   81.97170258    0.73000002    2.75000000
   16.20750046   81.97170258    0.73000002    2.76999998
   16.21166801   83.85540009    0.69000000    2.73000002
   16.21472359   81.67910004    0.69000000    2.73000002
   16.21805573   83.12339783    0.64999998    2.75000000
   16.22111130   82.66960144    0.69000000    2.75000000
   16.22444534   78.28289795    0.64999998    2.75000000
   16.22583389   86.00800323    0.64999998    2.75000000
   16.22805595   84.12950134    0.67000002    2.76999998
   16.23111153   83.78810120    0.67000002    2.76999998
   16.23444557   82.48829651    0.67000002    2.75000000
   16.23777771   82.75800323    0.64999998    2.75000000
   16.24083328   82.28220367    0.64999998    2.75000000
   16.24416733   80.40910339    0.61000001    2.75000000
   16.25027847   80.40910339    0.58999997    2.75000000
   16.25444412   83.30699921    0.58999997    2.75000000
   16.25777817   85.73940277    0.55000001    2.75000000
   16.25916672   83.54550171    0.55000001    2.75000000
   16.26138878   81.63330078    0.55000001    2.75000000
   16.26444435   80.86820221    0.56999999    2.75000000
   16.26777840   81.85299683    0.56999999    2.75000000
   16.27111053   88.89790344    0.56999999    2.75000000
   16.27416611   87.93329620    0.55000001    2.75000000
   16.27750015   84.36499786    0.55000001    2.75000000
   16.28083229   83.89160156    0.56999999    2.75000000
   16.28388786   82.05159760    0.56999999    2.75000000
   16.28722191   89.31690216    0.58999997    2.75000000
   16.29305458   89.31690216    0.58999997    2.75000000
   16.29722214   83.66929626    0.58999997    2.75000000
   16.30055428   84.65190125    0.58999997    2.75000000
   16.30360985   81.64469910    0.58999997    2.75000000
   16.30694389   81.95590210    0.58999997    2.75000000
   16.31027794   86.06939697    0.58999997    2.75000000
   16.31333351   86.33200073    0.56999999    2.76999998
   16.31666756   79.51760101    0.56999999    2.76999998
   16.31972313   82.75350189    0.55000001    2.75000000
   16.32305717   81.86229706    0.52999997    2.75000000
   16.32583427   86.40910339    0.52999997    2.75000000
   16.32666779   83.76909637    0.52999997    2.75000000
   16.32972336   85.16149902    0.55000001    2.75000000
   16.33583450   85.16149902    0.55000001    2.75000000
   16.34000015   87.90519714    0.55000001    2.75000000
   16.34333420   86.33709717    0.56999999    2.75000000
   16.34666824   83.78279877    0.56999999    2.75000000
   16.34972191   89.26399994    0.55000001    2.75000000
   16.35305595   83.62190247    0.55000001    2.75000000
   16.35639000   81.70670319    0.55000001    2.75000000
   16.35916710   83.36060333    0.52999997    2.75000000
   16.36000061   88.52700043    0.52999997    2.75000000
   16.36305618   86.91760254    0.52999997    2.75000000
   16.36638832   79.28040314    0.52999997    2.75000000
   16.36972237   84.29499817    0.52999997    2.75000000
   16.37277794   82.08719635    0.52999997    2.75000000
   16.37888908   82.08719635    0.52999997    2.75000000
   16.38305473   87.90370178    0.51999998    2.75000000
   16.38611031   84.15519714    0.51999998    2.75000000
   16.38944435   86.68520355    0.52999997    2.75000000
   16.39249992   87.10600281    0.51999998    2.75000000
   16.39305496   87.76450348    0.51999998    2.75000000
   16.39638901   87.52420044    0.51999998    2.75000000
   16.39944458   86.37490082    0.51999998    2.75000000
   16.40277672   91.40319824    0.51999998    2.75000000
   16.40611076   87.26689911    0.50000000    2.75000000
   16.40916634   84.29900360    0.50000000    2.75000000
   16.41250038   86.16870117    0.50000000    2.75000000
   16.41583252   86.43370056    0.50000000    2.75000000
   16.42166519   86.43370056    0.46000001    2.75000000
   16.42583275   87.56089783    0.47999999    2.75000000
   16.42638779   84.06099701    0.47999999    2.75000000
   16.42944336   85.00340271    0.47999999    2.75000000
   16.43277740   83.51190186    0.46000001    2.75000000
   16.43610954   77.64019775    0.44000000    2.75000000
   16.43916512   86.44129944    0.44000000    2.75000000
   16.44249916   87.77690125    0.44000000    2.75000000
   16.44555473   85.03980255    0.44000000    2.75000000
   16.44888878   85.78659821    0.44000000    2.75000000
   16.45222282   85.83190155    0.41999999    2.75000000
   16.45527840   85.86630249    0.41999999    2.75000000
   16.45861244   87.02110291    0.44000000    2.76999998
   16.45972252   86.08489990    0.44000000    2.76999998
   16.46444511   86.08489990    0.44000000    2.75000000
   16.46861076   89.39050293    0.41999999    2.75000000
   16.47194481   87.90820313    0.41999999    2.75000000
   16.47500038   84.40290070    0.41999999    2.75000000
   16.47833443   88.11799622    0.44000000    2.76999998
   16.48166656   84.61789703    0.44000000    2.75000000
   16.48472214   87.26499939    0.46000001    2.76999998
   16.48805618   84.05819702    0.46000001    2.75000000
   16.49111176   82.93920135    0.44000000    2.75000000
   16.49305534   80.47940063    0.44000000    2.75000000
   16.49472237   82.16549683    0.44000000    2.75000000
   16.49805641   87.82530212    0.44000000    2.76999998
   16.50138855   84.53610229    0.44000000    2.76999998
   16.50722313   84.53610229    0.44000000    2.75000000
   16.51138878   89.47820282    0.41999999    2.75000000
   16.51472282   88.42960358    0.41999999    2.75000000
   16.51805496   87.15090179    0.44000000    2.75000000
   16.52111053   88.16290283    0.44000000    2.75000000
   16.52444458   83.35870361    0.41999999    2.75000000
   16.52638817   89.51319885    0.44000000    2.75000000
   16.52777672   89.12020111    0.44000000    2.75000000
   16.53111076   88.94580078    0.46000001    2.75000000
   16.53444481   85.72720337    0.47999999    2.76999998
   16.53750038   86.64779663    0.47999999    2.76999998
   16.54083252   82.21520233    0.47999999    2.75000000
   16.54388809   82.45459747    0.47999999    2.75000000
   16.55027771   82.45459747    0.46000001    2.76999998
   16.55444336   79.44689941    0.41999999    2.76999998
   16.55749893   86.15579987    0.41999999    2.76999998
   16.55972099   81.76840210    0.40000001    2.75000000
   16.56110954   86.66940308    0.40000001    2.75000000
   16.56444359   82.68579865    0.40000001    2.76999998
   16.56777954   83.26830292    0.40000001    2.75000000
   16.57083511   91.16500092    0.40000001    2.75000000
   16.57416725   84.21170044    0.40000001    2.76999998
   16.57722282   87.80879974    0.40000001    2.76999998
   16.58055687   84.09300232    0.40000001    2.75000000
   16.58388901   82.39839935    0.40000001    2.75000000
   16.58694458   93.17759705    0.41999999    2.75000000
   16.59305573   93.17759705    0.41999999    2.75000000
   16.59722328   87.42919922    0.41999999    2.75000000
   16.60055542   88.23609924    0.41999999    2.76999998
   16.60361099   83.44390106    0.44000000    2.75000000
   16.60694504   85.45890045    0.44000000    2.75000000
   16.61027908   83.15139771    0.44000000    2.75000000
   16.61333466   87.80629730    0.44000000    2.75000000
   16.61666679   88.11090088    0.44000000    2.76999998
   16.62000084   84.22920227    0.44000000    2.75000000
   16.62305641   86.68129730    0.44000000    2.75000000
   16.62638855   85.41139984    0.44000000    2.75000000
   16.62666702   82.97019958    0.44000000    2.75000000
   16.63000107   85.07759857    0.44000000    2.75000000
   16.63611031   85.07759857    0.44000000    2.75000000
   16.64027786   83.55000305    0.46000001    2.75000000
   16.64333344  100.51799774    0.46000001    2.75000000
   16.64666748  130.38900757    0.44000000    2.75000000
   16.64999962  177.58799744    0.44000000    2.75000000
   16.65305519  167.66600037    0.44000000    2.75000000
   16.65638924  161.60600281    0.44000000    2.75000000
   16.65972137  126.48300171    0.41999999    2.75000000
   16.65999985  153.74899292    0.41999999    2.75000000
   16.66333389  126.35299683    0.41999999    2.75000000
   16.66666603  151.00900269    0.41999999    2.75000000
   16.67000008  126.49199677    0.41999999    2.75000000
   16.67333221  123.69200134    0.41999999    2.75000000
   16.67860985  123.69200134    0.44000000    2.76999998
   16.68277740   94.16449738    0.44000000    2.75000000
   16.68610954  113.98300171    0.41999999    2.75000000
   16.68916512  106.58699799    0.41999999    2.75000000
   16.69249916  104.85299683    0.41999999    2.75000000
   16.69305420   85.95770264    0.44000000    2.75000000
   16.69610977  125.72799683    0.44000000    2.75000000
   16.69916534  110.60199738    0.44000000    2.75000000
   16.70250130   89.68859863    0.41999999    2.75000000
   16.70583344   84.53700256    0.40000001    2.75000000
   16.70888901   89.12580109    0.40000001    2.76999998
   16.71222305   91.95590210    0.40000001    2.76999998
   16.71527863   94.86329651    0.40000001    2.75000000
   16.72166634   94.86329651    0.41999999    2.75000000
   16.72583389   94.11270142    0.41999999    2.75000000
   16.72638893   89.99980164    0.41999999    2.75000000
   16.72944450   88.88739777    0.44000000    2.75000000
   16.73250008   86.51339722    0.44000000    2.75000000
   16.73583412   85.20480347    0.44000000    2.75000000
   16.73888969   88.41010284    0.41999999    2.76999998
   16.74222183   90.02459717    0.41999999    2.75000000
   16.74555588   87.81140137    0.41999999    2.76999998
   16.74861145   86.51899719    0.41999999    2.75000000
   16.75194359   85.83509827    0.41999999    2.75000000
   16.75527763   83.09629822    0.41999999    2.75000000
   16.75833321   87.20960236    0.41999999    2.76999998
   16.75972176   83.94080353    0.41999999    2.76999998
   16.76444435   83.94080353    0.41999999    2.75000000
   16.76861000   85.19460297    0.40000001    2.75000000
   16.77166557   85.30780029    0.40000001    2.76999998
   16.77499962   83.29969788    0.40000001    2.75000000
   16.77833366   81.08409882    0.40000001    2.76999998
   16.78138924   79.46589661    0.40000001    2.75000000
   16.78472137   85.80290222    0.41999999    2.75000000
   16.78777695   86.31649780    0.41999999    2.76999998
   16.79111099   86.72709656    0.44000000    2.75000000
   16.79305458   89.85910034    0.44000000    2.76999998
   16.79472160   84.75489807    0.44000000    2.75000000
   16.79777718   89.62280273    0.44000000    2.76999998
   16.80111122   86.75379944    0.44000000    2.75000000
   16.80722237   86.75379944    0.46000001    2.75000000
   16.81138802   83.38069916    0.50000000    2.75000000
   16.81472206   85.13020325    0.51999998    2.75000000
   16.81777954   86.10459900    0.51999998    2.75000000
   16.82111168   82.88120270    0.51999998    2.75000000
   16.82416725   87.40399933    0.51999998    2.75000000
   16.82638931   83.53420258    0.51999998    2.75000000
   16.82805634   82.37020111    0.51999998    2.75000000
   16.83111191   83.82720184    0.55000001    2.76999998
   16.83444595   84.41459656    0.55000001    2.75000000
   16.83777809   84.91400146    0.55000001    2.76999998
   16.84083366   86.91210175    0.55000001    2.75000000
   16.84416771   83.87920380    0.55000001    2.75000000
   16.85000038   83.87920380    0.51999998    2.75000000
   16.85416794   89.70790100    0.52999997    2.75000000
   16.85750008   83.74349976    0.55000001    2.75000000
   16.85972214   82.27210236    0.55000001    2.75000000
   16.86111069   87.18340302    0.55000001    2.75000000
   16.86416626   89.72920227    0.55000001    2.75000000
   16.86750031   86.95249939    0.55000001    2.75000000
   16.87083435   85.57129669    0.52999997    2.76999998
   16.87388992   86.64949799    0.55000001    2.76999998
   16.87722206   82.59470367    0.55000001    2.76999998
   16.88027763   83.68779755    0.55000001    2.75000000
   16.88361168   85.95130157    0.56999999    2.75000000
   16.88694382   86.04180145    0.52999997    2.75000000
   16.89305496   86.04180145    0.50000000    2.75000000
   16.89694405   87.70770264    0.47999999    2.75000000
   16.90027809   89.59970093    0.50000000    2.75000000
   16.90361023   85.58000183    0.47999999    2.75000000
   16.90666580   91.85910034    0.44000000    2.76999998
   16.90999985   96.47290039    0.46000001    2.75000000
   16.91333389   89.67459869    0.46000001    2.75000000
   16.91638756   92.19419861    0.44000000    2.76999998
   16.91972160   91.26589966    0.44000000    2.76999998
   16.92277718   86.72519684    0.44000000    2.76999998
   16.92611122   85.42829895    0.41999999    2.75000000
   16.92805481   92.47039795    0.41999999    2.75000000
   16.92972183   89.80359650    0.41999999    2.75000000
   16.93583298   89.80359650    0.44000000    2.75000000
   16.93999863   83.83969879    0.44000000    2.75000000
   16.94305420   88.80490112    0.41999999    2.75000000
   16.94638824   91.13140106    0.41999999    2.75000000
   16.94972038   91.16940308    0.40000001    2.75000000
   16.95277786   89.86930084    0.40000001    2.75000000
   16.95611191   89.36250305    0.50000000    2.76999998
   16.95916748   88.63189697    0.51999998    2.76999998
   16.96138954   89.35569763    0.50000000    2.75000000
   16.96277809   88.62449646    0.38000000    2.76999998
   16.96611214   88.61450195    0.38000000    2.76999998
   16.96944427   91.70140076    0.52999997    2.75000000
   16.97249985   90.31999969    1.61000001    2.71000004
   16.97861099   90.31999969    1.60000002    2.75000000
   16.98277855   90.32679749    0.50000000    2.75000000
   16.98611069   86.23100281    0.70999998    2.76999998
   16.98916626   87.92700195    0.70999998    2.76999998
   16.99250031   89.95069885    1.53999996    2.76999998
   16.99472237   84.34729767    1.53999996    2.76999998
   16.99611092   88.84140015    1.53999996    2.76999998
   16.99944496   89.00479889    1.46000004    2.75000000
   17.00250053   87.09220123    1.46000004    2.75000000
   17.00583267   86.80229950    0.52999997    2.76999998
   17.00916672   90.67079926    0.79000002    2.76999998
   17.01222229   88.91059875    0.79000002    2.75000000
   17.01555634   85.94300079    0.81999999    2.76999998
   17.02138901   85.94300079    0.64999998    2.76999998
   17.02555466   81.61949921    0.56999999    2.76999998
   17.02805519   87.78659821    0.56999999    2.76999998
   17.02916718   85.82340240    0.56999999    2.76999998
   17.03249931   83.03289795    0.38000000    2.76999998
   17.03555489   84.81269836    0.38000000    2.75000000
   17.03888893   82.57009888    0.40000001    2.75000000
   17.04222107   90.34300232    0.38000000    2.76999998
   17.04527664   92.30690002    0.36000001    2.75000000
   17.04861069   94.99009705    0.36000001    2.75000000
   17.05166626   89.24120331    0.38000000    2.75000000
   17.05499840   86.93170166    0.38000000    2.75000000
   17.05833244   87.02020264    0.38000000    2.76999998
   17.06444359   87.02020264    0.36000001    2.76999998
   17.06861115   89.60890198    0.36000001    2.76999998
   17.07166672   87.41259766    0.38000000    2.76999998
   17.07500076   88.02819824    0.36000001    2.76999998
   17.07805634   86.45040131    0.38000000    2.75000000
   17.08139038   87.27369690    0.40000001    2.75000000
   17.08472252   83.96549988    0.40000001    2.75000000
   17.08805656   91.89520264    0.36000001    2.75000000
   17.09111214   91.52010345    0.34000000    2.76999998
   17.09444427   85.51360321    0.38000000    2.75000000
   17.09527779   88.89510345    0.38000000    2.75000000
   17.09805679   90.46820068    0.36000001    2.76999998
   17.10111237   90.81939697    0.36000001    2.76999998
   17.10722351   90.81939697    0.38000000    2.76999998
   17.11138916   91.22589874    0.38000000    2.75000000
   17.11444473   96.06739807    0.38000000    2.75000000
   17.11777878   89.36270142    0.38000000    2.76999998
   17.12111092   86.37280273    0.38000000    2.76999998
   17.12416649   84.68550110    0.38000000    2.76999998
   17.12750053   85.81030273    0.36000001    2.76999998
   17.12861061   88.99089813    0.36000001    2.76999998
   17.13111115   89.87460327    0.38000000    2.76999998
   17.13416672   89.93840027    0.36000001    2.76999998
   17.13750076   87.13349915    0.36000001    2.76999998
   17.14083290   88.23179626    0.36000001    2.76999998
   17.14388847   82.08390045    0.36000001    2.76999998
   17.15027809   82.08390045    0.36000001    2.75000000
   17.15444374   90.18990326    0.36000001    2.75000000
   17.15749931   87.80000305    0.36000001    2.75000000
   17.16083336   90.18969727    0.36000001    2.76999998
   17.16222191   86.40149689    0.38000000    2.76999998
   17.16444397   88.37429810    0.38000000    2.76999998
   17.16777802   89.38020325    0.36000001    2.75000000
   17.17111015   89.31250000    0.40000001    2.76999998
   17.17416573   80.01149750    0.40000001    2.76999998
   17.17749977   88.27749634    0.38000000    2.76999998
   17.18083191   89.45950317    0.38000000    2.76999998
   17.18388748   88.32929993    0.38000000    2.76999998
   17.18722153   87.71649933    0.38000000    2.76999998
   17.19277763   87.71649933    0.38000000    2.76999998
   17.21138954   89.33480072    0.36000001    2.76999998
   17.21444511   85.78769684    0.36000001    2.76999998
   17.21777916   84.68350220    0.36000001    2.75000000
   17.22111130   85.34179688    0.36000001    2.75000000
   17.22416687   85.71199799    0.36000001    2.76999998
   17.22750092   89.69950104    0.36000001    2.75000000
   17.23055649   89.49109650    0.36000001    2.75000000
   17.23611069   89.49109650    0.36000001    2.76999998
   17.23999977   88.40679932    0.38000000    2.76999998
   17.24333382   84.69010162    0.36000001    2.75000000
   17.24444389   88.43049622    0.36000001    2.75000000
   17.24694443   86.01020050    0.38000000    2.76999998
   17.25027847   87.84159851    0.38000000    2.76999998
   17.25361061   87.73809814    0.38000000    2.76999998
   17.25666618   86.55220032    0.38000000    2.76999998
   17.26000023   93.56710052    0.38000000    2.75000000
   17.26333427   91.64949799    0.40000001    2.75000000
   17.26638794   92.47579956    0.38000000    2.76999998
   17.26972198   89.62310028    0.38000000    2.75000000
   17.27277756   93.94039917    0.38000000    2.75000000
   17.27888870   93.94039917    0.38000000    2.75000000
   17.28305435   89.64170074    0.38000000    2.76999998
   17.28610992   89.90529633    0.38000000    2.75000000
   17.28972244   88.50830078    0.38000000    2.75000000
   17.29277802   87.80390167    0.38000000    2.75000000
   17.29611015   82.15879822    0.38000000    2.75000000
   17.29944420   91.28399658    0.38000000    2.75000000
   17.30249977   88.12460327    0.38000000    2.76999998
   17.30583191   86.16239929    0.38000000    2.73000002
   17.30916595   91.09210205    0.38000000    2.76999998
   17.31110954   93.17880249    0.38000000    2.76999998
   17.31250000   88.91280365    0.38000000    2.76999998
   17.31583214   90.81130219    0.40000001    2.76999998
   17.32166672   90.81130219    0.40000001    2.75000000
   17.32583427   86.08450317    0.40000001    2.75000000
   17.32888985   90.17189789    0.41999999    2.75000000
   17.33222389   88.66010284    0.41999999    2.75000000
   17.33555603   90.27899933    0.41999999    2.75000000
   17.33861160   86.33309937    0.41999999    2.75000000
   17.34194565   83.98349762    0.41999999    2.75000000
   17.34444427   85.12290192    0.44000000    2.75000000
   17.34555626   88.20870209    0.44000000    2.75000000
   17.34916687   87.42109680    0.44000000    2.75000000
   17.35222244   88.78320313    0.44000000    2.75000000
   17.35555649   88.51940155    0.46000001    2.75000000
   17.35861206   91.63159943    0.46000001    2.75000000
   17.36444473   91.63159943    0.46000001    2.76999998
   17.36861038   88.02809906    0.46000001    2.76999998
   17.37194443   88.34870148    0.46000001    2.75000000
   17.37500000   90.44560242    0.44000000    2.75000000
   17.37777710   87.31140137    0.44000000    2.75000000
   17.37861061   85.75129700    0.44000000    2.75000000
   17.38194466   85.70249939    0.44000000    2.75000000
   17.38527679   83.71739960    0.44000000    2.75000000
   17.38833237   87.69920349    0.44000000    2.75000000
   17.39166641   82.72100067    0.44000000    2.75000000
   17.39500046   85.28780365    0.44000000    2.76999998
   17.39805603   88.93879700    0.44000000    2.76999998
   17.40138817   90.68309784    0.44000000    2.75000000
   17.40749931   90.68309784    0.44000000    2.75000000
   17.41138840   89.82679749    0.46000001    2.75000000
   17.41472244   87.80539703    0.47999999    2.75000000
   17.41805458   88.77439880    0.46000001    2.75000000
   17.42111015   88.95069885    0.46000001    2.75000000
   17.42444420   94.40309906    0.46000001    2.75000000
   17.42749977   86.50090027    0.46000001    2.75000000
   17.43083191   91.12729645    0.46000001    2.76999998
   17.43416595   91.67759705    0.44000000    2.75000000
   17.43722153   85.86990356    0.44000000    2.75000000
   17.44055557   87.72599792    0.44000000    2.75000000
   17.44388771   87.48650360    0.44000000    2.75000000
   17.44444275   87.89959717    0.41999999    2.75000000
   17.45027924   87.89959717    0.41999999    2.75000000
   17.45444489   87.43409729    0.41999999    2.75000000
   17.45750046   89.41100311    0.41999999    2.75000000
   17.46083450   86.93399811    0.40000001    2.75000000
   17.46389008   84.18309784    0.40000001    2.75000000
   17.46722221   87.38289642    0.40000001    2.75000000
   17.47055626   86.27529907    0.40000001    2.75000000
   17.47361183   89.91979980    0.40000001    2.75000000
   17.47694588   86.78720093    0.40000001    2.75000000
   17.47777748   88.03479767    0.40000001    2.75000000
   17.48055649   85.76239777    0.41999999    2.75000000
   17.48388863   83.70580292    0.41999999    2.75000000
   17.48722267   84.03839874    0.41999999    2.75000000
   17.49305534   84.03839874    0.44000000    2.75000000
   17.49722290   86.67890167    0.44000000    2.75000000
   17.50027847   85.19830322    0.44000000    2.75000000
   17.50361061   84.45829773    0.41999999    2.75000000
   17.50694466   88.35690308    0.41999999    2.75000000
   17.51000023   90.27570343    0.41999999    2.75000000
   17.51111031   85.95439911    0.41999999    2.75000000
   17.51361084   90.05259705    0.41999999    2.75000000
   17.51694489   87.98770142    0.41999999    2.75000000
   17.52027702   88.30249786    0.41999999    2.75000000
   17.52333260   90.32550049    0.41999999    2.75000000
   17.52666664   87.60559845    0.41999999    2.75000000
   17.52972221   84.21829987    0.41999999    2.75000000
   17.53583336   84.21829987    0.41999999    2.75000000
   17.53999901   85.83860016    0.41999999    2.75000000
   17.54333305   85.44010162    0.41999999    2.75000000
   17.54444313   82.42459869    0.41999999    2.75000000
   17.54666710   81.53559875    0.40000001    2.75000000
   17.54999924   85.15769958    0.40000001    2.75000000
   17.55333328   91.35559845    0.41999999    2.75000000
   17.55638885   85.03639984    0.40000001    2.75000000
   17.55972099   87.64440155    0.41999999    2.73000002
   17.56305504   84.87850189    0.44000000    2.75000000
   17.56638718   88.85230255    0.41999999    2.75000000
   17.56944466   88.75080109    0.41999999    2.75000000
   17.57277870   90.67720032    0.41999999    2.75000000
   17.57888985   90.67720032    0.41999999    2.75000000
   17.58277893   82.60540009    0.41999999    2.75000000
   17.58611107   85.77429962    0.44000000    2.75000000
   17.58944511   85.38410187    0.44000000    2.73000002
   17.59277916   89.15249634    0.46000001    2.75000000
   17.59611130   92.15670013    0.46000001    2.73000002
   17.59916687   87.24990082    0.46000001    2.73000002
   17.60250092   95.18710327    0.46000001    2.75000000
   17.60555649   87.20690155    0.46000001    2.75000000
   17.60888863   89.42179871    0.46000001    2.75000000
   17.61111069   86.72579956    0.44000000    2.75000000
   17.61250114   90.16699982    0.44000000    2.75000000
   17.61583328   83.47930145    0.46000001    2.75000000
   17.62166595   83.47930145    0.47999999    2.75000000
   17.62583351   83.13490295    0.50000000    2.75000000
   17.62888908   85.61879730    0.52999997    2.75000000
   17.63222313   89.52690125    0.52999997    2.75000000
   17.63527679   91.67810059    0.51999998    2.75000000
   17.63861084   87.53639984    0.50000000    2.75000000
   17.64194489   85.50260162    0.47999999    2.75000000
   17.64444351   91.66750336    0.47999999    2.75000000
   17.64527702   86.34179688    0.47999999    2.75000000
   17.64861107   87.40930176    0.46000001    2.75000000
   17.65194321   85.15110016    0.44000000    2.75000000
   17.65499878   88.98989868    0.46000001    2.73000002
   17.65833282   85.87280273    0.46000001    2.73000002
   17.66444397   85.87280273    0.46000001    2.75000000
   17.66860962   89.28179932    0.46000001    2.73000002
   17.67166519   90.18869781    0.46000001    2.75000000
   17.67499924   89.93419647    0.44000000    2.75000000
   17.67777634   84.45159912    0.44000000    2.75000000
   17.67860985   84.77839661    0.44000000    2.73000002
   17.68194389   85.96130371    0.44000000    2.75000000
   17.68527603   82.36769867    0.44000000    2.75000000
   17.68833160   81.86519623    0.44000000    2.75000000
   17.69166565   83.95220184    0.46000001    2.73000002
   17.69499969   87.91130066    0.50000000    2.73000002
   17.69805527   87.91020203    0.50000000    2.75000000
   17.70138931   91.65239716    0.50000000    2.75000000
   17.70722389   91.65239716    0.47999999    2.75000000
   17.71138954   86.20410156    0.47999999    2.73000002
   17.71472359   83.67700195    0.47999999    2.73000002
   17.71777916   83.39420319    0.51999998    2.75000000
   17.72111130   83.40920258    0.52999997    2.75000000
   17.72444534   88.43930054    0.51999998    2.75000000
   17.72750092   84.35569763    0.51999998    2.75000000
   17.73083305   88.26270294    0.51999998    2.75000000
   17.73388863   86.76200104    0.50000000    2.75000000
   17.73722267   85.08760071    0.50000000    2.75000000
   17.74055672   82.93479919    0.47999999    2.75000000
   17.74361229   82.76670074    0.46000001    2.75000000
   17.74444389   89.62930298    0.46000001    2.73000002
   17.75000000   89.62930298    0.46000001    2.73000002
   17.75416756   93.71910095    0.46000001    2.75000000
   17.75749969   89.81990051    0.46000001    2.75000000
   17.76083374   87.76480103    0.47999999    2.73000002
   17.76388931   88.99220276    0.47999999    2.75000000
   17.76722145   86.90110016    0.47999999    2.75000000
   17.77055550   87.95729828    0.50000000    2.75000000
   17.77388954   89.31400299    0.50000000    2.75000000
   17.77694511   85.23750305    0.50000000    2.75000000
   17.77777672   85.74900055    0.50000000    2.75000000
   17.78083229   85.02940369    0.50000000    2.75000000
   17.78416634   87.35289764    0.52999997    2.73000002
   17.78722191   84.29299927    0.52999997    2.73000002
   17.79305458   84.29299927    0.52999997    2.75000000
   17.79722214   89.58290100    0.52999997    2.75000000
   17.80027771   90.23419952    0.51999998    2.75000000
   17.80360985   84.52799988    0.50000000    2.75000000
   17.80694389   83.71600342    0.50000000    2.75000000
   17.80999947   83.65679932    0.47999999    2.75000000
   17.81110954   86.42590332    0.47999999    2.75000000
   17.81361008   87.70040131    0.47999999    2.75000000
   17.81694603   83.02179718    0.47999999    2.73000002
   17.82027817   82.89510345    0.47999999    2.75000000
   17.82333374   82.78679657    0.46000001    2.75000000
   17.82666779   82.93209839    0.46000001    2.75000000
   17.83000183   83.17199707    0.46000001    2.73000002
   17.83583450   83.17199707    0.47999999    2.73000002
   17.84000015   88.36340332    0.47999999    2.75000000
   17.84305573   86.84179688    0.47999999    2.75000000
   17.84444427   88.99030304    0.46000001    2.75000000
   17.84694481   87.68319702    0.46000001    2.75000000
   17.85000038   87.11389923    0.46000001    2.73000002
   17.85333443   86.81099701    0.46000001    2.75000000
   17.85666656   83.58290100    0.44000000    2.73000002
   17.85972214   84.64009857    0.44000000    2.75000000
   17.86305618   84.73400116    0.44000000    2.75000000
   17.86611176   82.76080322    0.47999999    2.75000000
   17.86944389   84.61340332    0.50000000    2.75000000
   17.87277794   83.98020172    0.50000000    2.75000000
   17.87861061   83.98020172    0.50000000    2.73000002
   17.88277817   86.09400177    0.51999998    2.73000002
   17.88611031   86.85469818    0.52999997    2.73000002
   17.88916588   87.76709747    0.52999997    2.73000002
   17.89277840   85.11519623    0.51999998    2.73000002
   17.89611053   85.45809937    0.50000000    2.73000002
   17.89916611   84.79820251    0.47999999    2.75000000
   17.90250015   87.31639862    0.47999999    2.73000002
   17.90583229   88.02469635    0.47999999    2.75000000
   17.90888786   89.22360229    0.47999999    2.75000000
   17.91110992   87.17669678    0.46000001    2.73000002
   17.91250038   89.68129730    0.46000001    2.73000002
   17.91583252   86.76740265    0.47999999    2.73000002
   17.92138863   86.76740265    0.51999998    2.75000000
   17.92555428   85.49330139    0.47999999    2.75000000
   17.92888832   83.98999786    0.47999999    2.75000000
   17.93222237   86.94789886    0.47999999    2.75000000
   17.93527603   80.82369995    0.46000001    2.75000000
   17.93861008   84.45249939    0.46000001    2.75000000
   17.94194412   85.89080048    0.47999999    2.75000000
   17.94444275   88.62889862    0.47999999    2.75000000
   17.94555473   87.21510315    0.47999999    2.75000000
   17.94861031   84.09400177    0.47999999    2.73000002
   17.95194435   88.09500122    0.47999999    2.73000002
   17.95499992   82.90630341    0.47999999    2.73000002
   17.95833397   85.15599823    0.47999999    2.73000002
   17.96444511   85.15599823    0.47999999    2.73000002
   17.96861076   89.65519714    0.50000000    2.73000002
   17.97166634   84.30840302    0.47999999    2.73000002
   17.97500038   82.72689819    0.47999999    2.73000002
   17.97777748   85.18879700    0.47999999    2.73000002
   17.97833443   84.74639893    0.47999999    2.73000002
   17.98166656   86.49680328    0.47999999    2.73000002
   17.98500061   81.73200226    0.50000000    2.73000002
   17.98805618   83.32849884    0.50000000    2.73000002
   17.99138832   84.24430084    0.51999998    2.73000002
   17.99472237   84.35269928    0.88000000    2.73000002
   17.99777794   91.15119934    4.90999985    2.71000004
   18.00111198   92.74610138    4.90999985    2.67000008
   18.00722313   92.74610138    4.90999985    2.61999989
   18.01138878   85.92269897    4.90999985    2.73000002
   18.01444435   88.87650299    3.34999990    2.84999990
   18.01777840   87.37930298    1.75000000    0.64999998
   18.02111053   83.00630188    1.48000002    0.31999999
