    HOUR (UT)   FLARE FACTOR    SKY TESTER    SUN TESTER
   12.35944462   -1.00000000   -1.00000000   -1.00000000
   12.41777802  156.15899658    2.17000008    2.01999998
   12.42083359  162.86000061    2.17000008    2.01999998
   12.42416668  159.02000427    2.17000008    2.01999998
   12.42750072  168.62800598    2.17000008    2.01999998
   12.43055630  160.24400330    2.17000008    2.01999998
   12.43388939  153.05700684    2.17000008    2.01999998
   12.43805599  153.05700684    2.15000010    2.03999996
   12.44222260  158.74699402    2.13000011    2.03999996
   12.44527817  155.91700745    2.13000011    2.03999996
   12.44861126  150.90699768    2.11999989    2.03999996
   12.45111084  162.54299927    2.11999989    2.03999996
   12.45222187  159.04899597    2.11999989    2.03999996
   12.45555496  163.96499634    2.11999989    2.03999996
   12.45888901  157.42100525    2.09999990    2.03999996
   12.46194458  169.87300110    2.09999990    2.05999994
   12.46527767  162.32499695    2.09999990    2.05999994
   12.46833324  171.32800293    2.09999990    2.03999996
   12.47166634  177.66600037    2.07999992    2.03999996
   12.47499943  173.15800476    2.07999992    2.05999994
   12.48083305  173.15800476    2.05999994    2.05999994
   12.48500061  181.98100281    2.07999992    2.05999994
   12.48805618  161.06100464    2.05999994    2.05999994
   12.49138927  176.77099609    2.05999994    2.05999994
   12.49472237  177.07600403    2.03999996    2.07999992
   12.49777794  170.53100586    2.03999996    2.07999992
   12.50111103  172.57200623    2.03999996    2.05999994
   12.50444412  165.19400024    2.03999996    2.07999992
   12.50749969  166.42100525    2.01999998    2.07999992
   12.51083374  170.35899353    2.01999998    2.07999992
   12.51388931  160.94400024    2.01999998    2.07999992
   12.51722240  169.37800598    2.00000000    2.09999990
   12.51777744  158.41200256    2.00000000    2.09999990
   12.52361107  158.41200256    2.00000000    2.09999990
   12.52777767  163.78100586    1.98000002    2.09999990
   12.53111076  168.23800659    1.98000002    2.09999990
   12.53416729  162.16099548    1.98000002    2.07999992
   12.53750038  156.02299500    1.98000002    2.09999990
   12.54083347  154.13699341    1.96000004    2.09999990
   12.54388905  149.55400085    1.96000004    2.09999990
   12.54722309  160.64300537    1.96000004    2.09999990
   12.55027771  157.07099915    1.96000004    2.09999990
   12.55111122  157.28199768    1.96000004    2.09999990
   12.55416679  159.37699890    1.96000004    2.09999990
   12.55722237  163.19900513    1.96000004    2.09999990
   12.56055546  153.10800171    1.94000006    2.11999989
   12.56638908  153.10800171    1.94000006    2.11999989
   12.57055569  158.49899292    1.94000006    2.11999989
   12.57388878  159.01600647    1.94000006    2.11999989
   12.57722187  162.55000305    1.94000006    2.11999989
   12.58027744  160.94700623    1.94000006    2.11999989
   12.58361053  162.57699585    1.91999996    2.11999989
   12.58444405  155.22599792    1.91999996    2.11999989
   12.58722210  152.29299927    1.91999996    2.11999989
   12.59027767  158.17900085    1.91999996    2.11999989
   12.59361076  156.50900269    1.91999996    2.11999989
   12.59694386  155.17300415    1.91999996    2.11999989
   12.60000038  159.40400696    1.89999998    2.13000011
   12.60333347  163.08500671    1.89999998    2.13000011
   12.60944462  163.08500671    1.89999998    2.13000011
   12.61361122  165.80299377    1.88000000    2.13000011
   12.61666679  162.97599792    1.88000000    2.13000011
   12.61777782  158.38699341    1.88000000    2.13000011
   12.62055588  169.51899719    1.88000000    2.13000011
   12.62361145  153.58900452    1.88000000    2.13000011
   12.62694454  161.73399353    1.88000000    2.13000011
   12.63027763  159.66000366    1.88000000    2.13000011
   12.63333321  160.36500549    1.86000001    2.13000011
   12.63666630  155.59199524    1.86000001    2.13000011
   12.64000034  157.87500000    1.86000001    2.13000011
   12.64305496  152.20399475    1.86000001    2.13000011
   12.64638901  147.25999451    1.86000001    2.13000011
   12.65222168  147.25999451    1.85000002    2.13000011
   12.65638828  158.08399963    1.85000002    2.15000010
   12.65972137  152.14999390    1.85000002    2.13000011
   12.66277695  155.74000549    1.83000004    2.15000010
   12.66611099  155.24699402    1.83000004    2.15000010
   12.66916656  174.45100403    1.83000004    2.15000010
   12.67250061  153.17799377    1.83000004    2.17000008
   12.67583370  159.78300476    1.83000004    2.15000010
   12.67888927  153.65199280    1.80999994    2.17000008
   12.68222237  152.54899597    1.80999994    2.17000008
   12.68444443  154.27200317    1.80999994    2.17000008
   12.68583298  148.96299744    1.80999994    2.17000008
   12.68916702  158.58099365    1.80999994    2.17000008
   12.69499969  158.58099365    1.80999994    2.17000008
   12.69916630  146.16999817    1.78999996    2.17000008
   12.70249939  139.05599976    1.78999996    2.17000008
   12.70555496  151.35899353    1.78999996    2.17000008
   12.70888901  159.34800720    1.76999998    2.17000008
   12.71222210  150.36099243    1.76999998    2.17000008
   12.71527767  155.04400635    1.76999998    2.17000008
   12.71777725  156.02299500    1.76999998    2.17000008
   12.71916580  154.45500183    1.76999998    2.17000008
   12.72249985  154.33799744    1.75000000    2.19000006
   12.72555542  154.90899658    1.76999998    2.19000006
   12.72888851  158.68099976    1.75000000    2.19000006
   12.73194408  165.08500671    1.75000000    2.19000006
   12.73805618  165.08500671    1.75000000    2.19000006
   12.74194431  158.38999939    1.73000002    2.19000006
   12.74527836  149.56399536    1.73000002    2.19000006
   12.74861145  151.19000244    1.75000000    2.19000006
   12.75111103  157.83999634    1.75000000    2.19000006
   12.75222206  151.42199707    1.75000000    2.19000006
   12.75555515  157.24600220    1.75000000    2.19000006
   12.75861073  152.84700012    1.73000002    2.19000006
   12.76194477  155.21499634    1.71000004    2.19000006
   12.76500034  144.00000000    1.71000004    2.19000006
   12.76833344  151.08700562    1.71000004    2.19000006
   12.77166653  150.67300415    1.71000004    2.19000006
   12.77472210  148.33999634    1.71000004    2.21000004
   12.78083324  148.33999634    1.71000004    2.21000004
   12.78500080  146.00700378    1.71000004    2.21000004
   12.78805637  144.72799683    1.71000004    2.21000004
   12.79138947  145.26800537    1.71000004    2.21000004
   12.79472256  145.29499817    1.69000006    2.21000004
   12.79777813  144.10600281    1.69000006    2.21000004
   12.80111122  150.10099792    1.69000006    2.21000004
   12.80416679  146.86399841    1.69000006    2.21000004
   12.80749989  150.64300537    1.66999996    2.21000004
   12.81083393  156.33000183    1.66999996    2.23000002
   12.81388950  148.52200317    1.64999998    2.23000002
   12.81722260  147.27200317    1.64999998    2.23000002
   12.81777763  153.82600403    1.64999998    2.23000002
   12.82361126  153.82600403    1.64999998    2.23000002
   12.82777786  145.39999390    1.64999998    2.23000002
   12.83083344  146.54699707    1.64999998    2.23000002
   12.83416653  143.34599304    1.64999998    2.23000002
   12.83749962  146.56799316    1.63000000    2.23000002
   12.84055519  146.00199890    1.63000000    2.23000002
   12.84388828  143.85800171    1.63000000    2.23000002
   12.84722233  138.93899536    1.63000000    2.23000002
   12.85027790  140.06300354    1.63000000    2.23000002
   12.85111141  144.75199890    1.61000001    2.25000000
   12.85416698  141.57699585    1.61000001    2.25000000
   12.85722256  143.02499390    1.63000000    2.23000002
   12.86055565  139.11099243    1.61000001    2.23000002
   12.86638927  139.11099243    1.61000001    2.25000000
   12.87055588  141.25500488    1.60000002    2.25000000
   12.87388897  148.19799805    1.60000002    2.25000000
   12.87694454  147.36000061    1.60000002    2.25000000
   12.88027763  138.46099854    1.60000002    2.25000000
   12.88361073  144.05599976    1.60000002    2.25000000
   12.88444424  140.26699829    1.58000004    2.25000000
   12.88722229  144.02600098    1.58000004    2.25000000
   12.89027786  144.12500000    1.58000004    2.25000000
   12.89388847  151.65600586    1.58000004    2.25000000
   12.89722252  142.72599792    1.58000004    2.25000000
   12.90027714  143.72500610    1.58000004    2.25000000
   12.90361118  143.15299988    1.58000004    2.25000000
   12.90916634  143.15299988    1.58000004    2.26999998
   12.91333294  135.58200073    1.58000004    2.25000000
   12.91666698  132.90800476    1.55999994    2.26999998
   12.91777802  137.00799561    1.55999994    2.26999998
   12.92027855  139.33900452    1.58000004    2.25000000
   12.92361164  141.91799927    1.58000004    2.25000000
   12.92666721  137.15400696    1.55999994    2.26999998
   12.93000031  134.68299866    1.55999994    2.26999998
   12.93305588  139.19999695    1.55999994    2.26999998
   12.93638897  137.72900391    1.55999994    2.26999998
   12.93972206  137.60099792    1.55999994    2.26999998
   12.94277763  140.78100586    1.55999994    2.26999998
   12.94611073  137.84800720    1.55999994    2.26999998
   12.95222187  137.84800720    1.55999994    2.26999998
   12.95638847  137.11399841    1.53999996    2.28999996
   12.95944405  139.33999634    1.53999996    2.28999996
   12.96277714  144.94700623    1.53999996    2.28999996
   12.96583271  140.85499573    1.53999996    2.26999998
   12.96916580  137.09100342    1.53999996    2.26999998
   12.97249985  142.77699280    1.53999996    2.26999998
   12.97555542  132.99699402    1.53999996    2.28999996
   12.97888851  152.75900269    1.53999996    2.28999996
   12.98222160  134.25700378    1.51999998    2.28999996
   12.98444462  162.78900146    1.51999998    2.28999996
   12.98583317  133.79600525    1.51999998    2.28999996
   12.98916721  139.62500000    1.51999998    2.28999996
   12.99499989  139.62500000    1.51999998    2.28999996
   12.99916649  165.34800720    1.50000000    2.28999996
   13.00222206  158.10200500    1.50000000    2.28999996
   13.00555515  161.93400574    1.50000000    2.28999996
   13.00888920  138.31100464    1.50000000    2.28999996
   13.01194477  140.13000488    1.50000000    2.28999996
   13.01527786  161.39199829    1.50000000    2.28999996
   13.01777744  149.92799377    1.50000000    2.30999994
   13.01888847  159.45199585    1.50000000    2.30999994
   13.02222157  158.97200012    1.50000000    2.30999994
   13.02527714  152.86300659    1.50000000    2.30999994
   13.02861118  184.36599731    1.50000000    2.30999994
   13.03194427  155.08200073    1.50000000    2.30999994
   13.03777790  155.08200073    1.48000002    2.30999994
   13.04194450  153.19999695    1.48000002    2.30999994
   13.04527855  152.53100586    1.48000002    2.30999994
   13.04833412  159.03399658    1.46000004    2.30999994
   13.05111122  159.54200745    1.46000004    2.30999994
   13.05222225  162.41600037    1.46000004    2.30999994
   13.05555534  140.26699829    1.46000004    2.30999994
   13.05861092  146.67799377    1.46000004    2.30999994
   13.06194496  148.12300110    1.46000004    2.32999992
   13.06500053  147.01400757    1.46000004    2.30999994
   13.06833363  141.17500305    1.46000004    2.30999994
   13.07166672  140.48100281    1.46000004    2.30999994
   13.07472229  139.71299744    1.46000004    2.30999994
   13.08055592  139.71299744    1.46000004    2.30999994
   13.08472157  141.07899475    1.46000004    2.32999992
   13.08805561  145.66999817    1.46000004    2.32999992
   13.09138870  139.48300171    1.46000004    2.32999992
   13.09444427  157.08399963    1.46000004    2.32999992
   13.09777737  140.65299988    1.44000006    2.32999992
   13.10111141  138.79299927    1.44000006    2.32999992
   13.10472298  137.43899536    1.44000006    2.32999992
   13.10777855  135.78300476    1.44000006    2.32999992
   13.11111164  150.78999329    1.44000006    2.32999992
   13.11416721  133.98800659    1.44000006    2.32999992
   13.11750031  135.95799255    1.44000006    2.32999992
   13.11805534  134.21800232    1.41999996    2.32999992
   13.12361145  134.21800232    1.41999996    2.32999992
   13.12777805  134.34399414    1.41999996    2.32999992
   13.13083363  131.19200134    1.41999996    2.32999992
   13.13416672  132.98300171    1.41999996    2.32999992
   13.13749981  149.94000244    1.41999996    2.32999992
   13.14055538  132.45300293    1.39999998    2.32999992
   13.14388847  138.10600281    1.41999996    2.34999990
   13.14694405  136.05099487    1.41999996    2.34999990
   13.15027714  130.03599548    1.41999996    2.32999992
   13.15138817  136.57800293    1.39999998    2.34999990
   13.15388870  135.02099609    1.39999998    2.34999990
   13.15694427  135.25100708    1.39999998    2.32999992
   13.16027737  133.48899841    1.39999998    2.34999990
   13.16638851  133.48899841    1.39999998    2.34999990
   13.17055607  137.39700317    1.38000000    2.34999990
   13.17361164  129.18299866    1.38000000    2.34999990
   13.17694473  134.40199280    1.38000000    2.34999990
   13.18027782  137.35400391    1.38000000    2.34999990
   13.18361092  127.94899750    1.38000000    2.34999990
   13.18500042  123.84100342    1.38000000    2.34999990
   13.18722248  137.96800232    1.38000000    2.34999990
   13.19055557  130.79800415    1.38000000    2.34999990
   13.19388866  135.12699890    1.36000001    2.34999990
   13.19694424  132.10099792    1.36000001    2.34999990
   13.20027733  137.05799866    1.36000001    2.36999989
   13.20361137  128.62500000    1.36000001    2.36999989
   13.20916653  128.62500000    1.36000001    2.36999989
   13.21333313  136.47700500    1.36000001    2.34999990
   13.21666622  132.26400757    1.36000001    2.34999990
   13.21805477  134.90800476    1.36000001    2.34999990
   13.22027779  133.22200012    1.36000001    2.34999990
   13.22333336  132.59800720    1.36000001    2.36999989
   13.22666645  130.41799927    1.34000003    2.36999989
   13.22999954  133.00500488    1.34000003    2.36999989
   13.23305511  134.03799438    1.34000003    2.36999989
   13.23638916  130.21299744    1.34000003    2.36999989
   13.23944473  134.71299744    1.34000003    2.36999989
   13.24277782  133.98199463    1.34000003    2.36999989
   13.24611092  128.29899597    1.34000003    2.36999989
   13.25194454  128.29899597    1.34000003    2.36999989
   13.25611115  127.73799896    1.34000003    2.36999989
   13.25944424  137.04600525    1.34000003    2.36999989
   13.26277733  136.76800537    1.33000004    2.36999989
   13.26583290  129.08099365    1.33000004    2.36999989
   13.26916599  130.86099243    1.33000004    2.36999989
   13.27222157  129.36799622    1.33000004    2.36999989
   13.27555561  136.36900330    1.33000004    2.39000010
   13.27888870  130.08599854    1.33000004    2.39000010
   13.28194427  140.24899292    1.30999994    2.36999989
   13.28472233  133.80599976    1.30999994    2.36999989
   13.28583336  142.55400085    1.30999994    2.36999989
   13.28916740  128.37399292    1.33000004    2.36999989
   13.29500008  128.37399292    1.30999994    2.39000010
   13.29916668  132.55200195    1.30999994    2.39000010
   13.30222225  133.94500732    1.33000004    2.39000010
   13.30555534  133.84399414    1.33000004    2.39000010
   13.30888939  127.45800018    1.33000004    2.39000010
   13.31194496  132.79100037    1.33000004    2.39000010
   13.31527805  136.07600403    1.33000004    2.39000010
   13.31805515  139.65499878    1.33000004    2.39000010
   13.31888866  132.19900513    1.33000004    2.39000010
   13.32222176  135.10499573    1.33000004    2.39000010
   13.32527733  134.90400696    1.30999994    2.39000010
   13.32861137  132.11199951    1.30999994    2.39000010
   13.33166695  140.53500366    1.30999994    2.39000010
   13.33777714  140.53500366    1.30999994    2.39000010
   13.34194374  134.37899780    1.30999994    2.39000010
   13.34499931  134.01400757    1.30999994    2.39000010
   13.34833336  135.24000549    1.28999996    2.39000010
   13.35138893  131.91799927    1.28999996    2.39000010
   13.35194492  128.44599915    1.28999996    2.39000010
   13.35527802  128.68400574    1.30999994    2.40000010
   13.35833359  129.55200195    1.30999994    2.39000010
   13.36166668  130.26699829    1.30999994    2.39000010
   13.36472225  126.46099854    1.28999996    2.39000010
   13.36805534  131.71400452    1.30999994    2.39000010
   13.37138939  129.48300171    1.28999996    2.40000010
   13.37444496  129.49200439    1.28999996    2.40000010
   13.38055611  129.49200439    1.28999996    2.40000010
   13.38472176  134.45799255    1.30999994    2.40000010
   13.38527775  133.70300293    1.30999994    2.40000010
   13.38833332  133.57000732    1.28999996    2.40000010
   13.39166641  132.37500000    1.28999996    2.40000010
   13.39499950  131.13699341    1.28999996    2.40000010
   13.39805508  144.54299927    1.36000001    2.40000010
   13.40138817  141.13600159    1.38000000    2.40000010
   13.40472221  131.35800171    1.33000004    2.40000010
   13.40777779  130.95399475    1.28999996    2.40000010
   13.41111088  135.80000305    1.30999994    2.40000010
   13.41416645  129.08099365    1.28999996    2.40000010
   13.41750050  129.34800720    1.26999998    2.40000010
   13.41805553  131.11599731    1.26999998    2.40000010
   13.43888855  131.11599731    1.26999998    2.40000010
   13.44305515  136.21200562    1.25000000    2.42000008
   13.44611073  134.03300476    1.25000000    2.40000010
   13.44944477  131.15400696    1.25000000    2.40000010
   13.45138836  128.95199585    1.25000000    2.40000010
   13.45305538  130.14799500    1.25000000    2.40000010
   13.45638847  128.58700562    1.25000000    2.40000010
   13.45944405  123.58699799    1.25000000    2.40000010
   13.46277714  130.98399353    1.25000000    2.42000008
   13.46583271  126.26699829    1.25000000    2.42000008
   13.46916580  127.42099762    1.25000000    2.42000008
   13.47249985  127.95400238    1.23000002    2.42000008
   13.47555542  125.53900146    1.23000002    2.42000008
   13.48166656  125.53900146    1.23000002    2.42000008
   13.48583317  130.27200317    1.23000002    2.42000008
   13.48888874  127.15299988    1.21000004    2.42000008
   13.49222279  138.96800232    1.21000004    2.42000008
   13.49527836  147.51300049    1.21000004    2.42000008
   13.49861145  168.00900269    1.21000004    2.42000008
   13.50194454  163.33399963    1.23000002    2.42000008
   13.50500011  141.37699890    1.23000002    2.42000008
   13.50833321  148.29600525    1.21000004    2.42000008
   13.51166630  136.05400085    1.23000002    2.44000006
   13.51472187  135.48199463    1.23000002    2.42000008
   13.51805496  129.88900757    1.23000002    2.44000006
   13.51861095  125.71600342    1.23000002    2.44000006
   13.52444458  125.71600342    1.23000002    2.42000008
   13.52861118  128.33200073    1.23000002    2.42000008
   13.53166676  133.00500488    1.23000002    2.44000006
   13.53500080  128.87399292    1.23000002    2.42000008
   13.53833389  127.48799896    1.23000002    2.42000008
   13.54138947  132.57400513    1.23000002    2.42000008
   13.54472256  128.41400146    1.23000002    2.44000006
   13.54777813  130.24499512    1.21000004    2.44000006
   13.55111122  134.63299561    1.21000004    2.44000006
   13.55166721  131.93899536    1.21000004    2.44000006
   13.55500031  133.64999390    1.21000004    2.44000006
   13.55805588  131.55400085    1.21000004    2.44000006
   13.56138897  129.12100220    1.23000002    2.44000006
   13.56722260  129.12100220    1.21000004    2.44000006
   13.57138920  127.27200317    1.21000004    2.44000006
   13.57472229  125.68399811    1.21000004    2.46000004
   13.57777786  122.70500183    1.19000006    2.44000006
   13.58111095  126.38899994    1.19000006    2.44000006
   13.58416653  129.02699280    1.16999996    2.44000006
   13.58500004  127.31999969    1.16999996    2.44000006
   13.58805561  123.50000000    1.16999996    2.44000006
   13.59111118  121.85299683    1.16999996    2.44000006
   13.59444427  123.15799713    1.16999996    2.44000006
   13.59777737  126.64099884    1.14999998    2.46000004
   13.60083389  125.65799713    1.14999998    2.46000004
   13.60416698  133.49600220    1.14999998    2.46000004
   13.61000061  133.49600220    1.14999998    2.46000004
   13.61416721  127.44400024    1.14999998    2.44000006
   13.61750031  127.10900116    1.14999998    2.46000004
   13.61833382  123.08300018    1.14999998    2.46000004
   13.62111092  126.28500366    1.13000000    2.44000006
   13.62416649  126.00099945    1.13000000    2.44000006
   13.62750053  123.32299805    1.14999998    2.46000004
   13.63083363  127.68299866    1.13000000    2.46000004
   13.63388920  121.62000275    1.13000000    2.46000004
   13.63722229  125.46399689    1.13000000    2.46000004
   13.64027786  126.01499939    1.13000000    2.46000004
   13.64361095  128.19999695    1.13000000    2.46000004
   13.64694405  127.20800018    1.13000000    2.46000004
   13.65305519  127.20800018    1.13000000    2.46000004
   13.65694427  131.55900574    1.11000001    2.46000004
   13.66027737  128.40800476    1.13000000    2.46000004
   13.66361046  128.70500183    1.11000001    2.46000004
   13.66666698  133.31900024    1.11000001    2.46000004
   13.67000008  126.56700134    1.11000001    2.46000004
   13.67333412  131.40199280    1.11000001    2.46000004
   13.67638874  123.09500122    1.11000001    2.46000004
   13.67972279  133.77699280    1.11000001    2.46000004
   13.68305588  131.53199768    1.11000001    2.46000004
   13.68500042  128.13800049    1.11000001    2.46000004
   13.68666649  126.78600311    1.11000001    2.46000004
   13.68972206  136.67999268    1.13000000    2.48000002
   13.69583321  136.67999268    1.13000000    2.46000004
   13.69999981  131.18800354    1.11000001    2.46000004
   13.70305538  132.15800476    1.11000001    2.46000004
   13.70638847  131.85699463    1.11000001    2.46000004
   13.70972157  134.80900574    1.11000001    2.46000004
   13.71277714  126.44599915    1.11000001    2.46000004
   13.71611118  124.54699707    1.11000001    2.46000004
   13.71833324  129.52699280    1.11000001    2.46000004
   13.71972179  124.52100372    1.09000003    2.46000004
   13.72277737  127.38700104    1.09000003    2.46000004
   13.72611046  132.83299255    1.09000003    2.48000002
   13.72944355  137.49899292    1.09000003    2.48000002
   13.73249912  129.03900146    1.09000003    2.48000002
   13.73861122  129.03900146    1.07000005    2.46000004
   13.74277782  134.91600037    1.07000005    2.48000002
   13.74611092  126.37999725    1.07000005    2.48000002
   13.74916649  130.03999329    1.07000005    2.46000004
   13.75166702  124.29499817    1.07000005    2.46000004
   13.75305557  129.62100220    1.07000005    2.48000002
   13.75611115  127.62799835    1.07000005    2.48000002
   13.75944424  126.30300140    1.07000005    2.48000002
   13.76277733  131.01400757    1.09000003    2.46000004
   13.76583290  124.29900360    1.09000003    2.48000002
   13.76916599  132.51100159    1.09000003    2.48000002
   13.77250004  126.36599731    1.11000001    2.48000002
   13.77555561  124.44499969    1.11000001    2.48000002
   13.78138828  124.44499969    1.11000001    2.48000002
   13.78555584  131.62100220    1.09000003    2.48000002
   13.78888893  132.71299744    1.07000005    2.48000002
   13.79194450  131.64199829    1.07000005    2.48000002
   13.79527855  129.80499268    1.07000005    2.48000002
   13.79861164  129.70199585    1.05999994    2.48000002
   13.80166721  133.94400024    1.05999994    2.48000002
   13.80500031  133.27400208    1.05999994    2.48000002
   13.80833340  130.61999512    1.05999994    2.48000002
   13.81138897  136.53199768    1.05999994    2.48000002
   13.81472206  130.45500183    1.05999994    2.48000002
   13.81777763  136.81599426    1.05999994    2.48000002
   13.81833363  137.90699768    1.05999994    2.48000002
   13.82444477  137.90699768    1.05999994    2.48000002
   13.82833290  136.81100464    1.05999994    2.48000002
   13.83166695  142.38200378    1.05999994    2.48000002
   13.83500004  141.29400635    1.05999994    2.48000002
   13.83805561  142.24299622    1.03999996    2.48000002
   13.84138870  142.87600708    1.03999996    2.48000002
   13.84472179  140.49699402    1.05999994    2.48000002
   13.84777737  136.60699463    1.05999994    2.48000002
   13.85111141  140.95300293    1.05999994    2.48000002
   13.85166740  135.67999268    1.05999994    2.48000002
   13.85472298  143.93099976    1.05999994    2.50000000
   13.85805607  138.03999329    1.05999994    2.50000000
   13.86111164  137.18600464    1.05999994    2.50000000
   13.86722279  137.18600464    1.05999994    2.48000002
   13.87138939  138.29499817    1.05999994    2.48000002
   13.87444496  137.27200317    1.05999994    2.50000000
   13.87777805  145.58299255    1.05999994    2.50000000
   13.88111115  146.60200500    1.05999994    2.50000000
   13.88416672  144.52200317    1.05999994    2.48000002
   13.88500023  138.85000610    1.03999996    2.50000000
   13.88777733  134.11900330    1.03999996    2.48000002
   13.89111137  139.05900574    1.03999996    2.50000000
   13.89416695  144.11300659    1.03999996    2.48000002
   13.89750004  135.63400269    1.03999996    2.48000002
   13.90083313  139.61900330    1.03999996    2.48000002
   13.90388870  140.47099304    1.05999994    2.50000000
   13.90999985  140.47099304    1.03999996    2.50000000
   13.91416645  137.06799316    1.03999996    2.50000000
   13.91750050  129.21000671    1.05999994    2.50000000
   13.91833401  139.29299927    1.05999994    2.50000000
   13.92111111  140.06399536    1.03999996    2.50000000
   13.92444515  130.89700317    1.03999996    2.50000000
   13.92750072  134.30999756    1.03999996    2.50000000
   13.93083382  140.66099548    1.03999996    2.50000000
   13.93416691  137.53300476    1.03999996    2.50000000
   13.93722248  143.57200623    1.03999996    2.50000000
   13.94055557  140.72900391    1.03999996    2.50000000
   13.94361115  144.83799744    1.03999996    2.50000000
   13.94694424  143.62500000    1.03999996    2.50000000
   13.95277786  143.62500000    1.03999996    2.50000000
   13.95694447  137.69999695    1.03999996    2.50000000
   13.96055508  139.62800598    1.01999998    2.50000000
   13.96361065  137.93800354    1.01999998    2.50000000
   13.96694374  139.70700073    1.01999998    2.51999998
   13.97027779  141.14900208    1.01999998    2.50000000
   13.97333336  135.28300476    1.01999998    2.50000000
   13.97666645  139.17799377    1.01999998    2.50000000
   13.97999954  147.02900696    1.00000000    2.50000000
   13.98305511  145.87600708    1.00000000    2.51999998
   13.98500061  142.99600220    1.01999998    2.51999998
   13.98666668  136.64700317    1.01999998    2.51999998
   13.99000072  134.56199646    1.01999998    2.50000000
   13.99583340  134.56199646    1.00000000    2.50000000
   13.99972248  136.83900452    1.00000000    2.50000000
   14.00305557  138.78199768    1.01999998    2.50000000
   14.00638866  138.99200439    1.00000000    2.51999998
   14.00972176  140.62699890    1.00000000    2.51999998
   14.01277733  133.03900146    1.01999998    2.50000000
   14.01611137  138.99299622    1.01999998    2.51999998
   14.01861095  141.05999756    1.01999998    2.51999998
   14.01972198  135.35299683    1.01999998    2.51999998
   14.02305508  135.94599915    1.00000000    2.50000000
   14.02638817  135.42700195    1.00000000    2.50000000
   14.02944374  132.11700439    1.00000000    2.51999998
   14.03277779  133.64300537    1.00000000    2.51999998
   14.03861141  133.64300537    1.00000000    2.51999998
   14.04277802  141.26100159    1.00000000    2.51999998
   14.04583359  134.44799805    1.00000000    2.51999998
   14.04916668  134.81300354    0.98000002    2.51999998
   14.05166721  133.27499390    0.98000002    2.51999998
   14.05277824  130.98899841    1.00000000    2.51999998
   14.05611134  146.60699463    1.00000000    2.51999998
   14.05916691  129.99600220    1.00000000    2.51999998
   14.06250000  132.64199829    0.98000002    2.51999998
   14.06583309  137.46299744    0.98000002    2.51999998
   14.06888866  133.03399658    0.98000002    2.51999998
   14.07222176  134.57600403    1.00000000    2.51999998
   14.07555580  149.10600281    1.00000000    2.51999998
   14.08138847  149.10600281    1.00000000    2.51999998
   14.08555508  143.23399353    0.98000002    2.51999998
   14.08888817  135.29100037    0.98000002    2.51999998
   14.09194374  138.34199524    0.98000002    2.51999998
   14.09527779  140.29299927    0.98000002    2.51999998
   14.09833336  139.98800659    0.98000002    2.51999998
   14.10166740  142.34399414    0.98000002    2.51999998
   14.10500050  132.88299561    0.95999998    2.51999998
   14.10805607  140.92700195    0.98000002    2.51999998
   14.11138916  132.20100403    0.98000002    2.51999998
   14.11472225  143.18600464    0.98000002    2.51999998
   14.11777782  138.70599365    0.98000002    2.51999998
   14.11861134  137.37199402    0.95999998    2.51999998
   14.12416649  137.37199402    0.98000002    2.51999998
   14.12833309  142.09100342    0.98000002    2.51999998
   14.13166714  132.05400085    0.98000002    2.53999996
   14.13472176  134.40600586    0.95999998    2.53999996
   14.13805580  132.72500610    0.95999998    2.51999998
   14.14138889  141.71499634    0.95999998    2.51999998
   14.14444447  146.88000488    0.95999998    2.51999998
   14.14777756  141.20599365    0.98000002    2.53999996
   14.15111065  142.29100037    0.95999998    2.51999998
   14.15194416  140.99000549    0.95999998    2.51999998
   14.15472221  143.58599854    0.95999998    2.51999998
   14.15777779  141.37600708    0.95999998    2.51999998
   14.16111088  137.35899353    0.98000002    2.51999998
   14.16722298  137.35899353    0.95999998    2.53999996
   14.17111111  144.68299866    0.95999998    2.51999998
   14.17444515  144.36500549    0.95999998    2.51999998
   14.17777824  147.60099792    0.95999998    2.53999996
   14.18083382  144.54400635    0.95999998    2.53999996
   14.18416691  144.91200256    0.95999998    2.53999996
   14.18527794  144.67500305    0.95999998    2.53999996
   14.18777752  166.15800476    0.95999998    2.51999998
   14.19111156  135.04100037    0.95999998    2.51999998
   14.19444466  138.90800476    0.95999998    2.53999996
   14.19750023  144.13400269    0.95999998    2.53999996
   14.20083332  146.25799561    0.95999998    2.53999996
   14.20416641  147.01899719    0.95999998    2.51999998
   14.21000004  147.01899719    0.94000000    2.53999996
   14.21416664  145.57800293    0.94000000    2.53999996
   14.21722221  138.97000122    0.94000000    2.53999996
   14.21861076  149.75199890    0.95999998    2.53999996
   14.22083282  129.57099915    0.95999998    2.53999996
   14.22416592  144.16299438    0.95999998    2.53999996
   14.22722149  141.97399902    0.94000000    2.53999996
   14.23055553  135.22799683    0.94000000    2.53999996
   14.23388958  145.66099548    0.95999998    2.53999996
   14.23694515  144.06599426    0.95999998    2.53999996
   14.24027824  142.62399292    0.95999998    2.53999996
   14.24361134  143.65199280    0.95999998    2.53999996
   14.24666691  144.07899475    0.95999998    2.53999996
   14.25277805  144.07899475    0.95999998    2.53999996
   14.25694466  142.61999512    0.95999998    2.55999994
   14.26027775  145.43899536    0.95999998    2.55999994
   14.26333332  152.86300659    0.95999998    2.53999996
   14.26666641  138.15600586    0.95999998    2.53999996
   14.26972198  146.09199524    0.95999998    2.53999996
   14.27305508  144.77999878    0.95999998    2.53999996
   14.27638817  142.70300293    0.95999998    2.53999996
   14.27944374  146.98399353    0.95999998    2.53999996
   14.28277779  149.75999451    0.95999998    2.53999996
   14.28527832  142.03599548    0.95999998    2.53999996
   14.28638935  147.19299316    0.95999998    2.53999996
   14.28972244  141.41400146    0.95999998    2.53999996
   14.29555607  141.41400146    0.95999998    2.55999994
   14.29972267  137.09500122    0.95999998    2.53999996
   14.30305576  140.41400146    0.95999998    2.53999996
   14.30611134  138.65699768    0.95999998    2.53999996
   14.30944443  143.93200684    0.94000000    2.53999996
   14.31277752  144.17700195    0.94000000    2.53999996
   14.31583309  141.73199463    0.94000000    2.55999994
   14.31861115  150.82099915    0.95999998    2.55999994
   14.31944466  146.30200195    0.94000000    2.55999994
   14.32277775  137.36700439    0.94000000    2.53999996
   14.32611084  139.05700684    0.94000000    2.55999994
   14.32916641  139.87100220    0.94000000    2.53999996
   14.33249950  144.81300354    0.94000000    2.53999996
   14.33833313  144.81300354    0.94000000    2.53999996
   14.34249973  143.28100586    0.94000000    2.55999994
   14.34583282  143.76600647    0.94000000    2.55999994
   14.34916592  141.98800659    0.94000000    2.55999994
   14.35194492  135.70500183    0.94000000    2.55999994
   14.35249996  144.00199890    0.94000000    2.55999994
   14.35583401  140.39399719    0.94000000    2.53999996
   14.35916710  140.52000427    0.95999998    2.55999994
   14.36222267  141.93800354    0.95999998    2.55999994
   14.36555576  135.86900330    0.95999998    2.53999996
   14.36861134  158.48500061    0.95999998    2.55999994
   14.37194443  140.02400208    1.00000000    2.55999994
   14.37527752  138.10099792    0.95999998    2.55999994
   14.38138866  138.10099792    0.94000000    2.55999994
   14.38555527  140.65800476    0.94000000    2.55999994
   14.38861084  134.89900208    0.94000000    2.55999994
   14.39194393  144.29800415    0.94000000    2.55999994
   14.39499950  137.06900024    0.94000000    2.53999996
   14.39833355  131.12800598    0.94000000    2.55999994
   14.40166664  144.97599792    0.94000000    2.55999994
   14.40472221  135.82600403    0.95999998    2.55999994
   14.40805531  131.45100403    0.94000000    2.55999994
   14.41138840  134.40400696    0.94000000    2.55999994
   14.41444397  133.45399475    0.92000002    2.55999994
   14.41777802  136.41400146    0.94000000    2.53999996
   14.41861153  137.33500671    0.94000000    2.53999996
   14.42416668  137.33500671    0.92000002    2.55999994
   14.42833328  140.73500061    0.92000002    2.55999994
   14.43166733  135.93600464    0.92000002    2.55999994
   14.43472195  141.13600159    0.92000002    2.55999994
   14.45222187  137.12100220    0.94000000    2.55999994
   14.45472240  138.89700317    0.94000000    2.55999994
   14.45805550  130.84899902    0.94000000    2.55999994
   14.46111107  143.78700256    0.92000002    2.55999994
   14.46722221  143.78700256    0.92000002    2.55999994
   14.47138882  136.20399475    0.92000002    2.55999994
   14.47444439  140.51600647    0.94000000    2.55999994
   14.47777748  135.07099915    0.94000000    2.55999994
   14.48111057  142.55700684    0.92000002    2.55999994
   14.48416710  145.54699707    0.92000002    2.55999994
   14.48555565  139.14700317    0.92000002    2.55999994
   14.48805618  140.07200623    0.94000000    2.55999994
   14.49111176  136.66700745    0.94000000    2.55999994
   14.49444485  139.80200195    0.92000002    2.55999994
   14.49777794  135.28300476    0.92000002    2.55999994
   14.50083351  133.71000671    0.92000002    2.55999994
   14.50416660  134.33700562    0.92000002    2.55999994
   14.51000023  134.33700562    0.92000002    2.55999994
   14.51416683  127.86699677    0.92000002    2.55999994
   14.51749992  134.71600342    0.92000002    2.55999994
   14.51888847  130.98599243    0.92000002    2.55999994
   14.52111053  130.36199951    0.92000002    2.55999994
   14.52444458  132.24499512    0.92000002    2.55999994
   14.52750015  139.66900635    0.94000000    2.55999994
   14.53083324  142.05299377    0.92000002    2.55999994
   14.53388977  128.89500427    0.92000002    2.55999994
   14.53722286  135.16799927    0.92000002    2.55999994
   14.54055595  125.08000183    0.92000002    2.55999994
   14.54361153  137.49699402    0.92000002    2.55999994
   14.54694462  132.10699463    0.92000002    2.55999994
   14.55277824  132.10699463    0.92000002    2.55999994
   14.55694485  142.56199646    0.92000002    2.55999994
   14.56027794  128.70700073    0.92000002    2.55999994
   14.56361103  150.55299377    0.92000002    2.55999994
   14.56666660  134.85499573    0.92000002    2.55999994
   14.56999969  143.09399414    0.92000002    2.55999994
   14.57305527  151.55200195    0.92000002    2.55999994
   14.57638836  137.95700073    0.92000002    2.57999992
   14.57972240  138.05900574    0.92000002    2.55999994
   14.58277798  135.00700378    0.89999998    2.57999992
   14.58555508  139.58900452    0.89999998    2.57999992
   14.58666611  142.94200134    0.92000002    2.57999992
   14.58972168  141.23100281    0.92000002    2.57999992
   14.59583282  141.23100281    0.92000002    2.55999994
   14.59972191  132.38099670    0.89999998    2.55999994
   14.60305595  129.48100281    0.89999998    2.55999994
   14.60638905  137.66799927    0.89999998    2.55999994
   14.60944462  133.36500549    0.92000002    2.55999994
   14.61277771  129.50100708    0.92000002    2.55999994
   14.61611176  128.90800476    0.92000002    2.55999994
   14.61888885  129.60800171    0.92000002    2.55999994
   14.61972237  138.04800415    0.92000002    2.55999994
   14.62305546  126.29399872    0.92000002    2.55999994
   14.62611103  131.92300415    0.92000002    2.55999994
   14.62944412  130.24899292    0.89999998    2.55999994
   14.63277817  134.17599487    0.89999998    2.57999992
   14.63861084  134.17599487    0.92000002    2.57999992
   14.64277744  139.24699402    0.92000002    2.57999992
   14.64583302  144.03999329    0.92000002    2.57999992
   14.64916611  133.21200562    0.92000002    2.57999992
   14.65222168  128.88299561    0.92000002    2.57999992
   14.65277767  133.22399902    0.92000002    2.57999992
   14.65583324  141.34100342    0.92000002    2.57999992
   14.65916634  138.87600708    0.92000002    2.57999992
   14.66249943  140.53100586    0.92000002    2.57999992
   14.66555500  132.23500061    0.92000002    2.57999992
   14.66888905  133.84199524    0.92000002    2.57999992
   14.67222214  130.61999512    0.89999998    2.57999992
   14.67527771  130.59599304    0.92000002    2.57999992
   14.68138885  130.59599304    0.92000002    2.57999992
   14.68555546  120.42500305    0.92000002    2.57999992
   14.68611145  122.85600281    0.92000002    2.57999992
   14.68916702  125.58799744    0.92000002    2.57999992
   14.69250011  128.79200745    0.92000002    2.57999992
   14.69583321  131.33299255    0.92000002    2.57999992
   14.69888878  132.30299377    0.92000002    2.59999990
   14.70222187  129.52699280    0.92000002    2.57999992
   14.70555496  136.62199402    0.92000002    2.57999992
   14.70888901  127.44999695    0.92000002    2.57999992
   14.71194458  133.05099487    0.92000002    2.57999992
   14.71527767  126.09100342    0.92000002    2.57999992
   14.71861076  121.13200378    0.92000002    2.57999992
   14.71916580  126.01300049    0.92000002    2.57999992
   14.72416592  126.01300049    0.92000002    2.57999992
   14.72833252  124.46600342    0.92000002    2.57999992
   14.73166656  132.42700195    0.92000002    2.57999992
   14.73472214  126.13600159    0.92000002    2.57999992
   14.73805618  131.34899902    0.89999998    2.57999992
   14.74138927  128.47799683    0.89999998    2.57999992
   14.74444485  133.55299377    0.92000002    2.57999992
   14.74777794  123.48799896    0.89999998    2.57999992
   14.75111103  124.29799652    0.89999998    2.57999992
   14.75249958  125.98500061    0.89999998    2.59999990
   14.75444412  129.09199524    0.89999998    2.57999992
   14.75777817  128.68200684    0.89999998    2.59999990
   14.76111126  131.35899353    0.89999998    2.57999992
   14.76722240  131.35899353    0.89999998    2.57999992
   14.77138901  129.61999512    0.88000000    2.59999990
   14.77444458  128.80400085    0.88000000    2.57999992
   14.77777767  127.23400116    0.89999998    2.59999990
   14.78083324  124.62599945    0.89999998    2.57999992
   14.78416729  134.72900391    0.89999998    2.57999992
   14.78583336  129.65199280    0.89999998    2.59999990
   14.78777790  124.56099701    0.89999998    2.59999990
   14.79111195  126.45500183    0.89999998    2.57999992
   14.79472256  128.27699280    0.89999998    2.57999992
   14.79777813  125.67800140    0.89999998    2.57999992
   14.80111122  129.64599609    0.89999998    2.55999994
   14.80444431  128.08399963    0.89999998    2.57999992
   14.81000042  128.08399963    0.89999998    2.59999990
   14.81416702  124.96399689    0.89999998    2.57999992
   14.81722260  131.47099304    0.89999998    2.59999990
   14.81916618  123.07800293    0.89999998    2.57999992
   14.82083321  139.38900757    0.89999998    2.57999992
   14.82416630  133.58700562    0.89999998    2.57999992
   14.82750034  123.74099731    0.89999998    2.57999992
   14.83055592  135.90100098    0.88000000    2.57999992
   14.83388901  124.59200287    0.88000000    2.57999992
   14.83694458  129.99099731    0.88000000    2.57999992
   14.84027767  130.09599304    0.88000000    2.59999990
   14.84361076  120.79399872    0.88000000    2.59999990
   14.84666634  137.16200256    0.88000000    2.57999992
   14.85277843  137.16200256    0.88000000    2.57999992
   14.85694504  123.20500183    0.88000000    2.57999992
   14.86000061  124.83100128    0.88000000    2.59999990
   14.86333370  133.05799866    0.88000000    2.59999990
   14.86666679  130.87600708    0.88000000    2.59999990
   14.86972237  121.27400208    0.88000000    2.59999990
   14.87305546  128.41400146    0.88000000    2.59999990
   14.87638855  130.19099426    0.86000001    2.59999990
   14.87944412  128.78599548    0.86000001    2.59999990
   14.88277817  121.71600342    0.86000001    2.59999990
   14.88583279  122.02100372    0.86000001    2.59999990
   14.88638878  123.16899872    0.86000001    2.59999990
   14.88972187  135.78799438    0.86000001    2.57999992
   14.89555550  135.78799438    0.88000000    2.57999992
   14.89972210  129.68299866    0.88000000    2.57999992
   14.90305519  134.99800110    0.88000000    2.59999990
   14.90611076  123.99199677    0.88000000    2.59999990
   14.90944386  136.33799744    0.88000000    2.59999990
   14.91277695  130.19099426    0.89999998    2.59999990
   14.91583252  127.50099945    0.88000000    2.59999990
   14.91916656  124.10600281    0.88000000    2.57999992
   14.91944504  135.29200745    0.88000000    2.57999992
   14.92277813  126.11000061    0.88000000    2.57999992
   14.92611122  125.76100159    0.88000000    2.59999990
   14.92916679  118.73799896    0.88000000    2.59999990
   14.93249989  125.84300232    0.88000000    2.59999990
   14.93861103  125.84300232    0.89999998    2.59999990
   14.94250011  120.03199768    0.89999998    2.59999990
   14.94583321  136.54600525    0.88000000    2.59999990
   14.94916630  128.07200623    0.89999998    2.59999990
   14.95222187  130.38299561    0.89999998    2.57999992
   14.95277786  126.34799957    0.89999998    2.57999992
   14.95611095  127.87899780    0.88000000    2.59999990
   14.95944405  118.99700165    0.88000000    2.59999990
   14.96249962  129.67399597    0.89999998    2.59999990
   14.96583271  128.74499512    0.89999998    2.59999990
   14.96916580  132.26400757    0.89999998    2.59999990
   14.97249985  122.79199982    0.89999998    2.59999990
   14.97555542  126.96399689    0.89999998    2.59999990
   14.98138809  126.96399689    0.89999998    2.59999990
   14.98555565  136.95300293    0.89999998    2.59999990
   14.98611164  134.04400635    0.89999998    2.59999990
   14.98916721  131.81500244    0.89999998    2.59999990
   14.99250031  143.57299805    0.89999998    2.59999990
   14.99555588  142.10200500    0.89999998    2.59999990
   14.99888897  127.03199768    0.89999998    2.59999990
   15.00194454  122.12100220    0.89999998    2.59999990
   15.00527763  126.10600281    0.92000002    2.59999990
   15.00861073  146.60499573    0.92000002    2.59999990
   15.01166630  134.82600403    0.89999998    2.61999989
   15.01500034  129.81700134    0.92000002    2.57999992
   15.01833344  131.32600403    0.92000002    2.59999990
   15.01944447  145.21099854    0.92000002    2.59999990
   15.02416611  145.21099854    0.89999998    2.59999990
   15.02833271  135.33799744    0.89999998    2.59999990
   15.03166676  130.20199585    0.89999998    2.59999990
   15.03472233  139.27200317    0.89999998    2.61999989
   15.03805637  137.78300476    0.89999998    2.59999990
   15.04138947  130.07299805    0.89999998    2.59999990
   15.04444504  130.63000488    0.89999998    2.59999990
   15.04777813  128.10200500    0.89999998    2.59999990
   15.05111122  141.48599243    0.92000002    2.59999990
   15.05277824  126.86499786    0.92000002    2.59999990
   15.05472279  124.26499939    0.89999998    2.61999989
   15.05805588  128.81599426    0.92000002    2.59999990
   15.06111145  130.40800476    0.89999998    2.59999990
   15.06694412  130.40800476    0.92000002    2.59999990
   15.07111073  123.18699646    0.89999998    2.59999990
   15.07444477  130.79699707    0.92000002    2.59999990
   15.07777786  133.24800110    0.92000002    2.59999990
   15.08083344  111.06199646    0.92000002    2.59999990
   15.08416653  123.48799896    0.92000002    2.59999990
   15.08611107  126.29499817    0.92000002    2.59999990
   15.08777714  130.98800659    0.92000002    2.59999990
   15.09111118  114.74400330    0.89999998    2.59999990
   15.09444427  126.58000183    0.89999998    2.59999990
   15.09749985  131.08500671    0.89999998    2.59999990
   15.10083389  126.59100342    0.89999998    2.59999990
   15.10388947  118.78199768    0.89999998    2.59999990
   15.11000061  118.78199768    0.89999998    2.59999990
   15.11416721  134.78399658    0.89999998    2.59999990
   15.11722279  129.22200012    0.89999998    2.59999990
   15.11972237  133.37699890    0.89999998    2.59999990
   15.12083340  136.76499939    0.89999998    2.59999990
   15.12416649  124.67700195    0.89999998    2.59999990
   15.12750053  136.04200745    0.89999998    2.59999990
   15.13055611  131.91200256    0.92000002    2.59999990
   15.13388920  131.64999390    0.92000002    2.59999990
   15.13694477  127.23899841    0.92000002    2.59999990
   15.14027786  120.41500092    0.92000002    2.61999989
   15.14361095  122.81199646    0.92000002    2.61999989
   15.14666653  125.82299805    0.92000002    2.59999990
   15.15277767  125.82299805    0.92000002    2.59999990
   15.15694427  127.21099854    0.94000000    2.59999990
   15.15999985  141.08999634    0.94000000    2.59999990
   15.16333294  135.22900391    0.92000002    2.59999990
   15.16666698  121.43099976    0.94000000    2.61999989
   15.16972256  121.51200104    0.94000000    2.59999990
   15.17305565  129.57400513    0.94000000    2.61999989
   15.17611122  127.98000336    0.92000002    2.59999990
   15.17944431  124.98400116    0.92000002    2.59999990
   15.18277836  121.92400360    0.94000000    2.59999990
   15.18583298  130.66700745    0.94000000    2.59999990
   15.18777752  127.61000061    0.94000000    2.59999990
   15.18972206  124.28399658    0.94000000    2.59999990
   15.19555569  124.28399658    0.92000002    2.59999990
   15.19972229  123.41500092    0.92000002    2.61999989
   15.20277786  121.10399628    0.88000000    2.59999990
   15.20611095  121.93199921    0.88000000    2.61999989
   15.20944405  118.98899841    0.88000000    2.61999989
   15.21249962  126.88099670    0.88000000    2.59999990
   15.21583271  125.74099731    0.88000000    2.59999990
   15.21916580  125.57599640    0.88000000    2.61999989
   15.22111034  129.99099731    0.88000000    2.61999989
   15.22277737  123.83699799    0.88000000    2.59999990
   15.22583294  122.46099854    0.88000000    2.61999989
   15.22916603  129.22500610    0.88000000    2.61999989
   15.23222160  115.05100250    0.88000000    2.61999989
   15.23833370  115.05100250    0.89999998    2.61999989
   15.24250031  112.90899658    0.88000000    2.61999989
   15.24583340  123.75499725    0.88000000    2.61999989
   15.24888897  119.61599731    0.86000001    2.61999989
   15.25222206  130.88000488    0.86000001    2.61999989
   15.25472260   91.14600372    0.86000001    2.61999989
   15.25583363  117.19599915    0.86000001    2.61999989
   15.25916672  131.75799561    0.83999997    2.61999989
   15.26249981  121.68000031    0.86000001    2.61999989
   15.26555538  130.10800171    0.86000001    2.61999989
   15.26888847  126.09400177    0.83999997    2.61999989
   15.27194405  140.82200623    0.83999997    2.61999989
   15.27527714  133.83200073    0.83999997    2.61999989
   15.28138828  133.83200073    0.86000001    2.61999989
   15.28527832  126.65100098    0.86000001    2.61999989
   15.28805637  135.07200623    0.86000001    2.61999989
   15.28888893  136.75700378    0.86000001    2.61999989
   15.29222298  123.29299927    0.86000001    2.61999989
   15.29555607  112.60900116    0.86000001    2.61999989
   15.29861164  122.28600311    0.86000001    2.61999989
   15.30194473  127.01699829    0.86000001    2.61999989
   15.30527782  136.24299622    0.86000001    2.61999989
   15.30833340  124.59500122    0.86000001    2.61999989
   15.31166649  130.02099609    0.86000001    2.61999989
   15.31472206  130.49099731    0.86000001    2.61999989
   15.31805515  128.90499878    0.86000001    2.61999989
   15.32416630  128.90499878    0.86000001    2.61999989
   15.32833290  133.89300537    0.88000000    2.61999989
   15.33138847  127.43099976    0.86000001    2.61999989
   15.33472157  124.50599670    0.86000001    2.61999989
   15.33805561  140.44700623    0.86000001    2.61999989
   15.34111118  134.55400085    0.86000001    2.61999989
   15.34444427  125.62699890    0.86000001    2.61999989
   15.34749985  137.83999634    0.86000001    2.61999989
   15.35083389  131.82600403    0.86000001    2.61999989
   15.35416698  144.66499329    0.86000001    2.61999989
   15.35500050  132.14700317    0.86000001    2.61999989
   15.35777855  124.66600037    0.86000001    2.61999989
   15.36083412  125.40200043    0.88000000    2.61999989
   15.36694431  125.40200043    0.86000001    2.61999989
   15.37111092  122.99700165    0.86000001    2.61999989
   15.37444496  121.05599976    0.88000000    2.61999989
   15.37750053  123.00099945    0.88000000    2.61999989
   15.38083363  127.90100098    0.88000000    2.61999989
   15.38416672  122.97299957    0.86000001    2.61999989
   15.38722229  124.76200104    0.86000001    2.61999989
   15.38833332  130.44799805    0.86000001    2.61999989
   15.39111137  128.75300598    0.86000001    2.61999989
   15.39416695  128.87699890    0.86000001    2.61999989
   15.39750004  124.96600342    0.86000001    2.61999989
   15.40083313  124.19999695    0.86000001    2.61999989
   15.40388870  131.09700012    0.86000001    2.61999989
   15.40972137  131.09700012    0.86000001    2.61999989
   15.41388893  130.60200500    0.86000001    2.61999989
   15.41722298  128.61199951    0.86000001    2.61999989
   15.42055607  126.99900055    0.86000001    2.61999989
   15.42194462  131.21400452    0.86000001    2.61999989
   15.42416668  116.34999847    0.86000001    2.61999989
   15.42750072  129.21899414    0.83999997    2.61999989
   15.43083382  121.83599854    0.83999997    2.61999989
   15.43388939  139.94799805    0.83999997    2.61999989
   15.43722248  130.36599731    0.81999999    2.61999989
   15.44055557  128.39199829    0.81999999    2.64000010
   15.44361115  127.55100250    0.83999997    2.61999989
   15.44694424  128.00300598    0.83999997    2.61999989
   15.45277786  128.00300598    0.83999997    2.64000010
   15.47111034  122.47200012    0.81999999    2.61999989
   15.47416592  118.65299988    0.81999999    2.61999989
   15.47749996  119.84899902    0.83999997    2.61999989
   15.48083305  109.95899963    0.81999999    2.61999989
   15.48388958  114.94200134    0.81999999    2.61999989
   15.48722267  122.64800262    0.83999997    2.61999989
   15.49083328  114.86699677    0.83999997    2.64000010
   15.58666611   -1.00000000   -1.00000000   -1.00000000
   15.79083347   -1.00000000   -1.00000000   -1.00000000
   15.92333412   -1.00000000   -1.00000000   -1.00000000
   16.04222107   -1.00000000   -1.00000000   -1.00000000
   16.06027794   72.79299927    0.79000002    2.66000009
   16.06361008  127.51100159    0.80000001    2.64000010
   16.06694603  116.56800079    0.79000002    2.64000010
   16.07000160  120.62599945    0.79000002    2.64000010
   16.07333374  119.37100220    0.79000002    2.64000010
   16.07666779  122.28600311    0.79000002    2.66000009
   16.08083344  122.28600311    0.79000002    2.64000010
   16.08472252  116.10900116    0.79000002    2.64000010
   16.08805656  114.84200287    0.79000002    2.64000010
   16.09138870  110.48300171    0.79000002    2.64000010
   16.09361267  115.84100342    0.79000002    2.64000010
   16.09500122  110.50599670    0.79000002    2.64000010
   16.09833336  116.80100250    0.79000002    2.64000010
   16.10138893  116.30000305    0.79000002    2.64000010
   16.10472298  113.85199738    0.80000001    2.64000010
   16.10805511  116.19000244    0.79000002    2.64000010
   16.11111069  106.40499878    0.79000002    2.64000010
   16.11444473  116.80000305    0.79000002    2.64000010
   16.11750031  111.43299866    0.79000002    2.64000010
   16.12361145  111.43299866    0.80000001    2.64000010
   16.12777710  114.64099884    0.80000001    2.64000010
   16.13083267  122.20999908    0.80000001    2.64000010
   16.13416672  115.58100128    0.80000001    2.64000010
   16.13750076  121.48200226    0.80000001    2.64000010
   16.14055634  110.16600037    0.80000001    2.64000010
   16.14388847  111.05400085    0.80000001    2.64000010
   16.14694405  119.49299622    0.80000001    2.64000010
   16.15027809  111.36199951    0.80000001    2.64000010
   16.15361023  121.05500031    0.79000002    2.64000010
   16.15666580  113.05799866    0.79000002    2.64000010
   16.15999985  111.79199982    0.79000002    2.64000010
   16.16055489  116.49199677    0.79000002    2.64000010
   16.16638756  116.49199677    0.79000002    2.64000010
   16.17055511  112.76799774    0.79000002    2.66000009
   16.17388916  116.24900055    0.86000001    2.66000009
   16.17694473  109.55799866    0.80000001    2.64000010
   16.18027687  112.68299866    0.86000001    2.64000010
   16.18333244  113.41699982    0.86000001    2.64000010
   16.18666649  111.04299927    0.88000000    2.64000010
   16.18999863  112.58499908    0.79000002    2.64000010
   16.19305420  111.02100372    0.80000001    2.64000010
   16.19388771  109.54499817    0.80000001    2.64000010
   16.19694328  109.74800110    0.79000002    2.64000010
   16.20000076  106.55100250    0.79000002    2.64000010
   16.20333481  110.24900055    0.80000001    2.66000009
   16.20916748  110.24900055    0.80000001    2.64000010
   16.21333504  113.92600250    0.81999999    2.64000010
   16.21666718  111.94999695    0.81999999    2.64000010
   16.21972275  111.41100311    0.79000002    2.66000009
   16.22305679  111.03600311    0.79000002    2.66000009
   16.22638893  108.35800171    0.83999997    2.64000010
   16.22722244  111.78500366    0.83999997    2.64000010
   16.23000145  108.12100220    0.83999997    2.64000010
   16.23305511  115.53800201    0.81999999    2.66000009
   16.23638916  116.61299896    0.81999999    2.64000010
   16.23972321  107.74500275    0.76999998    2.64000010
   16.24277878  110.42900085    0.76999998    2.64000010
   16.24611092  106.05200195    0.76999998    2.64000010
   16.25222206  106.05200195    0.76999998    2.64000010
   16.25611115  110.82399750    0.75000000    2.66000009
   16.25944519  111.05300140    0.75000000    2.66000009
   16.26055527  110.19400024    0.75000000    2.64000010
   16.26333427  115.93800354    0.75000000    2.64000010
   16.26638794  113.68699646    0.75000000    2.64000010
   16.26972198  112.27700043    0.75000000    2.66000009
   16.27305603  115.01999664    0.75000000    2.64000010
   16.27611160  110.59100342    0.75000000    2.66000009
   16.27944374  105.25700378    0.75000000    2.66000009
   16.28249931  112.19899750    0.75000000    2.66000009
   16.28583336  108.92199707    0.75000000    2.66000009
   16.28916550  104.08999634    0.75000000    2.64000010
   16.29500008  104.08999634    0.76999998    2.64000010
   16.29916573  110.31500244    0.76999998    2.64000010
   16.30249977  109.27500153    0.76999998    2.66000009
   16.30555534  104.26999664    0.79000002    2.64000010
   16.30888748  113.67299652    0.79000002    2.64000010
   16.31194305  105.37799835    0.79000002    2.64000010
   16.31527710  114.32499695    0.79000002    2.64000010
   16.31861115  114.18800354    0.79000002    2.66000009
   16.32166672  114.34500122    0.79000002    2.66000009
   16.32500076  105.18099976    0.79000002    2.64000010
   16.32722282  115.32499695    0.79000002    2.64000010
   16.32861137  111.70800018    0.79000002    2.64000010
   16.33166695  104.87400055    0.79000002    2.64000010
   16.33777809  104.87400055    0.79000002    2.64000010
   16.34194565  110.79299927    0.79000002    2.66000009
   16.34527779  113.30999756    0.95999998    2.64000010
   16.34833336  110.73699951    0.79000002    2.64000010
   16.35166740  114.65000153    0.75000000    2.66000009
   16.35499954  113.07900238    0.75000000    2.66000009
   16.35805511  112.35299683    0.75000000    2.64000010
   16.36055565  110.08399963    0.73000002    2.64000010
   16.36194420  112.27999878    0.73000002    2.64000010
   16.36499977  107.08599854    0.75000000    2.64000010
   16.36833382  120.59899902    0.75000000    2.66000009
   16.37166595  111.94100189    0.75000000    2.66000009
   16.37472153  110.52999878    0.73000002    2.64000010
   16.38055611  110.52999878    0.73000002    2.66000009
   16.38472176  114.41400146    0.75000000    2.64000010
   16.38805580  113.12599945    0.73000002    2.64000010
   16.39111137  106.21199799    0.75000000    2.66000009
   16.39388847  114.11599731    0.75000000    2.66000009
   16.39500046  116.34200287    0.75000000    2.66000009
   16.39805603  109.34100342    0.75000000    2.66000009
   16.40138817  109.65399933    0.76999998    2.64000010
   16.40472221  105.22499847    0.76999998    2.64000010
   16.40777779  113.60700226    0.79000002    2.64000010
   16.41110992  112.18399811    0.80000001    2.66000009
   16.41416550  106.66400146    0.80000001    2.66000009
   16.41749954  110.92400360    0.76999998    2.64000010
   16.42361069  110.92400360    0.76999998    2.66000009
   16.42749977  108.87100220    0.76999998    2.64000010
   16.43083191  109.63200378    0.76999998    2.64000010
   16.43416595  112.21700287    0.76999998    2.64000010
   16.43722153  109.70800018    0.76999998    2.64000010
   16.44055557  109.20700073    0.73000002    2.64000010
   16.44388771  109.90200043    0.75000000    2.66000009
   16.44694328  114.35099792    0.75000000    2.66000009
   16.45027924  112.58100128    0.75000000    2.64000010
   16.45333481  108.10500336    0.75000000    2.66000009
   16.45666695  108.47799683    0.75000000    2.66000009
   16.46000099  108.52300262    0.73000002    2.66000009
   16.46055603  110.94799805    0.73000002    2.66000009
   16.46638870  110.94799805    0.73000002    2.66000009
   16.47055626  108.13899994    0.73000002    2.64000010
   16.47389030  110.38800049    0.73000002    2.66000009
   16.47694588  104.23000336    0.75000000    2.66000009
   16.48027802  105.98100281    0.73000002    2.64000010
   16.48361206  106.77300262    0.73000002    2.64000010
   16.48666763  106.70800018    0.73000002    2.64000010
   16.49027824  106.13899994    0.73000002    2.66000009
   16.49361229  104.95700073    0.73000002    2.64000010
   16.49444389  106.47799683    0.73000002    2.64000010
   16.49777794  106.64199829    0.73000002    2.66000009
   16.50083351  105.67600250    0.73000002    2.66000009
   16.50416756  103.85500336    0.73000002    2.66000009
   16.50916672  103.85500336    0.73000002    2.66000009
   16.51333427  105.53800201    0.73000002    2.66000009
   16.51666641  104.28600311    0.70999998    2.66000009
   16.51972198  103.31300354    0.70999998    2.66000009
   16.52305603  103.75299835    0.70999998    2.66000009
   16.52611160  109.98300171    0.70999998    2.64000010
   16.52750015  107.72699738    0.70999998    2.64000010
   16.53000069  104.45500183    0.70999998    2.66000009
   16.53305435  106.06099701    0.70999998    2.66000009
   16.53638840  104.13400269    0.70999998    2.66000009
   16.53972244  106.82800293    0.70999998    2.64000010
   16.54277802  107.23500061    0.70999998    2.66000009
   16.54611015  107.63600159    0.70999998    2.64000010
   16.55194283  107.63600159    0.70999998    2.66000009
   16.55611038  106.76200104    0.73000002    2.66000009
   16.55944443   99.74890137    0.73000002    2.64000010
   16.56083298  108.64600372    0.73000002    2.64000010
   16.56305504  103.46900177    0.73000002    2.64000010
   16.56611061  106.22100067    0.75000000    2.66000009
   16.56944466  101.79699707    0.75000000    2.66000009
   16.57277870  105.35800171    0.75000000    2.64000010
   16.57583427  105.05799866    0.75000000    2.66000009
   16.57916832  108.65799713    0.75000000    2.66000009
   16.58222389  104.02100372    0.75000000    2.64000010
   16.58555603  104.35500336    0.76999998    2.64000010
   16.58889008  105.71099854    0.76999998    2.64000010
   16.59500122  105.71099854    0.76999998    2.66000009
   16.59889030  109.63899994    0.76999998    2.66000009
   16.60222244  106.21700287    0.76999998    2.66000009
   16.60555649  102.38800049    0.76999998    2.66000009
   16.60888863  108.99500275    0.76999998    2.66000009
   16.61222267  102.84300232    0.76999998    2.66000009
   16.61527824  110.47000122    0.76999998    2.64000010
   16.61861038  104.91699982    0.79000002    2.66000009
   16.62166595  107.28500366    0.76999998    2.64000010
   16.62500000  104.77400208    0.76999998    2.64000010
   16.62750053  107.65000153    0.76999998    2.66000009
   16.62888908  100.86599731    0.76999998    2.66000009
   16.63194466  104.17400360    0.79000002    2.64000010
   16.63777733  104.17400360    0.79000002    2.64000010
   16.64194489  102.63999939    0.76999998    2.64000010
   16.64500046  103.81300354    0.79000002    2.64000010
   16.64833260  104.70700073    0.76999998    2.66000009
   16.65166664  110.67700195    0.76999998    2.64000010
   16.65472221  106.56900024    0.76999998    2.66000009
   16.65805435  104.13400269    0.76999998    2.66000009
   16.66083336  106.46499634    0.76999998    2.64000010
   16.66194344  102.35199738    0.76999998    2.64000010
   16.66499901  104.64600372    0.76999998    2.64000010
   16.66833305  100.63500214    0.79000002    2.66000009
   16.67138863  109.18599701    0.79000002    2.64000010
   16.67472076  103.62000275    0.76999998    2.64000010
   16.68055534  103.62000275    0.76999998    2.66000009
   16.68472099  100.81300354    0.79000002    2.64000010
   16.68805504  103.12100220    0.79000002    2.64000010
   16.69111061  104.02600098    0.76999998    2.66000009
   16.69416618  103.87899780    0.76999998    2.66000009
   16.69499969  103.00499725    0.76999998    2.66000009
   16.69805527  105.38400269    0.76999998    2.66000009
   16.70138931   99.49990082    0.76999998    2.64000010
   16.70472336  107.28299713    0.76999998    2.64000010
   16.70777893   99.46150208    0.76999998    2.66000009
   16.71111107  104.25800323    0.75000000    2.66000009
   16.71416664  104.53199768    0.75000000    2.66000009
   16.71750069  110.81999969    0.75000000    2.66000009
   16.72333336  110.81999969    0.73000002    2.66000009
   16.72750092  102.32499695    0.73000002    2.64000010
   16.73083305  102.27400208    0.73000002    2.64000010
   16.73388863  102.92500305    0.73000002    2.66000009
   16.73722267  102.92099762    0.73000002    2.66000009
   16.74055672  105.99800110    0.73000002    2.66000009
   16.74361229  106.91899872    0.73000002    2.66000009
   16.74694443  105.71499634    0.73000002    2.66000009
   16.75027847  105.73600006    0.70999998    2.64000010
   16.75333405  106.18499756    0.70999998    2.64000010
   16.75666618  102.91200256    0.73000002    2.66000009
   16.75972176  101.44300079    0.70999998    2.66000009
   16.76083374  105.27200317    0.70999998    2.66000009
   16.76638794  105.27200317    0.73000002    2.67000008
   16.77027702  103.26799774    0.73000002    2.64000010
   16.77361107  105.91600037    0.75000000    2.66000009
   16.77694511  106.72399902    0.75000000    2.66000009
   16.78000069   98.83599854    0.73000002    2.66000009
   16.78333282  104.55899811    0.75000000    2.66000009
   16.78666687  101.14299774    0.75000000    2.66000009
   16.78972244  107.42500305    0.75000000    2.66000009
   16.79305458  102.93699646    0.75000000    2.66000009
   16.79416656  101.86900330    0.75000000    2.66000009
   16.79666710  104.89800262    0.75000000    2.64000010
   16.79972076  111.66999817    0.75000000    2.64000010
   16.80305481   98.82579803    0.75000000    2.64000010
   16.80916595   98.82579803    0.76999998    2.66000009
   16.81333351   95.74710083    0.76999998    2.64000010
   16.81638718  102.45099640    0.76999998    2.66000009
   16.81972313  104.55500031    0.75000000    2.64000010
   16.82305717   98.97679901    0.75000000    2.66000009
   16.82611275  105.97499847    0.75000000    2.66000009
   16.82750130  102.45400238    0.75000000    2.66000009
   16.83000183  104.66600037    0.73000002    2.64000010
   16.83305550  105.86699677    0.75000000    2.66000009
   16.83638954  106.36900330    0.75000000    2.66000009
   16.83972359  107.72299957    0.75000000    2.66000009
   16.84277916  104.37500000    0.75000000    2.66000009
   16.84611130  104.86399841    0.75000000    2.66000009
   16.85194397  104.86399841    0.75000000    2.64000010
   16.85611153  108.96099854    0.75000000    2.64000010
   16.85972214  108.29499817    0.75000000    2.64000010
   16.86083412  106.36799622    0.75000000    2.64000010
   16.86333466  104.03399658    0.75000000    2.66000009
   16.86638832  103.73300171    0.75000000    2.66000009
   16.86972237  107.14299774    0.75000000    2.64000010
   16.87305641  108.28500366    0.75000000    2.64000010
   16.87611198  103.68900299    0.75000000    2.64000010
   16.87944412  104.28299713    0.76999998    2.64000010
   16.88249969  100.65699768    0.76999998    2.66000009
   16.88583374  104.42199707    0.76999998    2.64000010
   16.88916588  101.50000000    0.76999998    2.64000010
   16.89472198  101.50000000    0.76999998    2.66000009
   16.89888954  105.01699829    0.79000002    2.66000009
   16.90222168  105.75299835    0.79000002    2.64000010
   16.90527725  103.42299652    0.79000002    2.64000010
   16.90861130  102.33499908    0.79000002    2.64000010
   16.91194344  104.96900177    0.79000002    2.66000009
   16.91499901  103.94200134    0.79000002    2.66000009
   16.91833305  100.65000153    0.79000002    2.66000009
   16.92138863  103.57800293    0.76999998    2.66000009
   16.92472076  108.45899963    0.75000000    2.64000010
   16.92749977  104.52799988    0.75000000    2.64000010
   16.92833328   98.28869629    0.75000000    2.64000010
   16.93138885  100.20899963    0.75000000    2.64000010
   16.93777657  100.20899963    0.75000000    2.66000009
   16.94166565  104.73899841    0.75000000    2.66000009
   16.94499969  103.84100342    0.75000000    2.66000009
   16.94833183  101.96800232    0.75000000    2.66000009
   16.95166779  102.78399658    0.75000000    2.64000010
   16.95472336  104.40599823    0.75000000    2.66000009
   16.95805550  105.86100006    0.75000000    2.66000009
   16.96083450  114.11199951    0.75000000    2.66000009
   16.96166801  105.83699799    0.75000000    2.66000009
   16.96472359  102.89600372    0.75000000    2.66000009
   16.96805573  101.13099670    0.75000000    2.64000010
   16.97138977  102.02899933    0.76999998    2.64000010
   16.97444534  102.50199890    0.76999998    2.66000009
   16.98055649  102.50199890    0.76999998    2.64000010
   16.98472214  100.47499847    0.79000002    2.66000009
   16.98777771   99.37519836    0.79000002    2.66000009
   16.99111176  102.73799896    0.80000001    2.66000009
   16.99416733  102.94499969    0.80000001    2.66000009
   16.99472237  100.89399719    0.80000001    2.66000009
   16.99777794   99.38839722    0.80000001    2.64000010
   17.00111198  102.54599762    0.80000001    2.64000010
   17.00444412  102.24500275    0.83999997    2.64000010
   17.00749969   98.75379944    0.89999998    2.66000009
   17.01083374  101.01799774    0.86000001    2.64000010
   17.01416588  102.92299652    0.83999997    2.64000010
   17.01722145  102.18900299    0.86000001    2.64000010
   17.02333260  102.18900299    0.88000000    2.64000010
   17.02750015  104.62799835    0.89999998    2.64000010
   17.02805519   99.07700348    0.92000002    2.64000010
   17.03111076  103.96399689    0.92000002    2.64000010
   17.03444481  101.25000000    1.00000000    2.64000010
   17.03777695  105.00299835    1.00000000    2.64000010
   17.04083252  104.33499908    1.01999998    2.64000010
   17.04416656  101.67099762    0.95999998    2.64000010
   17.04749870  103.43499756    0.95999998    2.64000010
   17.05055428  102.38200378    0.95999998    2.64000010
   17.05388832  103.04499817    0.98000002    2.64000010
   17.05694389   99.23850250    0.95999998    2.66000009
   17.06027794   98.65720367    0.94000000    2.64000010
   17.06083298  101.43199921    0.94000000    2.64000010
   17.08166695  101.43199921    0.88000000    2.66000009
   17.08583450  108.65100098    0.88000000    2.64000010
   17.08889008  105.18299866    0.88000000    2.64000010
   17.09222221  100.56999969    0.88000000    2.64000010
   17.09416771  108.08499908    0.88000000    2.64000010
   17.09583473  105.06500244    0.86000001    2.64000010
   17.09889030  102.09500122    0.86000001    2.64000010
   17.10222244  103.18099976    0.83999997    2.64000010
   17.10555649  100.76499939    0.81999999    2.64000010
   17.10861206  102.39199829    0.81999999    2.64000010
   17.11194420  104.65200043    0.80000001    2.64000010
   17.11527824  102.56800079    0.80000001    2.66000009
   17.11833382  106.00000000    0.80000001    2.66000009
   17.12444496  106.00000000    0.80000001    2.64000010
   17.12833405  103.95300293    0.80000001    2.66000009
   17.13166618  104.05300140    0.79000002    2.64000010
   17.13500023  102.21499634    0.79000002    2.64000010
   17.13805580  108.95099640    0.79000002    2.64000010
   17.14138794   95.67500305    0.79000002    2.66000009
   17.14472198  100.83999634    0.79000002    2.66000009
   17.14777756  101.93299866    0.79000002    2.66000009
   17.15111160  102.79199982    0.79000002    2.66000009
   17.15416718  106.03199768    0.79000002    2.64000010
   17.15749931  103.44400024    0.79000002    2.66000009
   17.16083336  101.64700317    0.79000002    2.66000009
   17.16138840  100.20400238    0.79000002    2.66000009
   17.16722107  100.20400238    0.80000001    2.66000009
   17.17138863   97.69650269    0.80000001    2.64000010
   17.17444420  102.85199738    0.80000001    2.64000010
   17.17777634  103.70500183    0.80000001    2.64000010
   17.18111038  105.84500122    0.79000002    2.64000010
   17.18416595  107.17800140    0.79000002    2.66000009
   17.18750000  107.30100250    0.79000002    2.64000010
   17.19055557  108.02500153    0.79000002    2.66000009
   17.19388771  100.69300079    0.79000002    2.66000009
   17.19472122  108.92600250    0.79000002    2.64000010
   17.19749832  115.41400146    0.79000002    2.64000010
   17.20083427  110.02300262    0.79000002    2.64000010
   17.20416832  107.66300201    0.80000001    2.64000010
   17.21000099  107.66300201    0.80000001    2.64000010
   17.21416664  103.21800232    0.79000002    2.64000010
   17.21750069  102.00399780    0.79000002    2.64000010
   17.22055626  107.08699799    0.79000002    2.61999989
   17.22389030  101.98600006    0.79000002    2.66000009
   17.22694588  104.63300323    0.80000001    2.64000010
   17.22805595   99.66539764    0.80000001    2.64000010
   17.23055649  104.97599792    0.80000001    2.66000009
   17.23388863  105.30599976    0.80000001    2.66000009
   17.23722267  105.31800079    0.80000001    2.64000010
   17.24027824  101.75099945    0.80000001    2.64000010
   17.24361229  104.92900085    0.80000001    2.64000010
   17.24666786  106.12100220    0.80000001    2.64000010
   17.25277710  106.12100220    0.80000001    2.64000010
   17.25694466  103.16999817    0.81999999    2.64000010
   17.26027870   95.52400208    0.81999999    2.64000010
   17.26138878  104.29000092    0.81999999    2.64000010
   17.26388931  103.72100067    0.80000001    2.64000010
   17.26722145  103.06900024    0.81999999    2.64000010
   17.27055550  101.64600372    0.81999999    2.64000010
   17.27361107   95.52189636    0.81999999    2.64000010
   17.27694511   98.80660248    0.81999999    2.66000009
   17.28000069   99.47859955    0.81999999    2.64000010
   17.28333282  104.77500153    0.81999999    2.64000010
   17.28666687  102.91999817    0.81999999    2.64000010
   17.28972244  103.25499725    0.81999999    2.64000010
   17.29583359  103.25499725    0.83999997    2.64000010
   17.29972076  104.54199982    0.86000001    2.64000010
   17.30305481   95.92859650    0.86000001    2.64000010
   17.30638885   97.14810181    0.86000001    2.64000010
   17.30944443  100.45099640    0.86000001    2.64000010
   17.31277657  101.09200287    0.89999998    2.64000010
   17.31611061  109.65799713    0.88000000    2.64000010
   17.31916809  105.33399963    0.89999998    2.64000010
   17.32250023  100.44999695    0.89999998    2.64000010
   17.32583427  100.72399902    0.88000000    2.64000010
   17.32805634  104.71700287    0.88000000    2.64000010
   17.32916832  103.87400055    0.86000001    2.64000010
   17.33250046  105.05799866    0.86000001    2.64000010
   17.33861160  105.05799866    0.83999997    2.64000010
   17.34277916  100.17299652    0.83999997    2.64000010
   17.34583473  101.67800140    0.81999999    2.64000010
   17.34916687  101.98699951    0.83999997    2.66000009
   17.35250092   97.74189758    0.86000001    2.64000010
   17.35555649   98.58429718    0.86000001    2.64000010
   17.35888863  101.09999847    0.86000001    2.64000010
   17.36138916   95.95290375    0.86000001    2.64000010
   17.36250114   97.07309723    0.86000001    2.64000010
   17.36583328   98.48010254    0.86000001    2.64000010
   17.36916733   98.65290070    0.88000000    2.64000010
   17.37222290   96.25109863    0.88000000    2.64000010
   17.37555504   93.00509644    0.86000001    2.64000010
   17.38138962   93.00509644    0.88000000    2.64000010
   17.38555527  103.39800262    0.88000000    2.64000010
   17.38888931  103.27999878    0.88000000    2.64000010
   17.39194489  102.63999939    0.88000000    2.64000010
   17.39472198  100.55200195    0.88000000    2.66000009
   17.39555550  100.23799896    0.88000000    2.66000009
   17.39888954   99.63710022    0.89999998    2.64000010
   17.40222168  102.59100342    0.88000000    2.64000010
   17.40527725  102.55699921    0.89999998    2.66000009
   17.40861130  108.40799713    0.89999998    2.64000010
   17.41194344  105.90699768    0.89999998    2.61999989
   17.41499901  101.36599731    0.89999998    2.61999989
   17.41833305  102.23000336    0.89999998    2.64000010
   17.42416573  102.23000336    0.92000002    2.64000010
   17.42833328   99.64279938    0.95999998    2.64000010
   17.43166542  100.77799988    0.95999998    2.64000010
   17.43499947  101.24500275    0.94000000    2.64000010
   17.43833160  108.20400238    0.94000000    2.61999989
   17.44166565  101.34200287    0.94000000    2.61999989
   17.44472122  104.70099640    0.94000000    2.61999989
   17.44805527   99.36090088    0.94000000    2.64000010
   17.45138931   99.07450104    0.94000000    2.64000010
   17.45444489  100.45099640    0.94000000    2.64000010
   17.45777893  100.54499817    0.94000000    2.64000010
   17.46111107  105.15100098    0.94000000    2.64000010
   17.46166801   98.50319672    0.94000000    2.64000010
   17.46722221   98.50319672    0.94000000    2.64000010
   17.47111130   99.35569763    0.94000000    2.61999989
   17.47444534  100.61599731    0.94000000    2.64000010
   17.47777748   99.52040100    0.94000000    2.64000010
   17.48083305   99.21340179    0.94000000    2.64000010
   17.48416710  106.77100372    0.95999998    2.64000010
   17.48750114  104.30799866    0.95999998    2.64000010
   17.49055672  105.94699860    0.98000002    2.64000010
   17.49388885  103.08100128    0.98000002    2.64000010
   17.49500084  103.63999939    0.98000002    2.64000010
   17.49749947  100.29299927    0.98000002    2.64000010
   17.50083351   95.95279694    0.95999998    2.64000010
   17.50416756  101.02799988    0.98000002    2.64000010
   17.51000023  101.02799988    0.98000002    2.64000010
   17.51416588   98.01699829    0.98000002    2.64000010
   17.51722145   99.79180145    0.98000002    2.61999989
   17.52055550  104.00099945    1.00000000    2.64000010
   17.52388954  101.33499908    1.01999998    2.61999989
   17.52694511  106.73000336    1.01999998    2.64000010
   17.52833366  102.78900146    1.01999998    2.64000010
   17.53055573  103.05200195    1.03999996    2.64000010
   17.53388786  108.73600006    1.03999996    2.64000010
   17.53722191  107.33599854    1.05999994    2.64000010
   17.54027748  106.82700348    1.07000005    2.64000010
   17.54361153  107.14700317    1.09000003    2.64000010
   17.54666710  106.82299805    1.13000000    2.64000010
   17.55277634  106.82299805    1.14999998    2.61999989
   17.55694389  100.15499878    1.19000006    2.61999989
   17.56027794  105.58300018    1.19000006    2.64000010
   17.56166649  100.52700043    1.19000006    2.64000010
   17.56361008   98.69229889    1.25000000    2.64000010
   17.56694603  107.78199768    1.23000002    2.64000010
   17.57027817  103.09999847    1.21000004    2.61999989
   17.57333374  103.95899963    1.19000006    2.61999989
   17.57666779  104.41000366    1.19000006    2.61999989
   17.57972336  104.19200134    1.16999996    2.61999989
   17.58305550   98.70819855    1.19000006    2.61999989
   17.58638954  101.05000305    1.19000006    2.61999989
   17.58944511   99.87619781    1.16999996    2.61999989
   17.59555626   99.87619781    1.13000000    2.64000010
   17.59972191  103.23699951    1.11000001    2.64000010
   17.60305595   99.34279633    1.11000001    2.64000010
   17.60611153  100.76000214    1.05999994    2.61999989
   17.60944557   94.88549805    1.03999996    2.64000010
   17.61277771  103.33999634    1.01999998    2.64000010
   17.61583328  103.08599854    1.00000000    2.64000010
   17.61916733   98.97149658    0.98000002    2.61999989
   17.62249947  103.27300262    0.95999998    2.64000010
   17.62555504  100.18800354    0.95999998    2.64000010
   17.62833405   96.03869629    0.94000000    2.64000010
   17.62916756   99.47239685    0.94000000    2.64000010
   17.63249969  104.74700165    0.94000000    2.64000010
   17.63861084  104.74700165    0.94000000    2.64000010
   17.64249992   97.01270294    0.94000000    2.64000010
   17.64583397   94.81929779    0.94000000    2.64000010
   17.64916611  102.52799988    0.94000000    2.64000010
   17.65222168   92.41069794    0.95999998    2.64000010
   17.65555573   95.38430023    0.95999998    2.64000010
   17.65888786  100.32299805    0.94000000    2.61999989
   17.66166687   94.77729797    0.94000000    2.61999989
   17.66222191   99.24980164    0.94000000    2.61999989
   17.66555595  104.63200378    0.95999998    2.61999989
   17.66888809   99.12190247    0.92000002    2.64000010
   17.67194366  101.11699677    0.92000002    2.64000010
   17.67527771  104.34899902    0.92000002    2.64000010
   17.68138885  104.34899902    0.92000002    2.64000010
   17.68555450  101.75099945    0.94000000    2.64000010
   17.68861008  106.75399780    0.94000000    2.61999989
   17.69194412  103.05899811    0.94000000    2.61999989
   17.69499969  101.10099792    0.94000000    2.61999989
   17.69555473  103.82599640    0.94000000    2.61999989
   17.69888878  101.64099884    0.94000000    2.61999989
   17.70222282  105.19400024    0.98000002    2.64000010
   17.70527840  101.99400330    1.01999998    2.64000010
   17.70861244  107.30899811    1.00000000    2.64000010
   17.71194458  104.95800018    0.95999998    2.61999989
   17.71500015  109.68800354    0.95999998    2.61999989
   17.71833420  101.51100159    0.95999998    2.61999989
   17.72416687  101.51100159    0.95999998    2.61999989
   17.72833443  100.96499634    0.98000002    2.61999989
   17.73139000  105.22100067    0.98000002    2.64000010
   17.73472214  103.53299713    0.95999998    2.64000010
   17.73805618  104.19100189    0.95999998    2.64000010
   17.74111176   97.96050262    0.95999998    2.64000010
   17.74444389   98.88510132    0.95999998    2.64000010
   17.74777794  103.68599701    0.95999998    2.64000010
   17.75083351  101.06099701    0.95999998    2.64000010
   17.75416756  105.90499878    0.95999998    2.64000010
   17.75749969  101.26000214    0.98000002    2.61999989
   17.76055527  103.23799896    0.98000002    2.61999989
   17.76166725  105.67900085    0.98000002    2.61999989
   17.76694489  105.67900085    0.98000002    2.64000010
   17.77111053  104.06199646    0.98000002    2.64000010
   17.77444458  103.23699951    0.95999998    2.61999989
   17.77750015  103.58699799    0.94000000    2.61999989
   17.78083229   99.52089691    0.94000000    2.61999989
   17.78416634  103.60399628    0.92000002    2.64000010
   17.78722191  100.47000122    0.92000002    2.61999989
   17.79055595  103.99199677    0.92000002    2.61999989
   17.79361153  102.14399719    0.92000002    2.64000010
   17.79500008  101.50000000    0.94000000    2.61999989
   17.79749870  107.78299713    0.94000000    2.61999989
   17.80055428  104.78600311    0.92000002    2.61999989
   17.80388832  103.57299805    0.92000002    2.61999989
   17.80972099  103.57299805    0.89999998    2.64000010
   17.81388855  101.36399841    0.92000002    2.61999989
   17.81722260   97.36289978    0.94000000    2.61999989
   17.82055664  104.28700256    0.95999998    2.61999989
   17.82361221  109.73300171    0.95999998    2.61999989
   17.82694626  110.29699707    0.98000002    2.61999989
   17.82833481  109.12899780    1.01999998    2.61999989
   17.83083344  106.15699768    1.01999998    2.61999989
   17.83388901  106.94200134    1.01999998    2.61999989
   17.83722305  104.98300171    1.01999998    2.61999989
   17.84027863  102.03700256    1.01999998    2.61999989
   17.84361267  103.82700348    1.01999998    2.61999989
   17.84694481  102.00000000    1.01999998    2.61999989
   17.85277748  102.00000000    1.00000000    2.61999989
   17.85694504  109.78500366    1.01999998    2.64000010
   17.86000061  105.02400208    1.00000000    2.61999989
   17.86166763  103.42099762    0.98000002    2.61999989
   17.86388969  102.53900146    0.98000002    2.61999989
   17.86694527  104.39800262    0.95999998    2.61999989
   17.87027740  106.41400146    0.94000000    2.61999989
   17.87333298  103.08399963    0.94000000    2.64000010
   17.87666702  106.01300049    0.94000000    2.64000010
   17.88000107  106.98500061    0.92000002    2.61999989
   17.88305473  107.50000000    0.92000002    2.61999989
   17.88638878  103.23699951    0.88000000    2.61999989
   17.88972282  104.44300079    0.88000000    2.61999989
   17.89555550  104.44300079    0.88000000    2.61999989
   17.89972115  100.70999908    0.88000000    2.61999989
   17.90277672   99.43789673    0.88000000    2.61999989
   17.90611076  103.75599670    1.11000001    2.61999989
   17.90944481  100.33499908    0.92000002    2.64000010
   17.91250038  104.23899841    0.88000000    2.64000010
   17.91583252  103.16699982    0.89999998    2.64000010
   17.91916656  103.06700134    0.89999998    2.64000010
   17.92222214   99.22209930    0.92000002    2.64000010
   17.92555428   97.80560303    0.89999998    2.61999989
   17.92833328   96.05020142    0.89999998    2.61999989
   17.92944336   97.95149994    0.89999998    2.61999989
   17.93249893  104.60399628    0.89999998    2.61999989
   17.93833160  104.60399628    0.92000002    2.61999989
   17.94249916  107.33499908    0.88000000    2.61999989
   17.94583321  103.85199738    0.89999998    2.61999989
   17.94916534  107.75399780    0.89999998    2.61999989
   17.95222282  104.54399872    0.89999998    2.61999989
   17.95555687  108.69400024    0.89999998    2.61999989
   17.95861244  107.92500305    0.92000002    2.61999989
   17.96166801  108.43800354    0.89999998    2.61999989
   17.96250153  106.05300140    0.92000002    2.61999989
   17.96555710  104.15100098    0.92000002    2.61999989
   17.96888924  105.13899994    0.92000002    2.61999989
   17.97222328  102.53600311    0.92000002    2.61999989
   17.97527885  104.94499969    0.94000000    2.61999989
   17.98139000  104.94499969    0.95999998    2.61999989
   17.98555565  100.67500305    0.95999998    2.61999989
   17.98861122   98.93959808    0.94000000    2.61999989
   17.99194527   99.08820343    0.94000000    2.61999989
   17.99500084  100.25399780    0.95999998    2.61999989
   17.99555588  102.10600281    0.95999998    2.61999989
   17.99861145  101.53500366    0.95999998    2.61999989
   18.00194359  105.02500153    0.95999998    2.61999989
   18.00527763  102.48699951    0.98000002    2.61999989
   18.00833321  103.76599884    0.95999998    2.61999989
   18.01166725  102.48699951    0.95999998    2.61999989
   18.01499939  105.75499725    0.94000000    2.61999989
   18.01805496  103.49500275    0.94000000    2.61999989
   18.02416611  103.49500275    0.94000000    2.61999989
   18.02833366  103.06999969    0.95999998    2.61999989
   18.02888870  101.50800323    0.95999998    2.61999989
   18.03194427  105.38200378    0.95999998    2.61999989
   18.03527641  102.37799835    1.01999998    2.61999989
   18.03861046  104.90399933    1.07000005    2.61999989
   18.04166603  103.49900055    1.13000000    2.61999989
   18.04500008  103.63999939    1.13000000    2.61999989
   18.04805565  110.33999634    1.11000001    2.59999990
   18.05138779  105.72699738    1.11000001    2.59999990
   18.05444336  104.63600159    1.07000005    2.61999989
   18.05777740  102.44000244    1.05999994    2.61999989
   18.06110954  104.35399628    1.01999998    2.61999989
   18.06194305  103.85800171    1.01999998    2.61999989
   18.06694603  103.85800171    0.95999998    2.61999989
   18.07111168  104.37300110    1.00000000    2.61999989
   18.07444572  105.45099640    0.94000000    2.61999989
   18.07750130  103.28500366    0.94000000    2.59999990
   18.09555626  105.63500214    0.89999998    2.59999990
   18.09777832  110.55000305    0.88000000    2.61999989
   18.10083389  105.35500336    0.88000000    2.59999990
   18.10416794  104.45600128    0.88000000    2.61999989
   18.11000061  104.45600128    0.86000001    2.61999989
   18.11416626  105.26499939    0.86000001    2.61999989
   18.11722183  103.63999939    0.88000000    2.61999989
   18.12055588  106.27799988    0.88000000    2.61999989
   18.12388992  107.72899628    0.88000000    2.61999989
   18.12694550  111.07499695    0.88000000    2.61999989
   18.12888908  106.14199829    0.89999998    2.61999989
   18.13083267  103.36799622    0.89999998    2.61999989
   18.13388824  103.78299713    0.89999998    2.59999990
   18.13722229  107.63400269    0.88000000    2.59999990
   18.14027786  107.40100098    0.86000001    2.61999989
   18.14361191  101.43900299    0.86000001    2.61999989
   18.14694405  102.88700104    0.92000002    2.61999989
   18.15277672  102.88700104    0.94000000    2.59999990
   18.15694427   96.95269775    0.95999998    2.59999990
   18.16027832  103.50299835    0.92000002    2.59999990
   18.16222191  102.28099823    0.95999998    2.61999989
   18.16388893  102.61499786    0.95999998    2.61999989
   18.16694450   98.86419678    0.92000002    2.59999990
   18.17027664  101.15299988    0.89999998    2.59999990
   18.17333221  104.42600250    0.94000000    2.59999990
   18.17666626  100.02799988    0.94000000    2.59999990
   18.18000031  103.61699677    0.92000002    2.59999990
   18.18305397  102.57499695    0.92000002    2.61999989
   18.18638802  101.02100372    0.95999998    2.61999989
   18.18972206  100.73799896    0.94000000    2.59999990
   18.19555473  100.73799896    1.00000000    2.59999990
   18.19972038  100.40399933    1.05999994    2.59999990
   18.20305634  109.15399933    0.98000002    2.59999990
   18.20611191  110.05000305    0.98000002    2.59999990
   18.20944595  102.33799744    1.00000000    2.57999992
   18.21277809  104.95400238    1.07000005    2.59999990
   18.21583366  110.61000061    1.00000000    2.59999990
   18.21916771  106.25299835    1.01999998    2.61999989
   18.22249985  103.59500122    1.05999994    2.59999990
   18.22555542  103.85600281    1.09000003    2.59999990
   18.22888947  103.32499695    1.66999996    2.57999992
   18.22916794  108.33100128    1.66999996    2.57999992
   18.23250008  102.82199860    1.60000002    2.59999990
   18.23861122  102.82199860    1.07000005    2.59999990
   18.24250031   97.36250305    1.11000001    2.59999990
   18.24583435  109.00900269    1.11000001    2.57999992
   18.24916649  101.77799988    1.09000003    2.59999990
   18.25222206  102.51300049    1.05999994    2.59999990
   18.25555611  101.83000183    1.03999996    2.59999990
   18.25888824  105.09400177    1.00000000    2.59999990
   18.26194382  102.61000061    1.00000000    2.61999989
   18.26250076  102.09500122    1.00000000    2.61999989
   18.26583290  105.35099792    0.95999998    2.59999990
   18.26916695  107.68099976    0.98000002    2.59999990
   18.27222252  103.51499939    1.01999998    2.59999990
   18.27555466  104.28399658    0.95999998    2.59999990
   18.28138924  104.28399658    0.94000000    2.59999990
   18.28555489  104.70200348    0.94000000    2.59999990
   18.28861046  104.60700226    0.92000002    2.59999990
   18.29194450   99.60590363    0.95999998    2.59999990
   18.29527664  106.14199829    0.98000002    2.59999990
   18.29583359   99.74539948    0.98000002    2.59999990
   18.29888916  103.00900269    1.00000000    2.59999990
   18.30222130  100.34500122    0.95999998    2.59999990
   18.30527687  100.49199677    0.98000002    2.57999992
   18.30861092   98.20069885    1.00000000    2.59999990
   18.31166649  102.37699890    1.01999998    2.59999990
   18.31499863  105.76699829    1.03999996    2.59999990
   18.31833458  100.29299927    1.07000005    2.59999990
   18.32416725  100.29299927    1.39999998    2.59999990
   18.32833481   98.82019806    1.38000000    2.59999990
   18.32916832  103.69999695    1.41999996    2.57999992
   18.33194542  104.52400208    1.41999996    2.57999992
   18.33527756  108.71099854    1.28999996    2.59999990
   18.33833313  102.15899658    1.23000002    2.59999990
   18.34166718  105.93199921    1.07000005    2.57999992
   18.34472275  106.78500366    1.00000000    2.57999992
   18.34805679  103.47200012    0.98000002    2.57999992
   18.35138893  112.07499695    0.98000002    2.57999992
   18.35444450  104.57800293    1.00000000    2.57999992
   18.35777855  105.37599945    1.00000000    2.57999992
   18.36111069  104.46299744    0.98000002    2.59999990
   18.36250114  101.67900085    1.00000000    2.57999992
   18.36694527  101.67900085    1.00000000    2.57999992
   18.37111092  104.21800232    1.01999998    2.59999990
   18.37444496   98.91719818    1.01999998    2.57999992
   18.37750053  103.45400238    1.01999998    2.57999992
   18.38083267  102.60500336    1.00000000    2.57999992
   18.38416672  105.03800201    1.00000000    2.59999990
   18.38722229  104.21900177    0.95999998    2.59999990
   18.39055634  104.37100220    0.98000002    2.59999990
   18.39361191  108.34799957    0.95999998    2.59999990
   18.39583397  105.27600098    0.95999998    2.59999990
   18.39749908  102.65299988    0.95999998    2.59999990
   18.40055466  106.06800079    0.95999998    2.59999990
   18.40388870  102.33999634    0.95999998    2.59999990
   18.40999985  102.33999634    0.98000002    2.57999992
   18.41388893  104.47499847    1.01999998    2.59999990
   18.41722107  103.43800354    1.01999998    2.59999990
   18.42055511  105.48000336    1.03999996    2.59999990
   18.42361069  104.66699982    1.03999996    2.59999990
   18.42694473  103.48699951    1.01999998    2.57999992
   18.42916679  105.37500000    4.90999985    2.61999989
   18.43055534  103.04299927    4.90999985    2.61999989
   18.43388748  108.18299866    0.40000001    1.88000000
   18.43694305  101.84500122    0.11000000    0.46000001
   18.44027710  103.96700287    0.09000000    0.20999999
   18.44361115  106.41300201    0.07000000    0.07000000
   18.44666672  104.41100311    0.07000000    0.07000000
   18.45277786  104.41100311    0.07000000    0.07000000
   18.45694542  105.11100006    0.07000000    0.07000000
   18.46000099  103.96399689    0.07000000    0.07000000
   18.46250153  106.73899841    0.07000000    0.07000000
   18.46361160  102.22299957    0.07000000    0.07000000
   18.46694565  106.57399750    0.07000000    0.07000000
   18.47000122  101.19100189    0.07000000    0.07000000
   18.47333336  108.27100372    0.07000000    0.07000000
   18.47638893  104.86399841    0.07000000    0.07000000
   18.47972298  106.96900177    0.07000000    0.07000000
   18.48305511  113.29799652    0.07000000    0.07000000
   18.48611069  102.94200134    0.07000000    0.07000000
   18.48944473  106.12699890    0.07000000    0.07000000
   18.49555588  106.12699890    0.07000000    0.07000000
   18.49972153  106.57800293    0.07000000    0.07000000
   18.50277710  108.97399902    0.07000000    0.07000000
   18.50611115  106.46600342    0.07000000    0.07000000
   18.50944519  105.91799927    0.07000000    0.07000000
   18.51250076  105.64700317    0.07000000    0.07000000
   18.51583290  104.30300140    0.07000000    0.07000000
   18.51916695  102.62500000    0.07000000    0.07000000
   18.52222252  105.26599884    0.07000000    0.07000000
   18.52555466  106.46299744    0.07000000    0.07000000
   18.52888870  104.80799866    0.07000000    0.07000000
   18.53055573  108.28800201    0.07000000    0.07000000
   18.53249931  112.67400360    0.07000000    0.07000000
   18.53833199  112.67400360    0.07000000    0.07000000
   18.54249954  109.61399841    0.07000000    0.07000000
   18.54583359  112.06300354    0.07000000    0.07000000
   18.54916573  109.74500275    0.07000000    0.07000000
   18.55249977  104.37500000    0.07000000    0.07000000
   18.55555534  106.89299774    0.07000000    0.07000000
   18.55888748  112.65799713    0.07000000    0.07000000
   18.56222153  110.88200378    0.07000000    0.07000000
   18.56388855  109.24299622    0.07000000    0.07000000
   18.56583214  109.80899811    0.07000000    0.07000000
   18.56888962  110.42500305    0.07000000    0.07000000
   18.57222366  110.95800018    0.07000000    0.07000000
   18.57555580  109.17700195    0.07000000    0.07000000
   18.58111191  109.17700195    0.07000000    0.07000000
   18.58527756  104.30200195    0.07000000    0.07000000
   18.58861160  108.62400055    0.07000000    0.07000000
   18.59194565  112.04699707    0.07000000    0.07000000
   18.59500122  110.52899933    0.07000000    0.07000000
   18.59749985  110.89800262    0.07000000    0.07000000
   18.59889030  107.34700012    0.07000000    0.07000000
   18.60194397  104.62799835    0.07000000    0.07000000
   18.60527802  104.48699951    0.07000000    0.07000000
   18.60861206  104.15399933    0.07000000    0.07000000
   18.61166763  104.74700165    0.07000000    0.07000000
   18.61499977  106.34700012    0.07000000    0.07000000
   18.61833382  109.83100128    0.07000000    0.07000000
   18.62416649  109.83100128    0.07000000    0.07000000
   18.62833405  106.76200104    0.07000000    0.07000000
   18.63083267  102.93699646    0.07000000    0.07000000
   18.63194466  108.07900238    0.07000000    0.07000000
   18.63500023  103.20999908    0.07000000    0.07000000
   18.63833237  104.82800293    0.07000000    0.07000000
   18.64138794  110.08599854    0.07000000    0.07000000
   18.64472198  107.55799866    0.07000000    0.07000000
   18.64805603  107.19699860    0.07000000    0.07000000
   18.65111160  107.02500153    0.07000000    0.07000000
   18.65444374  106.05100250    0.07000000    0.07000000
   18.65777779  111.58300018    0.07000000    0.07000000
   18.66083336  102.25399780    0.07000000    0.07000000
   18.66694450  102.25399780    0.07000000    0.07000000
   18.67111015  112.24099731    0.07000000    0.07000000
   18.67416573  112.16300201    0.07000000    0.07000000
   18.67749977  109.33799744    0.07000000    0.07000000
   18.68083191  109.59300232    0.07000000    0.07000000
   18.68416595  113.22799683    0.07000000    0.07000000
   18.68722153  111.29299927    0.07000000    0.07000000
   18.69055557  113.60299683    0.07000000    0.07000000
   18.69361115  111.81800079    0.07000000    0.07000000
   18.69694328  111.35600281    0.07000000    0.07000000
   18.69777679  111.78900146    0.07000000    0.07000000
   18.70055580  107.37500000    0.07000000    0.07000000
   18.70361137  113.02300262    0.07000000    0.07000000
   18.70972252  113.02300262    0.07000000    0.07000000
   18.71389008  109.59400177    0.07000000    0.07000000
   18.71722221  103.64600372    0.07000000    0.07000000
   18.72027779  105.01699829    0.07000000    0.07000000
   18.72361183  107.31600189    0.07000000    0.07000000
   18.72694588  107.19200134    0.07000000    0.07000000
   18.73000145  110.94400024    0.07000000    0.07000000
   18.73111153  108.11299896    0.07000000    0.07000000
   18.73361206  105.13300323    0.07000000    0.07000000
   18.73666763  113.07800293    0.07000000    0.07000000
   18.73999977  109.40299988    0.07000000    0.07000000
   18.74333382  105.56600189    0.07000000    0.07000000
   18.74638939  107.96399689    0.07000000    0.07000000
   18.75277710  107.96399689    0.07000000    0.07000000
   18.75666618  111.56999969    0.07000000    0.07000000
   18.76000023  106.52600098    0.07000000    0.07000000
   18.76333427  111.12500000    0.07000000    0.07000000
   18.76472282  111.16600037    0.07000000    0.07000000
   18.76694489  109.41699982    0.07000000    0.07000000
   18.77027702  103.90899658    0.07000000    0.07000000
   18.77333260  107.40299988    0.07000000    0.07000000
   18.77666664  113.20700073    0.07000000    0.07000000
   18.77972221  111.43099976    0.07000000    0.07000000
   18.78305435  110.75000000    0.07000000    0.07000000
   18.78638840  105.16600037    0.07000000    0.07000000
   18.78944397  108.86299896    0.07000000    0.07000000
   18.79555511  108.86299896    0.07000000    0.07000000
   18.79972076  108.05400085    0.07000000    0.07000000
   18.80277634  109.48999786    0.07000000    0.07000000
   18.80611038  106.24400330    0.07000000    0.07000000
   18.80916595  109.11799622    0.07000000    0.07000000
   18.81250000  106.95400238    0.07000000    0.07000000
   18.81583214  109.31300354    0.07000000    0.07000000
   18.81888962  114.64299774    0.07000000    0.07000000
   18.82222366  101.33100128    0.07000000    0.07000000
   18.82555580  111.37200165    0.07000000    0.07000000
   18.82861137  111.73200226    0.07000000    0.07000000
   18.83139038  108.37699890    0.07000000    0.07000000
   18.83250046  108.28800201    0.07000000    0.07000000
   18.83833313  108.28800201    0.07000000    0.07000000
   18.84250069  109.80400085    0.07000000    0.07000000
   18.84555626  106.17800140    0.07000000    0.07000000
   18.84889030  107.54199982    0.07000000    0.07000000
   18.85222244  104.67600250    0.07000000    0.07000000
   18.85527802  104.59500122    0.07000000    0.07000000
   18.85861206  103.69799805    0.07000000    0.07000000
   18.86194420  106.86199951    0.07000000    0.07000000
   18.86472321  107.15000153    0.07000000    0.07000000
   18.86555672  111.08300018    0.07000000    0.07000000
   18.86861038  106.47399902    0.07000000    0.07000000
   18.87194443  108.65899658    0.07000000    0.07000000
   18.87527847  103.33799744    0.07000000    0.07000000
   18.88111115  103.33799744    0.07000000    0.07000000
   18.88527679  110.69200134    0.07000000    0.07000000
   18.88861084  105.82599640    0.07000000    0.07000000
   18.89166641  110.03099823    0.07000000    0.07000000
   18.89500046  108.82099915    0.07000000    0.07000000
   18.89805603  106.58899689    0.07000000    0.07000000
   18.89861107  110.35399628    0.07000000    0.07000000
   18.90166664  106.96299744    0.07000000    0.07000000
   18.90499878  108.32499695    0.07000000    0.07000000
   18.90833282  107.66000366    0.07000000    0.07000000
   18.91138840  106.51100159    0.07000000    0.07000000
   18.91472244  105.06800079    0.07000000    0.07000000
   18.91777802  106.90899658    0.07000000    0.07000000
   18.92416573  106.90899658    0.07000000    0.07000000
   18.92805481  105.72200012    0.07000000    0.07000000
   18.93138885  103.83300018    0.07000000    0.07000000
   18.93194389  109.05400085    0.07000000    0.07000000
   18.93499947  105.66899872    0.07000000    0.07000000
   18.93833160  108.26000214    0.07000000    0.07000000
   18.94166565  106.56099701    0.07000000    0.07000000
   18.94472122  104.69899750    0.07000000    0.07000000
   18.94805527  104.82599640    0.07000000    0.07000000
   18.95138931  104.31400299    0.07000000    0.07000000
   18.95444489  110.40799713    0.07000000    0.07000000
   18.95777893  103.93299866    0.07000000    0.07000000
   18.96111107  103.86299896    0.07000000    0.07000000
   18.96694565  103.86299896    0.07000000    0.07000000
   18.97111130  110.31300354    0.07000000    0.07000000
   18.97416687  107.89099884    0.07000000    0.07000000
   18.97750092  104.35600281    0.07000000    0.07000000
   18.98055649  106.79100037    0.07000000    0.07000000
   18.98388863  109.06099701    0.07000000    0.07000000
   18.98722267  103.64199829    0.07000000    0.07000000
   18.99027824  104.12100220    0.07000000    0.07000000
   18.99361229  106.36599731    0.07000000    0.07000000
   18.99694443  107.66600037    0.07000000    0.07000000
   18.99805641  103.65200043    0.07000000    0.07000000
   19.00055504  105.17700195    0.07000000    0.07000000
   19.00361061  103.65399933    0.07000000    0.07000000
   19.00972176  103.65399933    0.07000000    0.07000000
   19.01388931  104.50000000    0.07000000    0.07000000
   19.01722145  104.27600098    0.07000000    0.07000000
   19.02027702  105.59600067    0.07000000    0.07000000
   19.02361107  105.20800018    0.07000000    0.07000000
   19.02694511  106.01799774    0.07000000    0.07000000
   19.03000069  108.32599640    0.07000000    0.07000000
   19.03138924  106.46800232    0.07000000    0.07000000
   19.03388786  103.75399780    0.07000000    0.07000000
   19.03694344  109.08300018    0.07000000    0.07000000
   19.04027748  109.19999695    0.07000000    0.07000000
   19.04361153  104.07800293    0.07000000    0.07000000
   19.04666710  104.57099915    0.07000000    0.07000000
   19.05249977  104.57099915    0.07000000    0.07000000
   19.05666542  108.59799957    0.07000000    0.07000000
   19.05999947  107.89199829    0.07000000    0.07000000
   19.06305504  105.91000366    0.07000000    0.07000000
   19.06499863  105.49500275    0.07000000    0.07000000
   19.06694603  107.18199921    0.07000000    0.07000000
   19.07000160  104.25800323    0.07000000    0.07000000
   19.07333374  105.87400055    0.07000000    0.07000000
   19.07638931  104.52999878    0.07000000    0.07000000
   19.07972336  100.50399780    0.07000000    0.07000000
   19.08305550  100.82399750    0.07000000    0.07000000
   19.08611107  103.19699860    0.07000000    0.07000000
   19.08944511  104.18800354    0.07000000    0.07000000
   19.09555626  104.18800354    0.07000000    0.07000000
   19.11388969  103.29900360    0.07000000    0.07000000
   19.11694527  102.75000000    0.07000000    0.07000000
   19.12027740  103.43299866    0.07000000    0.07000000
   19.12361145  101.79900360    0.07000000    0.07000000
   19.12666702  104.52100372    0.07000000    0.07000000
   19.13000107  105.46299744    0.07000000    0.07000000
   19.13305473  106.29000092    0.07000000    0.07000000
   19.13861084  106.29000092    0.07000000    0.07000000
   19.14249992  103.09700012    0.07000000    0.07000000
   19.14583397  108.52100372    0.07000000    0.07000000
   19.14694405  107.63899994    0.07000000    0.07000000
   19.14944458  109.11199951    0.07000000    0.07000000
   19.15277672  106.34500122    0.07000000    0.07000000
   19.15611076  103.09400177    0.07000000    0.07000000
   19.15916634  102.62000275    0.07000000    0.07000000
   19.16250038  102.34700012    0.07000000    0.07000000
   19.16555595  105.61499786    0.07000000    0.07000000
   19.16888809  102.89199829    0.07000000    0.07000000
   19.17222214  107.15100098    0.07000000    0.07000000
   19.17527771  103.94400024    0.07000000    0.07000000
   19.18138885  103.94400024    0.07000000    0.07000000
   19.18555450  104.98699951    0.07000000    0.07000000
   19.18861008  103.57099915    0.07000000    0.07000000
   19.19194412  106.75099945    0.07000000    0.07000000
   19.19527626  109.86100006    0.07000000    0.07000000
   19.19861031  104.21499634    0.07000000    0.07000000
   19.20166779  107.85700226    0.07000000    0.07000000
   19.20499992   99.99749756    0.07000000    0.07000000
   19.20805550  105.13899994    0.07000000    0.07000000
   19.21138954  105.51499939    0.07000000    0.07000000
   19.21361160  105.53500366    0.07000000    0.07000000
   19.21500015  104.69400024    0.07000000    0.07000000
   19.21833420  106.05100250    0.07000000    0.07000000
   19.22416687  106.05100250    0.07000000    0.07000000
   19.22833443  103.71900177    0.07000000    0.07000000
   19.23166656  103.73400116    0.07000000    0.07000000
