    HOUR (UT)   FLARE FACTOR    SKY TESTER    SUN TESTER
   12.31388950   -1.00000000   -1.00000000   -1.00000000
   12.34333324  217.13900757    4.90999985    1.83000004
   12.34666634  247.25000000    4.90999985    1.80999994
   12.34972191  303.26000977    4.90999985    1.76999998
   12.35305595  381.17800903    4.90999985    1.73000002
   12.35611153  334.13500977    4.90999985    1.69000006
   12.35944462  230.67700195    4.90999985    1.66999996
   12.36361122  230.67700195    4.90999985    1.55999994
   12.36777782  133.15699768    4.90999985    1.41999996
   12.37083340   96.43299866    4.90999985    1.36000001
   12.37416649  122.43499756    4.90999985    1.36000001
   12.37666702  277.26199341    4.90999985    1.38000000
   12.37777805  220.64500427    4.90999985    1.39999998
   12.38111115  109.71900177    4.90999985    1.41999996
   12.38444424  100.77600098    4.90999985    1.36000001
   12.38749981   20.45929909    4.90999985    1.23000002
   12.39083290   90.56289673    4.90999985    1.23000002
   12.39388847  103.25099945    4.90999985    1.28999996
   12.39722252   84.16560364    4.90999985    1.33000004
   12.40055561  178.94599915    4.90999985    1.33000004
   12.40638828  178.94599915    4.90999985    1.50000000
   12.41055489  157.07800293    4.90999985    1.69000006
   12.41388893  205.20300293    4.90999985    1.80999994
   12.41694450  179.27299500    4.90999985    1.88000000
   12.42027855  213.41700745    4.90999985    1.88000000
   12.42361164  163.04800415    4.90999985    1.91999996
   12.42666721  169.69000244    4.90999985    1.96000004
   12.43000031  169.10800171    4.90999985    1.98000002
   12.43305588  163.19599915    4.90999985    1.98000002
   12.43638897  188.48800659    4.90999985    1.98000002
   12.43972206  168.40199280    4.90999985    1.96000004
   12.44277763  186.83999634    4.90999985    1.96000004
   12.44333363  189.60099792    4.90999985    1.96000004
   12.44944477  189.60099792    4.90999985    1.98000002
   12.45333290  169.68200684    4.90999985    2.00000000
   12.45666695  164.50399780    4.90999985    2.01999998
   12.46000004  173.90699768    4.90999985    2.03999996
   12.46305561  180.84199524    4.90999985    2.01999998
   12.46638870  163.38999939    4.90999985    1.98000002
   12.46944427  176.79800415    4.90999985    1.98000002
   12.47277737  178.77200317    4.90999985    1.94000006
   12.47611046  244.59100342    4.90999985    1.89999998
   12.47666645  232.76899719    4.90999985    1.89999998
   12.47972202  288.52801514    4.90999985    1.86000001
   12.48305511  306.49398804    4.90999985    1.80999994
   12.48611164  398.79699707    4.90999985    1.71000004
   12.49222279  398.79699707    4.90999985    1.55999994
   12.49638939  115.55699921    4.90999985    1.46000004
   12.49944496   49.62799835    4.90999985    1.38000000
   12.50277805  172.38800049    4.90999985    1.33000004
   12.50583363  228.70799255    4.90999985    1.39999998
   12.50916672  122.95700073    4.90999985    1.44000006
   12.51000023  122.90000153    4.90999985    1.46000004
   12.51277733  146.52999878    4.90999985    1.48000002
   12.51611137   89.21540070    4.90999985    1.46000004
   12.51916599   97.37809753    4.90999985    1.34000003
   12.52250004   -1.00000000    4.90999985    1.19000006
   12.52555561   -1.00000000    4.90999985    1.03999996
   12.52888870   -1.00000000    4.90999985    0.95999998
   12.53500080   -1.00000000    4.90999985    0.98000002
   12.53916740  111.37400055    4.90999985    1.28999996
   12.54222298  155.29899597    4.90999985    1.44000006
   12.54333401   87.30909729    4.90999985    1.39999998
   12.54611111   -1.00000000   -1.00000000   -1.00000000
   12.54944515   71.29219818    4.90999985    1.23000002
   12.55249977   62.71469879    4.90999985    1.19000006
   12.55583382   69.32009888    4.90999985    1.21000004
   12.55888939  131.60099792    4.90999985    1.38000000
   12.56222248  103.75099945    4.90999985    1.48000002
   12.56555557  115.77400208    4.90999985    1.41999996
   12.56861115   85.36289978    4.90999985    1.33000004
   12.57194424   -1.00000000    4.90999985    1.19000006
   12.57777786   -1.00000000    4.90999985    0.95999998
   12.58194447   -1.00000000    4.90999985    0.86000001
   12.58527756   -1.00000000    4.90999985    0.83999997
   12.58833313   -1.00000000    4.90999985    0.83999997
   12.59166622   -1.00000000    4.90999985    0.88000000
   12.59499931   -1.00000000    4.90999985    0.88000000
   12.59805489   -1.00000000    4.90999985    0.80000001
   12.60138893   -1.00000000    4.90999985    0.76999998
   12.60444450   -1.00000000    4.90999985    0.75000000
   12.60777855   -1.00000000    4.90999985    0.73000002
   12.61138916   -1.00000000    4.90999985    0.70999998
   12.61444473   -1.00000000    4.90999985    0.69000000
   12.62472248   36.76160049    4.90999985    0.92000002
   12.62805557  251.24899292    4.90999985    1.01999998
   12.63111115  344.58801270    4.90999985    1.23000002
   12.63444424  243.73699951    4.90999985    1.55999994
   12.63777733  241.38099670    4.90999985    1.80999994
   12.64083290  260.77099609    4.90999985    1.88000000
   12.64333344  217.43299866    4.90999985    1.89999998
   12.64444447  250.08599854    4.90999985    1.89999998
   12.64777756  243.85699463    4.90999985    1.91999996
   12.65083313  210.19099426    4.90999985    1.89999998
   12.65416622  182.40899658    4.90999985    1.96000004
   12.65722179  248.34500122    4.90999985    2.03999996
   12.66361046  248.34500122    4.90999985    2.05999994
   12.66777802  231.27900696    4.90999985    2.11999989
   12.67083359  228.23699951    4.90999985    2.11999989
   12.67416668  210.81100464    4.90999985    2.11999989
   12.67666721  218.33799744    4.90999985    2.11999989
   12.67777824  239.64199829    4.90999985    2.13000011
   12.68111134  219.14999390    4.90999985    2.13000011
   12.68416691  238.34100342    4.90999985    2.11999989
   12.68750000  217.12300110    4.90999985    2.07999992
   12.69055557  228.98599243    4.90999985    2.01999998
   12.69388866  221.35400391    4.90999985    2.01999998
   12.69722271  227.46400452    4.90999985    2.07999992
   12.70027733  198.81300354    4.90999985    2.11999989
   12.70638847  198.81300354    4.90999985    2.15000010
   12.71055508  216.83900452    4.90999985    2.15000010
   12.71361065  225.75599670    4.90999985    2.17000008
   12.71694374  196.50199890    4.90999985    2.19000006
   12.72027779  230.45300293    4.90999985    2.21000004
   12.72333336  248.23100281    4.90999985    2.15000010
   12.72666645  392.69100952    4.90999985    1.91999996
   12.72999954  369.22000122    4.90999985    1.66999996
   12.73305511  231.63499451    4.90999985    1.58000004
   12.73638916  221.24200439    4.90999985    1.39999998
   12.73944473  405.43200684    4.90999985    1.23000002
   12.74166679  162.63499451    4.90999985    1.28999996
   12.74166679  369.22000122    4.90999985    1.66999996
   12.74194431  231.63499451    4.90999985    1.58000004
   12.74194431  221.24200439    4.90999985    1.39999998
   12.74194431  405.43200684    4.90999985    1.23000002
   12.74222279  225.75599670    4.90999985    2.17000008
   12.74222279  196.50199890    4.90999985    2.19000006
   12.74222279  230.45300293    4.90999985    2.21000004
   12.74250031  248.23100281    4.90999985    2.15000010
   12.74250031  392.69100952    4.90999985    1.91999996
   12.74444485  177.57000732    4.90999985    1.98000002
   12.74777794  204.89900208    4.90999985    2.15000010
   12.75083351  218.16299438    4.90999985    2.17000008
   12.75416660  197.20199585    4.90999985    2.17000008
   12.75722218  219.42300415    4.90999985    2.15000010
   12.76249981  219.42300415    4.90999985    2.15000010
   12.76666641  199.61099243    4.90999985    2.15000010
   12.76972198  205.38000488    4.90999985    2.13000011
   12.77305508  235.95199585    4.90999985    2.15000010
   12.77555561  206.63000488    4.90999985    2.15000010
   12.77666664  209.19900513    4.90999985    2.13000011
   12.77999973  214.68699646    4.90999985    2.13000011
   12.78333378  233.55299377    4.90999985    2.17000008
   12.78638935  254.07400513    4.90999985    2.05999994
   12.78972244  301.82598877    4.90999985    2.00000000
   12.79277802  230.62899780    4.90999985    2.01999998
   12.79611111  270.53601074    4.90999985    1.78999996
   12.79944515   45.61690140    4.90999985    1.41999996
   12.80527782   45.61690140    4.90999985    1.58000004
   12.80944443   -1.00000000    4.90999985    1.23000002
   12.81250000   91.25789642    4.90999985    1.28999996
   12.81583309   48.76319885    4.90999985    1.21000004
   12.81916618  236.10200500    4.90999985    1.41999996
   12.82250023  281.93798828    4.90999985    1.94000006
   12.82555580  240.85699463    4.90999985    1.76999998
   12.82888889  421.76901245    4.90999985    1.61000001
   12.83083344  258.44198608    4.90999985    1.60000002
   12.83111095   48.76319885    4.90999985    1.21000004
   12.83111095  236.10200500    4.90999985    1.41999996
   12.83111095  281.93798828    4.90999985    1.94000006
   12.83138847  240.85699463    4.90999985    1.76999998
   12.83138847  421.76901245    4.90999985    1.61000001
   12.83138847  270.53601074    4.90999985    1.78999996
   12.83166695   45.61690140    4.90999985    1.41999996
   12.83166695   -1.00000000    4.90999985    1.23000002
   12.83166695   91.25789642    4.90999985    1.28999996
   12.83361053  247.33099365    4.90999985    1.58000004
   12.83694458  527.91900635    4.90999985    1.73000002
   12.83888817  184.00300598    4.90999985    1.75000000
   12.83916664  247.33099365    4.90999985    1.58000004
   12.83916664  527.91900635    4.90999985    1.73000002
   12.84111118  113.39499664    4.90999985    1.55999994
   12.84444427  513.21997070    4.90999985    1.55999994
   12.84638882  295.76998901    4.90999985    1.66999996
   12.84638882  113.39499664    4.90999985    1.55999994
   12.84666634  513.21997070    4.90999985    1.55999994
   12.84861088  201.62100220    4.90999985    1.88000000
   12.85166740  196.94500732    4.90999985    2.17000008
   12.85500050  213.76499939    4.90999985    2.26999998
   12.85833359  207.97099304    4.90999985    2.28999996
   12.86138916  253.35600281    4.90999985    2.25000000
   12.86722279  253.35600281    4.90999985    2.07999992
   12.87138939  219.85200500    4.90999985    1.94000006
   12.87444496  204.07200623    4.90999985    2.00000000
   12.87777805  243.70500183    4.90999985    2.09999990
   12.88027763  251.18499756    4.90999985    2.01999998
   12.88166714  212.25500488    4.90999985    2.03999996
   12.88472176  213.01199341    4.90999985    2.07999992
   12.88805580  224.93200684    4.90999985    2.19000006
   12.89111137  210.69400024    4.90999985    2.11999989
   12.89444447  204.95500183    4.90999985    2.19000006
   12.89777756  228.95599365    4.90999985    2.19000006
   12.90083313  201.87699890    4.90999985    2.15000010
   12.90416622  207.12500000    4.90999985    2.15000010
   12.90999985  207.12500000    4.90999985    2.07999992
   12.91416645  229.21699524    4.90999985    2.19000006
   12.91750050  287.22799683    4.90999985    2.15000010
   12.92055607  211.23300171    4.90999985    2.05999994
   12.92388916  246.80999756    4.90999985    2.15000010
   12.92722225  264.95498657    4.90999985    2.11999989
   12.93027782  239.51300049    4.90999985    2.07999992
   12.93361092  203.98399353    4.90999985    2.09999990
   12.93666649  211.97999573    4.90999985    2.17000008
   12.94000053  214.36799622    4.90999985    2.25000000
   12.94333363  200.77299500    4.90999985    2.26999998
   12.94638920  201.30299377    4.90999985    2.23000002
   12.94694424  194.87699890    4.90999985    2.23000002
   12.95277786  194.87699890    4.67999983    2.25000000
   12.95694447  213.34199524    4.90999985    2.26999998
   12.96027756  214.07699585    4.90999985    2.26999998
   12.96361065  211.55599976    4.90999985    2.26999998
   12.96666622  186.56199646    4.90999985    2.26999998
   12.96999931  208.92599487    4.90999985    2.26999998
   12.97305489  198.39599609    4.90999985    2.26999998
   12.97638798  190.81399536    4.90999985    2.26999998
   12.97972202  200.79800415    4.90999985    2.26999998
   12.98027706  191.99600220    4.90999985    2.26999998
   12.98333359  192.99400330    4.90999985    2.26999998
   12.98666668  179.52099609    4.90999985    2.26999998
   12.98972225  187.14799500    4.90999985    2.26999998
   12.99583340  187.14799500    4.90999985    2.28999996
   13.00000000  174.80700684    4.90999985    2.28999996
   13.00305557  191.66299438    4.90999985    2.28999996
   13.00638866  175.01600647    4.90999985    2.28999996
   13.00944424  181.11700439    4.90999985    2.30999994
   13.01277733  210.10400391    4.90999985    2.28999996
   13.01361084  187.79499817    4.90999985    2.28999996
   13.01638889  214.06100464    4.90999985    2.17000008
   13.01972198  207.21400452    4.90999985    2.17000008
   13.02277756  231.46800232    4.90999985    2.09999990
   13.02611065  188.52000427    4.90999985    2.03999996
   13.02916622  221.61099243    4.90999985    2.13000011
   13.03249931  208.27499390    4.90999985    2.15000010
   13.03861141  208.27499390    4.90999985    2.17000008
   13.04277802  187.52699280    4.90999985    2.30999994
   13.04583359  186.75399780    4.90999985    2.30999994
   13.04694462  198.75799561    4.90999985    2.30999994
   13.04972267  183.48699951    4.90999985    2.30999994
   13.05305576  182.33000183    4.90999985    2.28999996
   13.05611134  182.10299683    4.30999994    2.28999996
   13.05944443  178.77400208    3.01999998    2.28999996
   13.06250000  200.65299988    1.83000004    2.28999996
   13.06583309  181.39199829    1.39999998    2.28999996
   13.06916618  177.66499329    1.05999994    2.28999996
   13.07222176  181.12899780    0.98000002    2.28999996
   13.07555580  174.60000610    0.98000002    2.28999996
   13.08138847  174.60000610    0.89999998    2.28999996
   13.08555508  172.05599976    0.86000001    2.28999996
   13.08888817  180.85400391    0.80000001    2.28999996
   13.09194374  168.52600098    0.79000002    2.30999994
   13.09527779  164.92500305    0.79000002    2.28999996
   13.09861088  182.40400696    0.80000001    2.30999994
   13.10166740  188.34199524    0.80000001    2.28999996
   13.10500050  175.19000244    0.81999999    2.28999996
   13.10805607  180.47500610    0.79000002    2.30999994
   13.11138916  171.56300354    0.73000002    2.30999994
   13.11361122  181.05299377    0.73000002    2.28999996
   13.11500072  202.16400146    0.70999998    2.28999996
   13.11833382  182.73100281    0.70999998    2.30999994
   13.12416649  182.73100281    0.67000002    2.30999994
   13.12833309  172.63999939    0.69000000    2.30999994
   13.13166714  172.06599426    0.69000000    2.30999994
   13.13500023  171.02200317    0.67000002    2.30999994
   13.13805580  175.21200562    0.69000000    2.30999994
   13.14138889  173.28799438    0.69000000    2.30999994
   13.14444447  173.21299744    0.69000000    2.30999994
   13.14722252  163.88400269    0.69000000    2.30999994
   13.14861107  178.32400513    0.69000000    2.30999994
   13.15166664  174.97599792    0.67000002    2.30999994
   13.15499973  169.06900024    0.69000000    2.30999994
   13.15833282  173.14500427    0.67000002    2.30999994
   13.16138840  171.57600403    0.67000002    2.30999994
   13.16722298  171.57600403    0.67000002    2.30999994
   13.17138958  162.87300110    0.67000002    2.32999992
   13.17444515  160.59800720    0.67000002    2.30999994
   13.17777824  157.29200745    0.67000002    2.32999992
   13.18027782  172.72099304    0.73000002    2.32999992
   13.18138885  170.96800232    0.73000002    2.32999992
   13.18472195  165.76400757    0.75000000    2.30999994
   13.18777752  181.73100281    0.73000002    2.32999992
   13.19111156  169.74800110    0.70999998    2.32999992
   13.19444466  165.06700134    0.70999998    2.32999992
   13.19750023  163.25999451    0.75000000    2.32999992
   13.20083332  136.95100403    0.83999997    2.32999992
   13.20388889  156.45799255    0.98000002    2.32999992
   13.21000004  156.45799255    0.98000002    2.32999992
   13.21416664  161.76400757    0.92000002    2.32999992
   13.21722221  157.56900024    0.92000002    2.32999992
   13.22055531  160.36000061    0.92000002    2.32999992
   13.22388840  175.52699280    1.01999998    2.32999992
   13.22694397  162.62199402    1.13000000    2.32999992
   13.23027706  168.39999390    1.30999994    2.32999992
   13.23361111  171.72900391    1.30999994    2.32999992
   13.23666668  164.74800110    1.53999996    2.32999992
   13.24000072  170.58099365    1.60000002    2.32999992
   13.24305534  161.51800537    1.11000001    2.34999990
   13.24638939  157.07400513    1.11000001    2.34999990
   13.24694443  143.47300720    1.11000001    2.34999990
   13.25277805  143.47300720    2.51999998    2.34999990
   13.25694466  164.20399475    2.13000011    2.34999990
   13.26027775  163.55599976    1.80999994    2.34999990
   13.26333332  154.06399536    1.96000004    2.32999992
   13.26666641  154.28599548    2.73000002    2.32999992
   13.26999950  161.73399353    3.00000000    2.32999992
   13.27305508  157.44799805    3.68000007    2.30999994
   13.27638817  158.08599854    4.26999998    2.28999996
   13.27972221  154.36300659    4.38999987    2.28999996
   13.28027725  169.18899536    4.48999977    2.28999996
   13.28333378  154.05400085    4.90999985    2.30999994
   13.28666687  171.49699402    4.90999985    2.30999994
   13.28972244  167.70899963    4.90999985    2.26999998
   13.29555607  167.70899963    4.90999985    2.19000006
   13.29972267  165.76100159    4.90999985    2.09999990
   13.30305576  162.33799744    4.90999985    2.15000010
   13.30638885  157.21400452    4.90999985    2.25000000
   13.30944443  149.88099670    4.90999985    2.32999992
   13.31277752  150.48399353    4.90999985    2.34999990
   13.31361103  145.82899475    4.90999985    2.36999989
   13.31638908  151.82299805    4.90999985    2.34999990
   13.31972218  150.63600159    4.90999985    2.34999990
   13.32277775  155.43400574    4.90999985    2.32999992
   13.32611084  159.33000183    4.90999985    2.32999992
   13.32944393  150.81199646    4.36999989    2.34999990
   13.33249950  162.84800720    3.45000005    2.36999989
   13.33861065  162.84800720    2.89000010    2.36999989
   13.34249973  150.04400635    2.76999998    2.34999990
   13.36055565  146.73100281    3.93000007    2.32999992
   13.36250019  154.60400391    4.05999994    2.34999990
   13.36555576  164.21400452    4.42999983    2.36999989
   13.36888885  157.02099609    4.65999985    2.32999992
   13.37222195  155.64199829    4.88999987    2.32999992
   13.37527752  159.43400574    4.90999985    2.28999996
   13.38166714  159.43400574    4.90999985    2.30999994
   13.38555527  198.71800232    4.90999985    2.28999996
   13.38888836  178.60099792    4.90999985    2.26999998
   13.39222240  202.50500488    4.90999985    2.26999998
   13.39388847  200.75700378    4.90999985    2.28999996
   13.39583302  207.17300415    4.90999985    2.32999992
   13.39916611  176.11300659    4.90999985    2.32999992
   13.40222168  221.95199585    4.90999985    2.32999992
   13.40555477  206.30000305    4.90999985    2.32999992
   13.40861034  173.89100647    4.90999985    2.36999989
   13.41194439  195.99200439    4.90999985    2.36999989
   13.41527748  184.70300293    4.90999985    2.36999989
   13.41833401  188.03100586    4.90999985    2.36999989
   13.42444515  188.03100586    4.90999985    2.30999994
   13.42861176  176.10899353    4.90999985    2.30999994
   13.43166733  173.47200012    4.90999985    2.32999992
   13.43500042  171.54400635    4.90999985    2.30999994
   13.43833351  158.50900269    4.90999985    2.28999996
   13.44138908  165.01499939    4.90999985    2.30999994
   13.44472218  173.41200256    4.90999985    2.32999992
   13.44777775  174.82099915    4.90999985    2.34999990
   13.45111084  160.69400024    4.90999985    2.34999990
   13.45444393  152.90299988    4.90999985    2.36999989
   13.45749950  156.22200012    4.90999985    2.40000010
   13.46055508  180.03599548    4.90999985    2.40000010
   13.46111107  176.40199280    4.80999994    2.40000010
   13.46722221  176.40199280    4.80000019    2.40000010
   13.47138882  153.31599426    4.67999983    2.42000008
   13.47472191  160.31500244    4.28999996    2.40000010
   13.47777748  163.23699951    4.19999981    2.40000010
   13.48111057  151.26199341    4.78000021    2.39000010
   13.48416710  151.62899780    4.90999985    2.36999989
   13.48750019  166.49099731    4.90999985    2.39000010
   13.49083328  157.65299988    4.90999985    2.34999990
   13.49388885  171.15899658    4.90999985    2.32999992
   13.49444485  149.87600708    4.90999985    2.32999992
   13.49777794  158.48100281    4.90999985    2.34999990
   13.50083351  143.20899963    4.90999985    2.39000010
   13.50416660  160.46400452    4.90999985    2.40000010
   13.51000023  160.46400452    4.90999985    2.34999990
   13.51416683  161.78399658    4.90999985    2.28999996
   13.51749992  155.40299988    4.90999985    2.28999996
   13.52055550  155.30400085    4.90999985    2.28999996
   13.52388859  146.53100586    4.90999985    2.26999998
   13.52722168  142.26199341    4.90999985    2.34999990
   13.52777767  136.97700500    4.90999985    2.34999990
   13.53083324  149.47799683    4.90999985    2.40000010
   13.53416729  148.47000122    4.90999985    2.36999989
   13.53750038  143.98800659    4.90999985    2.32999992
   13.54055595  163.73899841    4.90999985    2.32999992
   13.54388905  157.97599792    4.90999985    2.25000000
   13.54722309  149.47200012    4.90999985    2.21000004
   13.55305576  149.47200012    4.90999985    2.30999994
   13.55694485  149.97200012    4.90999985    2.32999992
   13.56027794  144.62500000    4.90999985    2.26999998
   13.56111145  146.05200195    4.90999985    2.26999998
   13.56388950  147.18899536    4.90999985    2.30999994
   13.56722260  150.65199280    4.90999985    2.28999996
   13.57055569  149.52299500    4.90999985    2.30999994
   13.57361126  161.41400146    4.90999985    2.30999994
   13.57694435  142.64700317    4.90999985    2.28999996
   13.57999992  143.69799805    4.90999985    2.32999992
   13.58333302  139.47500610    4.90999985    2.34999990
   13.58666611  153.65199280    4.90999985    2.34999990
   13.58972168  143.81799316    4.90999985    2.36999989
   13.59583282  143.81799316    4.90999985    2.40000010
   13.60000038  156.73899841    4.90999985    2.36999989
   13.60305595  144.66299438    4.90999985    2.32999992
   13.60638905  142.83599854    4.90999985    2.30999994
   13.60972214  144.45899963    4.90999985    2.34999990
   13.61277771  142.47799683    4.90999985    2.32999992
   13.61611176  146.55499268    4.90999985    2.32999992
   13.61916637  149.08999634    4.90999985    2.30999994
   13.62250042  146.68400574    4.90999985    2.28999996
   13.62583351  144.43299866    4.90999985    2.34999990
   13.62777805  143.00399780    4.90999985    2.30999994
   13.62944412  141.87800598    4.90999985    2.32999992
   13.63277817  137.83599854    4.90999985    2.34999990
   13.63861084  137.83599854    4.90999985    2.36999989
   13.64277744  132.12899780    4.90999985    2.39000010
   13.64611053  145.66200256    4.90999985    2.39000010
   13.64916611  136.93800354    4.90999985    2.40000010
   13.65249920  137.05200195    4.90999985    2.40000010
   13.65555477  134.42100525    4.90999985    2.39000010
   13.65888882  136.30799866    4.90999985    2.39000010
   13.66111088  138.95899963    4.90999985    2.39000010
   13.66249943  135.53199768    4.90999985    2.39000010
   13.66583252  132.21000671    4.90999985    2.36999989
   13.66916656  133.01600647    4.90999985    2.39000010
   13.67222214  136.46200562    4.90999985    2.39000010
   13.67555618  130.62100220    4.90999985    2.46000004
   13.68138885  130.62100220    4.90999985    2.44000006
   13.68555546  128.89199829    4.82999992    2.40000010
   13.68888855  129.88499451    4.90999985    2.40000010
   13.69194412  132.02099609    4.90999985    2.40000010
   13.69444466  127.13600159    4.73999977    2.42000008
   13.69555569  132.22700500    4.57999992    2.44000006
   13.69888878  129.24400330    4.09999990    2.42000008
   13.70222187  128.97999573    3.95000005    2.39000010
   13.70527744  129.38900757    4.17999983    2.42000008
   13.70861053  132.32400513    3.84999990    2.40000010
   13.71166611  129.80200195    3.78999996    2.42000008
   13.71500015  139.22200012    4.09999990    2.40000010
   13.71833324  138.30000305    3.89000010    2.42000008
   13.72444439  138.30000305    4.21999979    2.40000010
   13.72833252  130.00599670    3.99000001    2.42000008
   13.73166656  128.14300537    3.95000005    2.40000010
   13.73500061  130.47099304    4.01999998    2.42000008
   13.73805618  126.87799835    3.91000009    2.42000008
   13.74138927  122.15100098    3.25000000    2.46000004
   13.74472237  128.43499756    2.67000008    2.46000004
   13.74777794  125.90899658    2.53999996    2.46000004
   13.75111103  123.84300232    2.66000009    2.44000006
   13.75416660  124.34300232    2.91000009    2.44000006
   13.75749969  127.29799652    2.86999989    2.40000010
   13.76083374  134.62100220    3.25000000    2.44000006
   13.76138878  123.70400238    3.21000004    2.46000004
   13.76722240  123.70400238    2.36999989    2.46000004
   13.77138901  126.17700195    2.01999998    2.46000004
   13.77444458  133.86199951    1.69000006    2.46000004
   13.77777767  125.31600189    1.46000004    2.46000004
   13.78111076  122.84200287    1.53999996    2.46000004
   13.78416729  134.95500183    1.69000006    2.44000006
   13.78750038  124.28199768    2.19000006    2.46000004
   13.79083347  128.26400757    2.19000006    2.44000006
   13.79388905  134.76699829    3.03999996    2.44000006
   13.79472256  124.13500214    3.11999989    2.42000008
   13.79750061  133.51499939    3.28999996    2.44000006
   13.80083370  130.49200439    3.00000000    2.42000008
   13.80416679  122.68199921    2.86999989    2.40000010
   13.81000042  122.68199921    1.78999996    2.46000004
   13.81416702  125.10099792    1.26999998    2.46000004
   13.81722260  125.74500275    1.11000001    2.44000006
   13.82055569  125.32499695    1.05999994    2.44000006
   13.82388878  124.75000000    1.01999998    2.44000006
   13.82694435  121.10399628    1.03999996    2.46000004
   13.82805538  128.14999390    1.05999994    2.46000004
   13.83055592  125.35399628    1.09000003    2.46000004
   13.83388901  127.85600281    1.07000005    2.46000004
   13.83722210  123.78399658    1.14999998    2.46000004
   13.84027767  129.80299377    1.28999996    2.46000004
   13.84361076  111.00199890    1.23000002    2.46000004
   13.84694386  126.23300171    1.23000002    2.46000004
   13.85277843  126.23300171    0.75000000    2.48000002
   13.85694504  130.72399902    0.76999998    2.48000002
   13.86027813  121.43900299    0.75000000    2.46000004
   13.86138916  122.47299957    0.81999999    2.48000002
   13.86388969  116.87000275    0.81999999    2.48000002
   13.86722279  126.76000214    0.81999999    2.48000002
   13.87055588  124.90899658    0.88000000    2.46000004
   13.87361145  127.99600220    1.07000005    2.46000004
   13.87694454  127.29399872    1.80999994    2.46000004
   13.88027763  124.74299622    1.80999994    2.46000004
   13.88333321  118.82099915    1.51999998    2.46000004
   13.88666630  128.55200195    1.03999996    2.46000004
   13.88972187  124.54900360    1.03999996    2.48000002
   13.89555550  124.54900360    1.51999998    2.46000004
   13.89972210  119.16999817    1.55999994    2.46000004
   13.90305519  123.70600128    1.55999994    2.46000004
   13.90638828  117.68199921    2.00000000    2.48000002
   13.90944386  126.61299896    2.36999989    2.46000004
   13.91277695  132.17199707    2.73000002    2.44000006
   13.91583252  126.80000305    3.36999989    2.46000004
   13.91916656  120.90499878    3.36999989    2.46000004
   13.92250061  120.02899933    3.21000004    2.46000004
   13.92555618  121.31800079    3.07999992    2.48000002
   13.92805576  127.98200226    3.00000000    2.44000006
   13.92916679  124.44100189    3.01999998    2.46000004
   13.93249989  121.41100311    2.80999994    2.48000002
   13.93861103  121.41100311    2.32999992    2.46000004
   13.94277763  121.01599884    1.48000002    2.48000002
   13.94583321  120.42199707    1.28999996    2.48000002
   13.94916630  131.41400146    1.48000002    2.48000002
   13.95222187  126.63999939    1.80999994    2.48000002
   13.95555496  126.20200348    2.48000002    2.48000002
   13.95888901  126.67099762    3.51999998    2.46000004
   13.96138859  129.28700256    4.01999998    2.44000006
   13.96222210  131.93200684    4.42999983    2.44000006
   13.96555519  122.81500244    4.53999996    2.46000004
   13.96888828  126.74400330    4.44999981    2.46000004
   13.97194386  131.60299683    3.99000001    2.44000006
   13.97527695  125.12100220    3.46000004    2.46000004
   13.98138809  125.12100220    2.67000008    2.48000002
   13.98555565  123.43699646    2.15000010    2.48000002
   13.98888874  125.26799774    2.48000002    2.48000002
   13.99194431  130.20500183    3.64000010    2.48000002
   13.99472237  134.28500366    4.26999998    2.46000004
   13.99555588  135.62300110    4.63999987    2.46000004
   13.99888897  132.55599976    4.90999985    2.44000006
   14.00222206  122.91799927    4.90999985    2.44000006
   14.00527763  132.40199280    4.90999985    2.46000004
   14.00861073  128.16900635    4.90999985    2.40000010
   14.01194477  131.04600525    4.90999985    2.46000004
   14.01500034  125.82499695    4.59999990    2.46000004
   14.01833344  129.43499756    4.13999987    2.46000004
   14.02416611  129.43499756    3.36999989    2.48000002
   14.02833271  131.86900330    3.36999989    2.48000002
   14.03166676  127.00499725    3.07999992    2.46000004
   14.03472233  128.33299255    3.41000009    2.48000002
   14.03805637  133.64300537    3.45000005    2.46000004
   14.04138947  129.62699890    3.26999998    2.48000002
   14.04444504  127.70200348    3.34999990    2.46000004
   14.04777813  132.89399719    3.50000000    2.46000004
   14.05111122  130.88900757    3.26999998    2.48000002
   14.05416679  148.61599731    2.82999992    2.48000002
   14.05749989  141.01199341    2.51999998    2.48000002
   14.06055546  139.38900757    2.73000002    2.48000002
   14.06138897  125.79699707    2.73000002    2.48000002
   14.06694412  125.79699707    2.30999994    2.48000002
   14.07111073  125.39099884    1.64999998    2.48000002
   14.07444477  125.26899719    1.69000006    2.48000002
   14.07777786  128.76600647    1.86000001    2.46000004
   14.08083344  134.13800049    2.09999990    2.48000002
   14.08416653  130.69200134    1.98000002    2.48000002
   14.08722210  123.95300293    1.53999996    2.48000002
   14.09055519  122.91300201    1.44000006    2.50000000
   14.09388828  131.49299622    1.21000004    2.50000000
   14.09472179  129.89999390    1.19000006    2.50000000
   14.09722233  124.82299805    1.23000002    2.50000000
   14.10055637  124.15399933    1.36000001    2.50000000
   14.10388947  128.25500488    1.36000001    2.48000002
   14.11000061  128.25500488    1.03999996    2.51999998
   14.11416721  126.80899811    1.00000000    2.50000000
   14.11722279  124.19899750    0.94000000    2.50000000
   14.12055588  137.00500488    1.86000001    2.48000002
   14.12388897  127.29000092    3.11999989    2.48000002
   14.12694454  130.44900513    3.11999989    2.48000002
   14.12805557  126.14399719    3.09999990    2.48000002
   14.13055611  141.70100403    3.09999990    2.48000002
   14.13388920  121.60399628    2.76999998    2.48000002
   14.13722229  134.08799744    2.59999990    2.50000000
   14.14027786  130.12199402    2.26999998    2.48000002
   14.14361095  126.42099762    2.09999990    2.50000000
   14.14694405  131.68299866    1.73000002    2.48000002
   14.15277767  131.68299866    1.46000004    2.50000000
   14.15694427  126.95899963    1.51999998    2.50000000
   14.15999985  129.48100281    1.51999998    2.50000000
   14.16138840  133.35699463    1.94000006    2.48000002
   14.16361046  128.89500427    2.23000002    2.48000002
   14.16694450  127.67099762    2.48000002    2.50000000
   14.17027855  121.65799713    2.03999996    2.50000000
   14.17333412  135.37199402    2.01999998    2.50000000
   14.17666721  128.58399963    2.03999996    2.48000002
   14.18000031  125.24400330    1.66999996    2.51999998
   14.18305588  127.31700134    1.36000001    2.51999998
   14.18638897  132.14700317    1.14999998    2.50000000
   14.18944454  127.11699677    0.89999998    2.50000000
   14.19555569  127.11699677    0.89999998    2.50000000
   14.19972229  128.44799805    1.36000001    2.51999998
   14.20305538  125.01100159    1.58000004    2.50000000
   14.20611095  136.12199402    1.55999994    2.51999998
   14.20944405  133.86300659    1.48000002    2.50000000
   14.21277714  131.94099426    1.48000002    2.50000000
   14.21583271  133.84500122    1.44000006    2.50000000
   14.21916580  128.68400574    1.60000002    2.51999998
   14.22222137  129.07099915    1.41999996    2.50000000
   14.22555542  130.22799683    1.13000000    2.50000000
   14.22805500  129.68600464    1.09000003    2.51999998
   14.22944355  127.11799622    1.09000003    2.51999998
   14.23249912  136.83599854    1.03999996    2.51999998
   14.23833370  136.83599854    1.01999998    2.51999998
   14.24250031  124.89900208    1.36000001    2.51999998
   14.24583340  131.27699280    1.53999996    2.51999998
   14.24916649  128.32699585    1.98000002    2.48000002
   14.25222206  131.82299805    2.23000002    2.50000000
   14.25555515  134.36300659    1.83000004    2.50000000
   14.25888920  129.85200500    1.63000000    2.50000000
   14.26138878  138.32099915    1.63000000    2.50000000
   14.26222229  132.03999329    1.55999994    2.50000000
   14.26555538  126.96399689    1.50000000    2.51999998
   14.26888847  142.98300171    1.53999996    2.51999998
   14.27194405  135.47799683    2.07999992    2.51999998
   14.27527714  142.71499634    2.34999990    2.50000000
   14.28138828  142.71499634    2.71000004    2.48000002
   14.28555584  143.87399292    3.01999998    2.48000002
   14.28861141  129.78799438    2.48000002    2.51999998
   14.29194450  135.69099426    2.09999990    2.50000000
   14.29472256  132.39300537    2.39000010    2.48000002
   14.29527855  135.50900269    2.39000010    2.48000002
   14.29861164  134.05999756    2.34999990    2.48000002
   14.30194473  129.79299927    1.98000002    2.51999998
   14.30500031  137.02200317    1.48000002    2.51999998
   14.30833340  129.15899658    1.44000006    2.51999998
   14.31166649  141.83999634    1.64999998    2.51999998
   14.31472206  137.07699585    1.69000006    2.51999998
   14.31805515  132.73599243    1.36000001    2.51999998
   14.32416630  132.73599243    1.25000000    2.51999998
   14.32833290  130.14100647    1.63000000    2.51999998
   14.33138847  129.46400452    2.17000008    2.51999998
   14.33472157  131.41000366    2.17000008    2.50000000
   14.33805561  132.06500244    2.39000010    2.48000002
   14.34111118  130.92100525    2.80999994    2.50000000
   14.34444427  126.51000214    2.96000004    2.50000000
   14.34777737  128.35099792    3.03999996    2.48000002
   14.35083389  136.19799805    3.05999994    2.48000002
   14.35416698  135.53999329    2.94000006    2.48000002
   14.35722256  137.80099487    3.21000004    2.51999998
   14.36055565  134.55799866    3.34999990    2.46000004
   14.37777805  139.56599426    3.46000004    2.50000000
   14.38194466  139.56599426    3.86999989    2.48000002
   14.38611126  132.52600098    4.53999996    2.50000000
   14.38944435  134.47399902    4.80000019    2.44000006
   14.39277744  134.09700012    4.88999987    2.46000004
   14.39583302  136.42900085    4.90999985    2.46000004
   14.39916611  132.92500305    4.90999985    2.40000010
   14.40222168  133.08900452    4.90999985    2.48000002
   14.40555477  125.67199707    3.59999990    2.46000004
   14.40888882  143.58099365    2.76999998    2.50000000
   14.41111088  130.39300537    2.57999992    2.50000000
   14.41249943  132.63699341    2.64000010    2.50000000
   14.41555500  134.46600342    2.91000009    2.51999998
   14.41888905  131.96299744    2.71000004    2.51999998
   14.42500019  131.96299744    2.40000010    2.51999998
   14.42916679  140.67900085    2.89000010    2.51999998
   14.43222237  138.31100464    2.64000010    2.50000000
   14.43555546  139.60299683    3.66000009    2.48000002
   14.43861103  143.81799316    3.48000002    2.46000004
   14.44194412  141.13400269    3.14000010    2.50000000
   14.44444466  138.64599609    2.40000010    2.53999996
   14.44555569  126.64399719    1.96000004    2.53999996
   14.44861126  136.55900574    2.11999989    2.51999998
   14.45194435  149.13299561    2.53999996    2.50000000
   14.45527744  130.18400574    2.69000006    2.50000000
   14.45833302  145.08399963    2.71000004    2.50000000
   14.46166611  142.96699524    2.64000010    2.50000000
   14.46777725  142.96699524    2.91000009    2.51999998
   14.47194386  144.75999451    2.55999994    2.51999998
   14.47499943  192.49299622    2.61999989    2.51999998
   14.47777748  141.99099731    3.05999994    2.48000002
   14.47888851  165.98899841    3.20000005    2.48000002
   14.48194408  160.86799622    3.01999998    2.51999998
   14.48527813  146.28799438    2.51999998    2.51999998
   14.48861122  168.55099487    2.40000010    2.51999998
   14.49166679  157.76600647    2.53999996    2.51999998
   14.49499989  177.88900757    2.30999994    2.51999998
   14.49833393  160.35800171    2.01999998    2.53999996
   14.50138855  143.90699768    1.63000000    2.51999998
   14.50472260  159.74499512    1.38000000    2.53999996
   14.51055527  159.74499512    1.21000004    2.51999998
   14.51472187  147.67900085    1.30999994    2.51999998
   14.51805496  138.38699341    1.36000001    2.53999996
   14.52111053  143.26699829    1.38000000    2.55999994
   14.52444458  146.11700439    1.53999996    2.50000000
   14.52777767  161.89799500    1.88000000    2.53999996
   14.53083324  140.41400146    1.76999998    2.51999998
   14.53416729  153.25799561    2.19000006    2.53999996
   14.53722286  162.42700195    2.32999992    2.51999998
   14.54055595  174.92300415    3.26999998    2.48000002
   14.54388905  189.05400085    3.32999992    2.51999998
   14.54583359  171.11799622    2.80999994    2.51999998
   14.54750061  186.70899963    2.48000002    2.50000000
   14.55333328  186.70899963    2.66000009    2.53999996
   14.55749989  173.33099365    2.67000008    2.50000000
   14.56083393  180.60400391    2.69000006    2.51999998
   14.56416702  165.87800598    2.69000006    2.48000002
   14.56722260  161.35200500    2.19000006    2.53999996
   14.57055569  199.64799500    1.96000004    2.53999996
   14.57361126  170.11599731    2.98000002    2.50000000
   14.57694435  185.09100342    3.50000000    2.48000002
   14.57916641  164.95300293    4.30999994    2.44000006
   14.58055592  176.25100708    4.55999994    2.42000008
   14.58388901  177.74699402    3.72000003    2.50000000
   14.58722210  191.92300415    3.32999992    2.53999996
   14.59027767  188.96600342    4.21999979    2.51999998
   14.59638882  188.96600342    4.90999985    2.42000008
   14.60027790  202.56900024    4.90999985    2.42000008
   14.60361195  177.97700500    4.90999985    2.40000010
   14.60694504  168.57099915    4.90999985    2.46000004
   14.61000061  169.51600647    4.90999985    2.50000000
   14.61250019  165.52400208    4.86999989    2.48000002
   14.61388969  169.98199463    4.82999992    2.50000000
   14.61694431  163.56700134    4.51000023    2.50000000
   14.62027836  174.93699646    4.80000019    2.50000000
   14.62361145  164.57800293    4.90999985    2.48000002
   14.62666702  171.47000122    4.90999985    2.42000008
   14.63000011  149.17999268    4.90999985    2.51999998
   14.63305569  150.30999756    4.28999996    2.50000000
   14.63916683  150.30999756    4.73999977    2.48000002
   14.64333344  150.25500488    4.90999985    2.50000000
   14.64583302  154.84500122    4.90999985    2.48000002
   14.64694405  162.15299988    4.90999985    2.46000004
   14.64999962  148.02900696    4.90999985    2.48000002
   14.65333271  152.82899475    4.90999985    2.46000004
   14.65666676  150.84800720    4.90999985    2.46000004
   14.65972137  145.92799377    4.90999985    2.46000004
   14.66305542  158.64999390    4.90999985    2.48000002
   14.66611099  139.96499634    4.90999985    2.44000006
   14.66944504  149.33700562    4.90999985    2.48000002
   14.67277813  152.96899414    4.80000019    2.46000004
   14.67583370  156.25799561    4.46999979    2.50000000
   14.68194485  156.25799561    4.46999979    2.51999998
   14.68611145  143.52600098    4.90999985    2.44000006
   14.68944454  146.68400574    4.90999985    2.51999998
   14.69250011  146.69000244    4.90999985    2.50000000
   14.69583321  142.49899292    4.82999992    2.50000000
   14.69888878  140.48100281    4.90999985    2.50000000
   14.70222187  142.25199890    4.88999987    2.51999998
   14.70555496  153.84599304    4.61999989    2.50000000
   14.70861053  142.29400635    3.99000001    2.51999998
   14.71194458  138.28500366    3.43000007    2.53999996
   14.71277714  144.99499512    3.21000004    2.53999996
   14.71555519  143.18400574    2.91000009    2.53999996
   14.71888828  140.50199890    3.91000009    2.51999998
   14.72472191  140.50199890    4.90999985    2.48000002
   14.72888851  144.13299561    4.90999985    2.46000004
   14.73222160  136.54699707    4.90999985    2.46000004
   14.73527813  136.91700745    4.90999985    2.48000002
   14.73861122  143.77499390    4.86999989    2.51999998
   14.74194431  151.10400391    3.70000005    2.53999996
   14.74499989  147.11099243    3.61999989    2.53999996
   14.74611092  137.81500244    3.46000004    2.53999996
   14.74861145  174.18400574    3.48000002    2.51999998
   14.75194454  165.87899780    3.51999998    2.50000000
   14.75500011  222.14500427    4.09999990    2.51999998
   14.75833321  217.16299438    4.36999989    2.51999998
   14.76166630  192.91799927    4.84999990    2.48000002
   14.76777744  192.91799927    4.88999987    2.48000002
   14.77166653  199.66900635    3.89000010    2.51999998
   14.77499962  152.38800049    3.64000010    2.53999996
   14.77833271  168.78900146    3.70000005    2.53999996
   14.77972221  176.22099304    3.72000003    2.51999998
   14.78194427  194.70799255    4.01999998    2.50000000
   14.78500080  162.63699341    4.90999985    2.55999994
   14.78833389  194.22300720    4.90999985    2.46000004
   14.79166698  215.03500366    4.90999985    2.26999998
   14.79472256  171.07600403    4.90999985    2.19000006
   14.79805565  203.08599854    4.90999985    2.40000010
   14.80138874  180.25900269    4.90999985    2.51999998
   14.80444431  168.38900757    4.90999985    2.50000000
   14.81055546  168.38900757    4.90999985    2.46000004
   14.81472206  181.11900330    4.90999985    2.39000010
   14.81777763  188.20100403    4.90999985    2.40000010
   14.82111073  187.03700256    4.90999985    2.48000002
   14.82416630  171.18099976    4.90999985    2.53999996
   14.82750034  163.23899841    4.90999985    2.46000004
   14.83083344  196.11199951    4.90999985    2.34999990
   14.83388901  203.99200439    4.90999985    2.34999990
   14.83722210  152.52200317    4.90999985    2.42000008
   14.84055519  169.14100647    4.90999985    2.46000004
   14.84361076  182.70199585    4.90999985    2.46000004
   14.84638882  159.73199463    4.90999985    2.46000004
   14.84749985  155.41499329    4.90999985    2.44000006
   14.85333347  155.41499329    4.90999985    2.46000004
   14.85750008  162.06500244    4.90999985    2.48000002
   14.86083412  152.40800476    4.90999985    2.50000000
   14.86388969  152.67900085    4.90999985    2.50000000
   14.86722279  142.16799927    4.90999985    2.50000000
   14.87027836  139.21600342    4.90999985    2.51999998
   14.87361145  142.96200562    4.90999985    2.51999998
   14.87694454  152.92599487    4.90999985    2.48000002
   14.87972260  137.11300659    4.90999985    2.42000008
   14.88055611  152.98100281    4.90999985    2.42000008
   14.88361073  136.07499695    4.90999985    2.46000004
   14.88694477  137.30900574    4.61999989    2.50000000
   14.89027786  137.16499329    2.86999989    2.55999994
   14.89611053  137.16499329    4.21999979    2.51999998
   14.90027714  134.98899841    4.90999985    2.50000000
   14.90361118  137.23599243    4.90999985    2.51999998
   14.90666676  145.98500061    4.01999998    2.51999998
   14.90999985  141.54499817    3.80999994    2.53999996
   14.91305542  131.56300354    3.43000007    2.53999996
   14.91361046  133.51300049    3.43000007    2.53999996
   14.91666698  139.07000732    2.55999994    2.55999994
   14.92000008  133.15299988    2.64000010    2.55999994
   14.92333412  140.07800293    3.20000005    2.53999996
   14.92638874  137.98399353    3.48000002    2.53999996
   14.92972279  131.87199402    3.78999996    2.51999998
   14.93305588  145.45300293    3.61999989    2.55999994
   14.93916702  145.45300293    4.26000023    2.51999998
   14.94305515  150.61700439    4.90999985    2.51999998
   14.94638920  144.60400391    4.90999985    2.21000004
   14.94694424  183.62699890    4.90999985    2.21000004
   14.94999981  210.65600586    4.90999985    2.11999989
   14.95333290  187.45899963    4.90999985    2.01999998
   14.95666695  143.59700012    4.90999985    2.05999994
   14.95972157  139.32899475    4.90999985    2.32999992
   14.96305561  143.15100098    4.90999985    2.44000006
   15.06777763   -1.00000000   -1.00000000   -1.00000000
   15.16833401   -1.00000000   -1.00000000   -1.00000000
   15.27944374   -1.00000000   -1.00000000   -1.00000000
   15.34527779  186.05700684    4.90999985    2.30999994
   15.34833336  185.69999695    4.90999985    2.17000008
   15.35166740  174.28399658    4.90999985    2.19000006
   15.35527802  168.77699280    4.90999985    2.28999996
   15.35833359  168.63299561    4.90999985    2.25000000
   15.36166668  155.69999695    4.90999985    2.25000000
   15.36583328  155.69999695    4.90999985    2.30999994
   15.36999989  145.03799438    4.90999985    2.44000006
   15.37305546  137.60200500    4.90999985    2.46000004
   15.37638855  141.00999451    4.90999985    2.39000010
   15.37861156  138.34100342    4.90999985    2.44000006
   15.38000011  138.08299255    4.90999985    2.46000004
   15.38333321  142.39799500    4.90999985    2.44000006
   15.38638878  158.19999695    4.90999985    2.36999989
   15.38972187  151.82600403    4.90999985    2.36999989
   15.39305496  140.38000488    4.90999985    2.46000004
   15.39611053  149.15199280    4.90999985    2.46000004
   15.39944458  127.64800262    4.90999985    2.48000002
   15.40277767  143.82800293    4.90999985    2.50000000
   15.40861034  143.82800293    4.90999985    2.42000008
   15.41277695  141.56300354    4.90999985    2.44000006
   15.41583252  146.36199951    4.90999985    2.46000004
   15.41916656  141.68800354    4.90999985    2.42000008
   15.42250061  140.77900696    4.90999985    2.42000008
   15.42555618  140.46099854    4.90999985    2.46000004
   15.42888927  134.89799500    4.90999985    2.46000004
   15.43222237  125.59300232    4.90999985    2.51999998
   15.43527794  142.37100220    4.90999985    2.57999992
   15.43861103  149.68600464    4.90999985    2.59999990
   15.44166660  133.53599548    4.90999985    2.55999994
   15.44499969  137.41799927    4.90999985    2.46000004
   15.44555569  143.05400085    4.90999985    2.46000004
   15.45138836  143.05400085    4.90999985    2.50000000
   15.45555496  133.62199402    4.90999985    2.50000000
   15.45888901  136.33399963    4.90999985    2.50000000
   15.46194458  137.31399536    4.90999985    2.46000004
   15.46527767  138.20100403    4.90999985    2.51999998
   15.46861076  133.13000488    4.90999985    2.46000004
   15.47166634  134.86300659    4.90999985    2.48000002
   15.47499943  147.27799988    4.90999985    2.51999998
   15.47805500  132.63099670    4.90999985    2.51999998
   15.47888851  135.39300537    4.90999985    2.51999998
   15.48194408  139.87800598    4.90999985    2.53999996
   15.48500061  142.78500366    4.90999985    2.46000004
   15.48833370  138.12399292    4.90999985    2.48000002
   15.49444485  138.12399292    4.90999985    2.48000002
   15.49833393  140.16400146    4.90999985    2.42000008
   15.50166702  144.37699890    4.90999985    2.50000000
   15.50500011  145.72099304    4.90999985    2.46000004
   15.50805569  139.29699707    4.90999985    2.55999994
   15.51138878  138.88800049    4.80000019    2.53999996
   15.51222229  145.59199524    4.80000019    2.53999996
   15.51500034  152.79600525    4.90999985    2.53999996
   15.51805496  152.02699280    4.90999985    2.48000002
   15.52138901  149.33500671    4.90999985    2.55999994
   15.52472210  157.11599731    4.90999985    2.51999998
   15.52777767  155.07600403    4.90999985    2.55999994
   15.53111076  148.45899963    4.90999985    2.53999996
   15.53722286  148.45899963    4.90999985    2.53999996
   15.54138947  156.67500305    4.90999985    2.53999996
   15.54444504  139.71200562    4.90999985    2.51999998
   15.54555607  150.26699829    4.90999985    2.53999996
   15.54833412  142.55799866    4.90999985    2.51999998
   15.55138874  143.43800354    4.90999985    2.57999992
   15.55472279  149.36700439    4.51000023    2.55999994
   15.55805588  140.95399475    4.23999977    2.59999990
   15.56111145  141.83200073    4.32999992    2.55999994
   15.56444454  145.68800354    4.90999985    2.51999998
   15.56750011  152.02699280    4.90999985    2.51999998
   15.57083321  154.17799377    4.90999985    2.48000002
   15.57416630  154.19999695    4.90999985    2.50000000
   15.57999992  154.19999695    4.90999985    2.53999996
   15.58416653  144.44000244    4.90999985    2.53999996
   15.58722210  143.86599731    4.90999985    2.48000002
   15.59055519  145.44299316    4.90999985    2.51999998
   15.59388828  144.77400208    4.90999985    2.51999998
   15.59694386  153.46200562    4.90999985    2.51999998
   15.60027790  159.62500000    4.90999985    2.48000002
   15.60361195  138.97000122    4.90999985    2.51999998
   15.60666752  230.41400146    4.90999985    2.40000010
   15.61000061  203.75100708    4.90999985    2.26999998
   15.61222267  194.76100159    4.90999985    2.32999992
   15.61361122  212.62199402    4.90999985    2.50000000
   15.61666679  209.91499329    4.90999985    2.50000000
   15.62277794  209.91499329    4.90999985    2.26999998
   15.62694454  223.18099976    4.90999985    2.44000006
   15.63027763  239.41099548    4.90999985    2.46000004
   15.63333321  228.92199707    4.90999985    2.48000002
   15.63666630  233.91400146    4.90999985    2.42000008
   15.64000034  235.44500732    4.90999985    2.40000010
   15.64305496  221.11500549    4.90999985    2.48000002
   15.64555550  208.57000732    4.90999985    2.48000002
   15.64694405  218.54200745    4.90999985    2.48000002
   15.64999962  216.77900696    4.90999985    2.53999996
   15.65333271  202.70100403    4.90999985    2.53999996
   15.65666676  203.29899597    4.90999985    2.51999998
   15.65972137  198.60499573    4.90999985    2.46000004
   15.66555500  198.60499573    4.90999985    2.46000004
   15.66972256  213.19999695    4.90999985    2.46000004
   15.67305565  208.71400452    4.90999985    2.46000004
   15.67638874  214.44500732    4.90999985    2.48000002
   15.67888927  237.36000061    4.90999985    2.46000004
   15.68000031  220.76400757    4.90999985    2.50000000
   15.68305588  217.05599976    4.90999985    2.46000004
   15.68638897  221.20700073    4.90999985    2.50000000
   15.68972206  208.82699585    4.90999985    2.50000000
   15.69277763  203.78399658    4.90999985    2.51999998
   15.69611073  216.04100037    4.90999985    2.51999998
   15.69916630  207.49600220    4.90999985    2.48000002
   15.70249939  225.15100098    4.90999985    2.42000008
   15.70861053  225.15100098    4.90999985    2.46000004
   15.71277714  210.20599365    4.90999985    2.46000004
   15.71583271  235.21499634    4.90999985    2.46000004
   15.71916580  223.15699768    4.90999985    2.46000004
   15.72222137  195.49400330    4.90999985    2.44000006
   15.72555542  212.52000427    4.90999985    2.51999998
   15.72888851  211.28999329    4.90999985    2.50000000
   15.73194408  206.78199768    4.90999985    2.46000004
   15.73527813  192.44500732    4.90999985    2.46000004
   15.73861122  207.76300049    4.90999985    2.44000006
   15.74166679  205.95300293    4.90999985    2.48000002
   15.74499989  211.60200500    4.90999985    2.42000008
   15.74555588  196.69299316    4.90999985    2.42000008
   15.75138855  196.69299316    4.90999985    2.40000010
   15.75555515  178.28300476    4.90999985    2.36999989
   15.75861073  203.47099304    4.90999985    2.39000010
   15.76194477  184.04100037    4.90999985    2.36999989
   15.76527786  184.33599854    4.90999985    2.42000008
   15.76833344  185.32099915    4.90999985    2.42000008
   15.77166653  187.90100098    4.90999985    2.36999989
   15.77499962  192.47200012    4.90999985    2.28999996
   15.77805519  186.52999878    4.90999985    2.30999994
   15.77888870  187.94700623    4.90999985    2.34999990
   15.78166676  212.29699707    4.90999985    2.32999992
   15.78472233  211.40400696    4.90999985    2.26999998
   15.78805637  209.46099854    4.90999985    2.21000004
   15.79416752  209.46099854    4.90999985    2.26999998
   15.79833412  198.36799622    4.90999985    2.32999992
   15.80166721  218.78399658    4.90999985    2.28999996
   15.80472279  201.46699524    4.90999985    2.23000002
   15.80805588  184.29400635    4.90999985    2.30999994
   15.81138897  200.19000244    4.90999985    2.26999998
   15.81222248  208.10099792    4.90999985    2.19000006
   15.81500053  185.45100403    4.90999985    2.23000002
   15.81805515  196.37100220    4.90999985    2.32999992
   15.82138920  184.52099609    4.90999985    2.28999996
   15.82472229  185.76400757    4.90999985    2.32999992
   15.82777786  175.25100708    4.90999985    2.25000000
   15.83111095  167.02999878    4.90999985    2.26999998
   15.83722210  167.02999878    4.90999985    2.32999992
   15.84111118  165.32299805    4.90999985    2.39000010
   15.84444427  155.41900635    4.90999985    2.40000010
   15.84555531  154.11999512    4.90999985    2.39000010
   15.84805489  160.23500061    4.90999985    2.42000008
   15.85111141  155.14900208    4.90999985    2.40000010
   15.85444450  162.56500244    4.90999985    2.40000010
   15.85777855  153.22200012    4.90999985    2.40000010
   15.86083412  151.78599548    4.90999985    2.40000010
   15.86416721  157.80400085    4.90999985    2.42000008
   15.86750031  143.89399719    4.90999985    2.39000010
   15.87055588  151.78799438    4.90999985    2.40000010
   15.87388897  155.86700439    4.90999985    2.39000010
   15.88000011  155.86700439    4.90999985    2.39000010
   15.88416672  144.96699524    4.90999985    2.39000010
   15.88722229  153.34599304    4.90999985    2.39000010
   15.89055538  151.23100281    4.90999985    2.40000010
   15.89361095  139.31199646    4.90999985    2.39000010
   15.89694405  144.70199585    4.90999985    2.40000010
   15.90027714  148.38000488    4.90999985    2.40000010
   15.90333271  148.37399292    4.90999985    2.39000010
   15.90666676  157.99000549    4.90999985    2.36999989
   15.90999985  145.68200684    4.90999985    2.39000010
   15.91222191  153.59500122    4.90999985    2.44000006
   15.91361046  145.16400146    4.90999985    2.42000008
   15.91666698  157.58700562    4.90999985    2.40000010
   15.92277813  157.58700562    4.90999985    2.39000010
   15.92694473  158.72900391    4.90999985    2.39000010
   15.93000031  151.34399414    4.90999985    2.39000010
   15.93333340  147.99299622    4.90999985    2.40000010
   15.93666649  155.94700623    4.90999985    2.42000008
   15.94000053  146.78999329    4.90999985    2.44000006
   15.94305515  145.36900330    4.90999985    2.46000004
   15.94555569  150.07699585    4.90999985    2.46000004
   15.94666672  147.32600403    4.90999985    2.44000006
   15.94972229  158.14599609    4.90999985    2.42000008
   15.95305538  155.32899475    4.90999985    2.40000010
   15.95638847  156.19299316    4.90999985    2.39000010
   15.95944405  153.98899841    4.90999985    2.40000010
   15.96555519  153.98899841    4.90999985    2.39000010
   15.96972179  154.90800476    4.90999985    2.40000010
   15.97305489  160.46200562    4.90999985    2.42000008
   15.97611046  147.63400269    4.90999985    2.36999989
   15.97888851  167.75700378    4.90999985    2.46000004
   15.97999954  151.21800232    4.90999985    2.40000010
   15.98305511  149.83000183    4.90999985    2.42000008
   15.98638916  153.82400513    4.90999985    2.46000004
   15.98972225  149.51699829    4.90999985    2.42000008
   15.99277782  164.27000427    4.90999985    2.40000010
   15.99611092  152.50799561    4.90999985    2.39000010
   15.99944496  146.66099548    4.90999985    2.40000010
   16.00250053  148.23199463    4.90999985    2.42000008
   16.00833321  148.23199463    4.90999985    2.46000004
   16.01250076  159.76400757    4.90999985    2.46000004
   16.01583290  153.75300598    4.90999985    2.46000004
   16.01916695  159.94900513    4.90999985    2.44000006
   16.02222252  152.14999390    4.90999985    2.48000002
   16.02555466  150.78700256    4.90999985    2.48000002
   16.02888870  153.61500549    4.90999985    2.48000002
   16.03194427  151.50999451    4.90999985    2.50000000
   16.03527641  159.58900452    4.90999985    2.50000000
   16.03861046  144.65199280    4.90999985    2.48000002
   16.04166603  141.80700684    4.90999985    2.50000000
   16.04500008  152.00900269    4.90999985    2.50000000
   16.04555511  143.76300049    4.90999985    2.50000000
   16.05138779  143.76300049    4.90999985    2.46000004
   16.05555534  140.79600525    4.90999985    2.48000002
   16.05861092  144.19999695    4.90999985    2.48000002
   16.06194305  149.80900574    4.90999985    2.50000000
   16.06499863  144.72300720    4.90999985    2.48000002
   16.06833458  136.65299988    4.90999985    2.46000004
   16.07166672  160.20599365    4.90999985    2.48000002
   16.07472229  145.24099731    4.90999985    2.50000000
   16.07805634  151.51800537    4.90999985    2.48000002
   16.07888985  139.12699890    4.90999985    2.48000002
   16.08166695  147.33799744    4.90999985    2.48000002
   16.08500099  153.62600708    4.90999985    2.44000006
   16.08805656  160.39900208    4.90999985    2.48000002
   16.09416771  160.39900208    4.90999985    2.42000008
   16.09833336  145.43400574    4.90999985    2.46000004
   16.10138893  146.66499329    4.90999985    2.46000004
   16.10472298  141.14999390    4.90999985    2.50000000
   16.10805511  140.23399353    4.90999985    2.46000004
   16.11111069  148.33000183    4.90999985    2.44000006
   16.11222267  139.72799683    4.90999985    2.46000004
   16.11472321  143.39300537    4.90999985    2.46000004
   16.11805534  140.77900696    4.90999985    2.44000006
   16.12111092  147.91700745    4.90999985    2.48000002
   16.12444496  142.60200500    4.90999985    2.46000004
   16.12750053  146.15600586    4.90999985    2.50000000
   16.13083267  141.35899353    4.90999985    2.48000002
   16.13694382  141.35899353    4.90999985    2.46000004
   16.14111137  143.89700317    4.90999985    2.48000002
   16.14444351  151.11099243    4.90999985    2.48000002
   16.14555550  145.55299377    4.90999985    2.46000004
   16.14805603  142.07400513    4.90999985    2.42000008
   16.15138817  144.86599731    4.90999985    2.44000006
   16.15444374  159.16099548    4.90999985    2.39000010
   16.15777779  156.16700745    4.90999985    2.32999992
   16.16083336  180.87699890    4.90999985    2.26999998
   16.16416550  181.69900513    4.90999985    2.19000006
   16.16749954  176.51899719    4.90999985    2.21000004
   16.17055511  163.19799805    4.90999985    2.23000002
   16.17388916  156.46000671    4.90999985    2.26999998
   16.18000031  156.46000671    4.90999985    2.30999994
   16.18388748  170.06300354    4.90999985    2.30999994
   16.18722153  188.20899963    4.90999985    2.23000002
   16.19055557  178.54100037    4.90999985    2.19000006
   16.19361115  176.48300171    4.90999985    2.11999989
   16.19694328  185.09300232    4.90999985    2.13000011
   16.20000076  188.46000671    4.90999985    2.15000010
   16.20333481  170.78799438    4.90999985    2.11999989
   16.20666695  169.45700073    4.90999985    2.17000008
   16.20972252  168.53700256    4.90999985    2.23000002
   16.21222305  178.92999268    4.90999985    2.23000002
   16.21333504  180.71600342    4.90999985    2.23000002
   16.21666718  170.06700134    4.90999985    2.19000006
   16.22277832  170.06700134    4.90999985    2.25000000
   16.22694588  159.14500427    4.90999985    2.32999992
   16.23000145  158.88099670    4.90999985    2.30999994
   16.23333359  166.78999329    4.90999985    2.30999994
   16.23666763  169.21600342    4.90999985    2.23000002
   16.23972321  154.75399780    4.90999985    2.28999996
   16.24305534  172.73100281    4.90999985    2.30999994
   16.24555588  173.93600464    4.90999985    2.28999996
   16.24666786  160.53199768    4.90999985    2.30999994
   16.25000000  168.96299744    4.90999985    2.28999996
   16.25305557  171.31700134    4.90999985    2.25000000
   16.25638962  167.08900452    4.90999985    2.28999996
   16.25944519  167.37300110    4.90999985    2.26999998
   16.26555634  167.37300110    4.90999985    2.34999990
   16.26972198  168.60899353    4.90999985    2.32999992
   16.27305603  173.45599365    4.90999985    2.30999994
   16.27611160  176.27000427    4.90999985    2.30999994
   16.27888870  174.50799561    4.90999985    2.40000010
   16.27972221  177.78700256    4.90999985    2.40000010
   16.28305435  183.22099304    4.90999985    2.40000010
   16.28610992  187.32400513    4.90999985    2.42000008
   16.28944397  188.87199402    4.90999985    2.39000010
   16.29249954  191.54600525    4.90999985    2.40000010
   16.29583359  200.56399536    4.90999985    2.40000010
   16.29916573  203.28399658    4.90999985    2.40000010
   16.30222130  204.70199585    4.90999985    2.42000008
   16.30833244  204.70199585    4.90999985    2.40000010
   16.31250000  225.09700012    4.90999985    2.40000010
   16.31583214  245.06100464    4.90999985    2.44000006
   16.31888962  242.57499695    4.90999985    2.36999989
   16.32222366  231.39100647    4.90999985    2.36999989
   16.32555580  208.49400330    4.90999985    2.39000010
   16.32861137  197.71000671    4.90999985    2.40000010
   16.33194542  203.61399841    4.90999985    2.42000008
   16.33527756  221.86500549    4.90999985    2.40000010
   16.33833313  199.25799561    4.90999985    2.39000010
   16.34166718  184.30999756    4.90999985    2.34999990
   16.34472275  178.19000244    4.90999985    2.42000008
   16.34555626  183.03799438    4.90999985    2.42000008
   16.36638832  183.03799438    4.90999985    2.48000002
   16.37055588  164.63900757    4.90999985    2.42000008
   16.37361145  162.53199768    4.90999985    2.44000006
   16.37694550  168.57800293    4.90999985    2.46000004
   16.37888908  170.69900513    4.90999985    2.39000010
   16.38055611  174.48800659    4.90999985    2.42000008
   16.38388824  182.99600220    4.90999985    2.36999989
   16.38694382  178.08599854    4.90999985    2.32999992
   16.39027786  179.04200745    4.90999985    2.42000008
   16.39361191  178.13600159    4.90999985    2.39000010
   16.39666748  195.08399963    4.90999985    2.42000008
   16.39999962  175.75000000    4.90999985    2.42000008
   16.40305519  175.19400024    4.90999985    2.36999989
   16.40916634  175.19400024    4.90999985    2.36999989
   16.41333389  180.23899841    4.90999985    2.40000010
   16.41638756  181.34399414    4.90999985    2.36999989
   16.41972160  177.74200439    4.90999985    2.32999992
   16.42305565  187.04100037    4.90999985    2.30999994
   16.42611122  175.94599915    4.90999985    2.30999994
   16.42944336  182.62800598    4.90999985    2.39000010
   16.43249893  172.49899292    4.90999985    2.32999992
   16.43583298  157.70700073    4.90999985    2.40000010
   16.43916512  179.27900696    4.90999985    2.40000010
   16.44222069  165.97099304    4.90999985    2.42000008
   16.44555473  170.03100586    4.90999985    2.44000006
   16.44610977  170.20199585    4.90999985    2.44000006
   16.45194435  170.20199585    4.90999985    2.25000000
   16.45611191  189.17999268    4.90999985    2.21000004
   16.45944595  189.74299622    4.90999985    2.25000000
   16.46250153  159.45799255    4.90999985    2.30999994
   16.46583366  162.35699463    4.90999985    2.46000004
   16.46888924  172.16900635    4.90999985    2.46000004
   16.47222328  159.78599548    4.90999985    2.40000010
   16.47555542  159.48399353    4.90999985    2.46000004
   16.47861099  160.13099670    4.90999985    2.40000010
   16.47944450  165.31799316    4.90999985    2.40000010
   16.48250008  157.36900330    4.90999985    2.46000004
   16.48555565  156.41799927    4.90999985    2.42000008
   16.48888969  157.74600220    4.90999985    2.40000010
   16.49472237  157.74600220    4.90999985    2.44000006
   16.49888992  157.71299744    4.90999985    2.34999990
   16.50222206  154.55999756    4.90999985    2.39000010
   16.50527763  157.61900330    4.90999985    2.36999989
   16.50861168  160.22399902    4.90999985    2.30999994
   16.51194382  152.85099792    4.90999985    2.34999990
   16.51277733  175.00199890    4.90999985    2.34999990
   16.51555634  171.32000732    4.90999985    2.28999996
   16.51861000  183.82499695    4.90999985    2.23000002
   16.52194405  177.12600708    4.90999985    2.26999998
   16.52499962  202.79299927    4.90999985    2.26999998
   16.52833366  202.00900269    4.90999985    2.19000006
   16.53166580  189.26899719    4.90999985    2.17000008
   16.53777695  189.26899719    4.90999985    2.21000004
   16.54166603  225.00599670    4.90999985    2.17000008
   16.54500008  241.24600220    4.90999985    1.91999996
   16.54611015  194.24499512    4.90999985    1.91999996
   16.54888916  230.70899963    4.90999985    2.03999996
   16.55194283  218.57000732    4.90999985    2.07999992
   16.55527687  179.36199951    4.90999985    2.09999990
   16.55833244  210.26800537    4.90999985    2.15000010
   16.56166649  191.70399475    4.90999985    2.09999990
   16.56499863  189.24600220    4.90999985    2.15000010
   16.56805611  170.34199524    4.90999985    2.15000010
   16.57139015  212.38900757    4.90999985    2.07999992
   16.57472229  164.28799438    4.90999985    2.13000011
   16.58055687  164.28799438    4.90999985    2.21000004
   16.58472252  165.06199646    4.90999985    2.21000004
   16.58777809  181.83799744    4.90999985    2.19000006
   16.59111214  178.43899536    4.90999985    2.17000008
   16.59444427  162.85299683    4.90999985    2.15000010
   16.59749985  181.94900513    4.90999985    2.21000004
   16.60083389  181.65100098    4.90999985    2.19000006
   16.60388947  186.77000427    4.90999985    2.15000010
   16.60722351  183.48399353    4.90999985    2.11999989
   16.61055565  178.47300720    4.90999985    2.17000008
   16.61277771  188.93600464    4.90999985    2.11999989
   16.61416626  173.64799500    4.90999985    2.15000010
   16.61722183  181.61500549    4.90999985    2.19000006
   16.62333298  181.61500549    4.90999985    2.17000008
   16.62750053  170.01600647    4.90999985    2.23000002
   16.63083267  162.36199951    4.90999985    2.28999996
   16.63388824  165.25599670    4.90999985    2.23000002
   16.63722229  164.48399353    4.90999985    2.21000004
   16.64027786  173.31100464    4.90999985    2.25000000
   16.64361191  159.62600708    4.90999985    2.25000000
   16.64611053  156.26699829    4.90999985    2.23000002
   16.64749908  157.15899658    4.90999985    2.26999998
   16.65055466  146.99299622    4.90999985    2.28999996
   16.65388870  157.38999939    4.90999985    2.28999996
   16.65694427  160.41299438    4.90999985    2.28999996
   16.66027832  170.98899841    4.90999985    2.21000004
   16.66611099  170.98899841    4.90999985    2.17000008
   16.67027664  178.95799255    4.90999985    2.25000000
   16.67361069  170.72500610    4.90999985    2.19000006
   16.67666626  186.95899963    4.90999985    2.15000010
   16.67944336  186.28799438    4.90999985    2.19000006
   16.68055534  197.65499878    4.90999985    2.17000008
   16.68361092  193.21600342    4.90999985    2.07999992
   16.68694305  228.49299622    4.90999985    2.11999989
   16.68999863  280.25201416    4.90999985    2.01999998
   16.69333267  205.09399414    4.90999985    2.03999996
   16.69666672  174.66400146    4.90999985    2.07999992
   16.70000076  163.80599976    4.90999985    2.13000011
   16.70305634  159.42599487    4.90999985    2.21000004
   16.70916748  159.42599487    4.90999985    2.19000006
   16.71305656  183.00700378    4.90999985    2.21000004
   16.71638870  166.52999878    4.90999985    2.05999994
   16.71972275  168.37600708    4.90999985    2.15000010
   16.72277832  158.17700195    4.90999985    2.19000006
   16.72611237  164.95100403    4.90999985    2.13000011
   16.72944450  171.38699341    4.90999985    2.15000010
   16.73250008  163.88400269    4.90999985    2.17000008
   16.73583412  169.93400574    4.90999985    2.15000010
   16.73888969  151.86700439    4.90999985    2.15000010
   16.74222183  185.82499695    4.90999985    2.19000006
   16.74555588  157.79400635    4.90999985    2.21000004
   16.74611092  146.88900757    4.90999985    2.21000004
   16.75194359  146.88900757    4.90999985    2.13000011
   16.75611115  196.35499573    4.90999985    2.07999992
   16.75916672  206.24600220    4.90999985    2.05999994
   16.76250076  239.65899658    4.90999985    2.05999994
   16.76583290  263.38800049    4.90999985    2.00000000
   16.76888847  242.58700562    4.90999985    1.98000002
   16.77222252  254.34399414    4.90999985    1.96000004
   16.77527809  226.54200745    4.90999985    1.98000002
   16.77861023  233.42100525    4.90999985    1.98000002
   16.77944374  257.67401123    4.90999985    1.98000002
   16.78222275  249.82200623    4.90999985    1.98000002
   16.78527641  220.47999573    4.90999985    1.98000002
   16.78861046  248.72099304    4.90999985    2.00000000
   16.79472160  248.72099304    4.90999985    2.05999994
   16.79888916  265.48199463    4.90999985    1.98000002
   16.80222130  211.88499451    4.90999985    1.98000002
   16.80527687  234.60899353    4.90999985    2.05999994
   16.80861092  271.73300171    4.90999985    1.98000002
   16.81166649  302.82699585    4.90999985    2.07999992
   16.81277657  357.58700562    4.90999985    2.00000000
   16.81555557  238.98199463    4.90999985    1.89999998
   16.81861115  308.18701172    4.90999985    2.00000000
   16.82194519  304.92001343    4.90999985    1.96000004
   16.82527924  241.90800476    4.90999985    1.94000006
   16.82833481  184.21600342    4.90999985    1.96000004
   16.83166695  308.61801147    4.90999985    1.98000002
   16.83750153  308.61801147    4.90999985    1.94000006
   16.84166718  341.22900391    4.90999985    2.07999992
   16.84500122  268.26699829    4.90999985    1.80999994
   16.84611130  275.30599976    4.90999985    1.85000002
   16.84861183  186.41000366    4.90999985    1.98000002
   16.85166740  219.89700317    4.90999985    2.11999989
   16.85499954  231.14799500    4.90999985    2.05999994
   16.85833359  218.62100220    4.90999985    2.03999996
   16.86138916  236.59599304    4.90999985    2.00000000
   16.86472321  189.14599609    4.90999985    2.01999998
   16.86805534  196.76300049    4.90999985    2.09999990
   16.87111092  170.66299438    4.90999985    2.15000010
   16.87444496  154.37100220    4.90999985    2.19000006
   16.88055611  154.37100220    4.90999985    2.17000008
   16.88444519  168.27499390    4.90999985    2.09999990
   16.88777733  180.20100403    4.90999985    2.09999990
   16.89111137  197.20500183    4.90999985    2.03999996
   16.89416695  249.79800415    4.90999985    2.09999990
   16.89749908  306.89599609    4.90999985    1.94000006
   16.90055466  212.47200012    4.90999985    1.85000002
   16.90388870  189.65299988    4.90999985    2.13000011
   16.90722275  255.59100342    4.90999985    2.05999994
   16.91027832  304.42999268    4.90999985    1.98000002
   16.91277695  372.17700195    4.90999985    1.89999998
   16.91416550  174.85499573    4.90999985    1.85000002
   16.91722107  130.11700439    4.90999985    1.78999996
   16.92333221  130.11700439    4.90999985    1.75000000
   16.92749977   79.24890137    4.90999985    1.71000004
   16.93055534   23.57019997    4.90999985    1.66999996
   16.93388748   -1.00000000   -1.00000000   -1.00000000
   16.93722153   66.39330292    4.90999985    1.61000001
   16.94027710   -1.00000000    4.90999985    1.63000000
   16.94361115   -1.00000000    4.90999985    1.64999998
   16.94610977   56.03509903    4.90999985    1.63000000
   16.94722176   23.57019997    4.90999985    1.64999998
   16.95055580   -1.00000000   -1.00000000   -1.00000000
   16.95361137   -1.00000000    4.90999985    1.63000000
   16.95694542   -1.00000000    4.90999985    1.50000000
   16.96000099   -1.00000000    4.90999985    1.51999998
   16.96611214   -1.00000000    4.90999985    1.51999998
   16.97027779   54.75149918    4.90999985    1.69000006
   16.97333336   -1.00000000    4.90999985    1.58000004
   16.97666740   -1.00000000    4.90999985    1.55999994
   16.98000145   -1.00000000    4.90999985    1.48000002
   16.98333359   -1.00000000    4.90999985    1.46000004
   16.98666763   -1.00000000    4.90999985    1.39999998
   16.98972321   -1.00000000    4.90999985    1.53999996
   16.99305534  126.00900269    4.90999985    1.60000002
   16.99611092  111.84100342    4.90999985    1.66999996
   16.99944496  121.72899628    4.90999985    1.76999998
   17.00277710  118.12200165    4.90999985    1.71000004
   17.00888824  118.12200165    4.90999985    1.64999998
   17.01305580   78.46029663    4.90999985    1.64999998
   17.01638794   23.57019997    4.90999985    1.64999998
   17.01944351  120.63600159    4.90999985    1.69000006
   17.02277756  438.44900513    4.90999985    1.78999996
   17.02472115  122.46499634    4.90999985    1.85000002
   17.02499962   78.46029663    4.90999985    1.64999998
   17.02499962   23.57019997    4.90999985    1.64999998
   17.02499962  120.63600159    4.90999985    1.69000006
   17.02527809  438.44900513    4.90999985    1.78999996
   17.02527809   -1.00000000    4.90999985    1.53999996
   17.02527809  126.00900269    4.90999985    1.60000002
   17.02555466  111.84100342    4.90999985    1.66999996
   17.02555466  121.72899628    4.90999985    1.76999998
   17.02555466  118.12200165    4.90999985    1.71000004
   17.02777672   58.31940079    4.90999985    1.64999998
   17.03083229   -1.00000000    4.90999985    1.58000004
   17.03416634   -1.00000000    4.90999985    1.50000000
   17.03722191   41.83039856    4.90999985    1.50000000
   17.04055595   88.84899902    4.90999985    1.66999996
   17.04555511   88.84899902    4.90999985    1.63000000
   17.04972076   91.31390381    4.90999985    1.63000000
   17.05305481  574.94500732    4.90999985    1.71000004
   17.05499840  266.32000732    4.90999985    1.88000000
   17.05499840   58.31940079    4.90999985    1.64999998
   17.05527687   -1.00000000    4.90999985    1.58000004
   17.05527687   -1.00000000    4.90999985    1.50000000
   17.05527687   41.83039856    4.90999985    1.50000000
   17.05555534   88.84899902    4.90999985    1.66999996
   17.05555534   91.31390381    4.90999985    1.63000000
   17.05555534  574.94500732    4.90999985    1.71000004
   17.05777740  130.68299866    4.90999985    1.76999998
   17.06083298  276.62100220    4.90999985    1.64999998
   17.06416512  428.45199585    4.90999985    1.80999994
   17.06611061  601.83300781    4.90999985    1.86000001
   17.06750107  545.41400146    4.90999985    1.89999998
   17.06888962  461.61401367    4.90999985    1.89999998
   17.07027817  351.19601440    4.90999985    1.91999996
   17.07166672  359.16699219    4.90999985    1.91999996
   17.07305717  541.19598389    4.90999985    1.96000004
   17.07444572  569.64697266    4.90999985    1.94000006
   17.07583427  393.79199219    4.90999985    1.89999998
   17.07722282  315.87500000    4.90999985    1.89999998
   17.07722282  130.68299866    4.90999985    1.76999998
   17.07722282  276.62100220    4.90999985    1.64999998
   17.07750130  428.45199585    4.90999985    1.80999994
   17.07805634  284.13000488    4.90999985    1.94000006
   17.08139038  300.93399048    4.90999985    2.07999992
   17.08444595  268.20300293    4.90999985    2.07999992
   17.08777809  250.72599792    4.90999985    2.03999996
   17.09083366  243.10000610    4.90999985    2.05999994
   17.09416771  205.20700073    4.90999985    2.13000011
   17.09833336  205.20700073    4.90999985    2.19000006
   17.10250092  223.48899841    4.90999985    2.13000011
   17.10555649  203.22300720    4.90999985    2.11999989
   17.10888863  317.74700928    4.90999985    2.13000011
   17.11111069  287.14498901    4.90999985    2.00000000
   17.11250114  315.68798828    4.90999985    2.01999998
   17.11583328  310.67098999    4.90999985    2.07999992
   17.11916733  298.01901245    4.90999985    2.01999998
   17.12222290  289.18099976    4.90999985    2.03999996
   17.12555504  241.34599304    4.90999985    1.94000006
   17.12888908  240.10800171    4.90999985    2.07999992
   17.13194466  222.95300293    4.90999985    1.96000004
   17.13527679  193.54899597    4.90999985    2.07999992
   17.14111137  193.54899597    4.90999985    2.13000011
   17.14527702  217.96800232    4.90999985    2.13000011
   17.14861107  187.21600342    4.90999985    2.13000011
   17.15166664  192.10099792    4.90999985    2.21000004
   17.15499878  201.54100037    4.90999985    2.23000002
   17.15833282  213.30000305    4.90999985    2.09999990
   17.16138840  191.68200684    4.90999985    2.17000008
   17.16472244  173.07899475    4.90999985    2.23000002
   17.16777802  158.90299988    4.90999985    2.36999989
   17.17111015  189.17599487    4.90999985    2.39000010
   17.17444420  165.16099548    4.90999985    2.39000010
   17.17749977  206.40800476    4.90999985    2.39000010
   17.17805481  190.04499817    4.90999985    2.39000010
   17.18388748  190.04499817    4.90999985    2.39000010
   17.18805504  192.09199524    4.90999985    2.30999994
   17.19138718  165.10099792    4.90999985    2.23000002
   17.19472122  166.83200073    4.90999985    2.26999998
   17.19777679  170.15100098    4.90999985    2.25000000
   17.20111275  160.61500549    4.90999985    2.25000000
   17.20416832  183.46499634    4.90999985    2.34999990
   17.20750046  161.28799438    4.90999985    2.19000006
   17.21083450  190.79100037    4.90999985    2.25000000
   17.21138954  174.00900269    4.90999985    2.21000004
   17.21444511  159.27799988    4.90999985    2.19000006
   17.21777916  156.84100342    4.90999985    2.26999998
   17.22083473  167.27600098    4.90999985    2.26999998
   17.22694588  167.27600098    4.90999985    2.28999996
   17.23111153  148.47500610    4.90999985    2.25000000
   17.23416710  163.82099915    4.90999985    2.26999998
   17.23750114  171.63000488    4.90999985    2.32999992
   17.24083328  185.99600220    4.90999985    2.28999996
   17.24388885  188.52900696    4.90999985    2.19000006
   17.24500084  184.57299805    4.90999985    2.17000008
   17.24777794  181.75599670    4.90999985    2.13000011
   17.25111198  185.79800415    4.90999985    2.17000008
   17.25444412  179.27600098    4.90999985    2.13000011
   17.25777817  167.78599548    4.90999985    2.19000006
   17.26111031  160.49899292    4.90999985    2.17000008
   17.26416588  187.65899658    4.90999985    2.25000000
   17.26972198  187.65899658    4.90999985    2.13000011
   17.27388954  192.53900146    4.90999985    2.09999990
   17.27694511  228.87899780    4.90999985    2.05999994
   17.27805519  204.64900208    4.90999985    2.05999994
   17.28083229  310.65100098    4.90999985    2.01999998
   17.28416634  235.53100586    4.90999985    1.94000006
   17.28722191  202.26800537    4.90999985    2.05999994
   17.29055595  197.32800293    4.90999985    2.07999992
   17.29361153  234.32200623    4.90999985    2.05999994
   17.29694366  191.24299622    4.90999985    1.98000002
   17.30027771  151.55299377    4.90999985    2.19000006
   17.30333328  155.02299500    4.90999985    2.34999990
   17.30666542  154.87199402    4.90999985    2.30999994
   17.31250000  154.87199402    4.90999985    2.30999994
   17.31666756  142.85099792    4.90999985    2.30999994
   17.32000160  139.75199890    4.90999985    2.39000010
   17.32305717  159.41200256    4.90999985    2.26999998
   17.32638931  152.11300659    4.90999985    2.23000002
   17.32972336  146.30099487    4.90999985    2.19000006
   17.33277893  192.71899414    4.90999985    2.21000004
   17.33611107  171.58200073    4.90999985    2.09999990
   17.33916664  137.63099670    4.90999985    2.19000006
   17.34250069  160.94500732    4.90999985    2.25000000
   17.34472275  202.77400208    4.90999985    2.13000011
   17.34611130  168.62500000    4.90999985    2.21000004
   17.34944534  220.53599548    4.90999985    2.13000011
   17.35527802  220.53599548    4.90999985    2.11999989
   17.35944557  202.60000610    4.90999985    2.17000008
   17.36277771  217.89100647    4.90999985    2.09999990
   17.37972260  197.09399414    4.90999985    2.07999992
   17.38249969  171.09300232    4.90999985    2.11999989
   17.38583374  223.78799438    4.90999985    2.15000010
   17.38888931  198.92300415    4.90999985    2.05999994
   17.39222145  193.42599487    4.90999985    2.11999989
   17.39833260  193.42599487    4.90999985    2.03999996
   17.40250015  193.12300110    4.90999985    2.17000008
   17.40555573  184.09199524    4.90999985    2.15000010
   17.40888786  197.63099670    4.90999985    2.21000004
   17.41222191  199.19299316    4.90999985    2.17000008
   17.41305542  174.78799438    4.90999985    2.13000011
   17.41583252  175.21499634    4.90999985    2.26999998
   17.41888809  199.99800110    4.90999985    2.19000006
   17.42222214  220.17500305    4.90999985    2.23000002
   17.42555428  262.84899902    4.90999985    2.05999994
   17.42860985  371.55899048    4.90999985    2.05999994
   17.43194389  308.90499878    4.90999985    1.96000004
   17.43499947  262.44500732    4.90999985    2.00000000
   17.44111061  262.44500732    4.90999985    2.17000008
   17.44527626  250.57699585    4.90999985    2.25000000
   17.44638824  241.63200378    4.90999985    2.21000004
   17.44888878  220.34599304    4.90999985    2.17000008
   17.45194435  254.16400146    4.90999985    2.28999996
   17.45527840  277.35800171    4.90999985    2.19000006
   17.45861244  238.84700012    4.90999985    2.13000011
   17.46166801  330.23999023    4.90999985    2.11999989
   17.46500015  371.87701416    4.90999985    2.05999994
   17.46833420  265.83099365    4.90999985    2.11999989
   17.47138977  216.72500610    4.90999985    2.21000004
   17.47472191  239.93400574    4.90999985    2.21000004
   17.47777748  197.28100586    4.90999985    2.15000010
   17.47972298  194.21699524    4.90999985    2.32999992
   17.48388863  194.21699524    4.90999985    2.42000008
   17.48805618  186.77000427    4.90999985    2.40000010
   17.49138832  198.41799927    4.90999985    2.42000008
   17.49444389  212.28900146    4.90999985    2.36999989
   17.49777794  198.02799988    4.90999985    2.28999996
   17.50111198  202.95899963    4.90999985    2.28999996
   17.50416756  233.18699646    4.90999985    2.26999998
   17.50749969  182.77099609    4.90999985    2.19000006
   17.51083374  237.14599609    4.90999985    2.34999990
   17.51305580  204.61900330    4.90999985    2.19000006
   17.51444435  177.81199646    4.90999985    2.17000008
   17.51749992  193.94900513    4.90999985    2.40000010
   17.52083397  211.74699402    4.90999985    2.32999992
   17.52694511  211.74699402    4.90999985    2.25000000
   17.53083229  204.36599731    4.90999985    2.17000008
   17.53416634  194.28999329    4.90999985    2.21000004
   17.53750038  187.55299377    4.90999985    2.32999992
   17.54055595  190.65499878    4.90999985    2.28999996
   17.54388809  173.89900208    4.90999985    2.25000000
   17.54638863  172.96800232    4.90999985    2.30999994
   17.54749870  188.68400574    4.90999985    2.32999992
   17.55055428  174.46299744    4.90999985    2.30999994
   17.55388832  171.23199463    4.90999985    2.40000010
   17.55722237  181.86300659    4.90999985    2.40000010
   17.56027794  184.44500732    4.90999985    2.30999994
   17.56361008  188.63400269    4.90999985    2.32999992
   17.56972313  188.63400269    4.90999985    2.39000010
   17.57389069  171.00199890    4.90999985    2.36999989
   17.57694626  157.78500366    4.90999985    2.42000008
   17.57972336  136.92599487    4.90999985    2.46000004
   17.58083344  147.65600586    4.90999985    2.48000002
   17.58388901  172.73800659    4.90999985    2.44000006
   17.58722305  174.71099854    4.90999985    2.32999992
   17.59055710  160.34100342    4.90999985    2.42000008
   17.59361267  161.86099243    4.90999985    2.40000010
   17.59694481  189.17999268    4.90999985    2.30999994
   17.60027885  228.27699280    4.90999985    2.03999996
   17.60333443  215.70100403    4.90999985    2.01999998
   17.60666656  300.40798950    4.90999985    1.94000006
   17.61250114  300.40798950    4.90999985    2.00000000
   17.61666679  188.25000000    4.90999985    2.19000006
   17.62000084  178.80299377    4.90999985    2.17000008
   17.62305641  171.15499878    4.90999985    2.17000008
   17.62638855  170.59399414    4.90999985    2.19000006
   17.62944412  175.20700073    4.90999985    2.26999998
   17.63277817  177.44099426    4.90999985    2.25000000
   17.63611031  180.14500427    4.90999985    2.26999998
   17.63916588  192.70500183    4.90999985    2.26999998
   17.64249992  189.97700500    4.90999985    2.21000004
   17.64583397  191.08399963    4.90999985    2.19000006
   17.64749908  175.73199463    4.90999985    2.17000008
   17.64944458  176.98699951    4.90999985    2.15000010
   17.65527725  176.98699951    4.90999985    2.23000002
   17.65944481  171.25799561    4.90999985    2.23000002
   17.66277695  193.92100525    4.90999985    2.21000004
   17.66583252  184.50599670    4.90999985    2.17000008
   17.66916656  188.34100342    4.90999985    2.17000008
   17.67277718  173.83299255    4.90999985    2.23000002
   17.67583275  183.69200134    4.90999985    2.30999994
   17.67916679  188.80400085    4.90999985    2.26999998
   17.68083191  181.60000610    4.90999985    2.23000002
   17.68277740  195.08500671    4.90999985    2.19000006
   17.68610954  201.29299927    4.90999985    2.00000000
   17.68916512  222.43099976    4.90999985    2.09999990
   17.69249916  293.76098633    4.90999985    2.11999989
   17.69833183  293.76098633    4.90999985    2.07999992
   17.70222282  245.91600037    4.90999985    2.09999990
   17.70555687  223.26600647    4.90999985    2.17000008
   17.70888901  202.62399292    4.90999985    2.07999992
   17.71194458  232.96400452    4.90999985    2.07999992
   17.71444511  219.80000305    4.90999985    2.11999989
   17.71583366  212.58200073    4.90999985    2.17000008
   17.71888924  188.31599426    4.90999985    2.19000006
   17.72222328  181.02999878    4.90999985    2.26999998
   17.72527885  223.70899963    4.90999985    2.30999994
   17.72861099  223.60899353    4.90999985    2.13000011
   17.73194504  207.81599426    4.90999985    2.09999990
   17.73500061  209.17700195    4.90999985    2.15000010
   17.74111176  209.17700195    4.90999985    2.15000010
   17.74527740  174.48599243    4.90999985    2.25000000
   17.74777794  177.39999390    4.90999985    2.25000000
   17.74888992  172.05499268    4.90999985    2.26999998
   17.75194359  171.58200073    4.90999985    2.23000002
   17.75527763  167.39300537    4.90999985    2.30999994
   17.75861168  161.05200195    4.90999985    2.30999994
   17.76166725  160.10099792    4.90999985    2.36999989
   17.76499939  158.14999390    4.90999985    2.28999996
   17.76805496  169.77499390    4.90999985    2.36999989
   17.77138901  186.52000427    4.90999985    2.34999990
   17.77472115  178.10000610    4.90999985    2.23000002
   17.77777672  177.57899475    4.90999985    2.30999994
   17.78388786  177.57899475    4.90999985    2.32999992
   17.78805542  174.37500000    4.90999985    2.34999990
   17.79138756  154.31399536    4.90999985    2.39000010
   17.79444313  172.00000000    4.90999985    2.40000010
   17.79777718  169.90400696    4.90999985    2.32999992
   17.80083275  173.44700623    4.90999985    2.32999992
   17.80416679  157.68600464    4.90999985    2.30999994
   17.80749893  154.76800537    4.90999985    2.36999989
   17.81055450  155.38499451    4.90999985    2.39000010
   17.81388855  159.72999573    4.90999985    2.39000010
   17.81472206  159.32600403    4.90999985    2.34999990
   17.81750107  165.78100586    4.90999985    2.32999992
   17.82083511  178.86999512    4.90999985    2.32999992
   17.82666779  178.86999512    4.90999985    2.39000010
   17.83083344  182.30700684    4.90999985    2.32999992
   17.83416748  166.92399597    4.90999985    2.28999996
   17.83722305  166.44700623    4.90999985    2.26999998
   17.84055710  172.15899658    4.90999985    2.28999996
   17.84388924  173.60099792    4.90999985    2.36999989
   17.84694481  163.91700745    4.90999985    2.25000000
   17.84805679  155.42700195    4.90999985    2.26999998
   17.85055542  155.39300537    4.90999985    2.40000010
   17.85388947  165.33500671    4.90999985    2.50000000
   17.85694504  149.59800720    4.90999985    2.39000010
   17.86027908  162.82699585    4.90999985    2.46000004
   17.86333466  163.74099731    4.90999985    2.39000010
   17.86972237  163.74099731    4.90999985    2.36999989
   17.87361145  177.34300232    4.90999985    2.28999996
   17.87694550  192.23800659    4.90999985    2.28999996
   17.88027763  208.00799561    4.90999985    2.23000002
   17.88166618  196.74099731    4.90999985    2.21000004
   17.88388824  208.37100220    4.90999985    2.15000010
   17.88694382  181.13999939    4.90999985    2.21000004
   17.89027786  178.47000122    4.90999985    2.26999998
   17.89361191  185.53799438    4.90999985    2.28999996
   17.89666748  174.53799438    4.90999985    2.28999996
   17.89999962  176.98300171    4.90999985    2.30999994
   17.90333366  180.28900146    4.90999985    2.34999990
   17.90638924  185.33599854    4.90999985    2.28999996
   17.91250038  185.33599854    4.90999985    2.36999989
   17.91666603  199.91999817    4.90999985    2.15000010
   17.91972160  335.77301025    4.90999985    2.11999989
   17.92305565  297.37899780    4.90999985    1.88000000
   17.92638779  394.08200073    4.90999985    1.88000000
   17.92944336  211.37500000    4.90999985    1.88000000
   17.93277740  237.28300476    4.90999985    2.00000000
   17.93583298  327.06900024    4.90999985    2.01999998
   17.93916512  364.78900146    4.90999985    1.91999996
   17.94249916  347.60400391    4.90999985    1.88000000
   17.94555473  436.50299072    4.90999985    1.88000000
   17.94777679  384.88400269    4.90999985    1.88000000
   17.94888878  359.29501343    4.90999985    1.91999996
   17.95027924  284.49700928    4.90999985    1.91999996
   17.95055580  327.06900024    4.90999985    2.01999998
   17.95055580  364.78900146    4.90999985    1.91999996
   17.95055580  347.60400391    4.90999985    1.88000000
   17.95083427  436.50299072    4.90999985    1.88000000
   17.95083427  335.77301025    4.90999985    2.11999989
   17.95083427  297.37899780    4.90999985    1.88000000
   17.95111275  394.08200073    4.90999985    1.88000000
   17.95111275  211.37500000    4.90999985    1.88000000
   17.95111275  237.28300476    4.90999985    2.00000000
   17.95166779  277.96499634    4.90999985    1.94000006
   17.95499992  185.63299561    4.90999985    1.98000002
   17.95833397  247.86599731    4.90999985    2.13000011
   17.96138954  236.41000366    4.90999985    2.03999996
   17.96472359  203.66499329    4.90999985    2.03999996
   17.97111130  203.66499329    4.90999985    2.25000000
   17.97527885  173.10600281    4.90999985    2.23000002
   17.97861099  150.71699524    4.90999985    2.21000004
   17.98166656  151.61700439    4.90999985    2.32999992
   17.98416710  147.56100464    4.90999985    2.32999992
   17.98555565  183.67900085    4.90999985    2.36999989
   17.98888969  239.91700745    4.90999985    2.03999996
   17.99194527  134.34700012    4.90999985    2.07999992
   17.99527740  203.50300598    4.90999985    2.34999990
   17.99833298  167.29299927    4.90999985    2.17000008
   18.00166702  183.60499573    4.90999985    2.25000000
   18.00499916  207.06399536    4.90999985    2.11999989
   18.00805473  367.53201294    4.90999985    1.94000006
   18.01388931  367.53201294    4.90999985    2.05999994
   18.01805496  220.18800354    4.90999985    1.91999996
   18.02138901  401.59298706    4.90999985    1.88000000
   18.02333260  134.31399536    4.90999985    1.83000004
   18.02361107  239.91700745    4.90999985    2.03999996
   18.02361107  134.34700012    4.90999985    2.07999992
   18.02361107  203.50300598    4.90999985    2.34999990
   18.02388954  167.29299927    4.90999985    2.17000008
   18.02388954  183.60499573    4.90999985    2.25000000
   18.02388954  207.06399536    4.90999985    2.11999989
   18.02416611  367.53201294    4.90999985    1.94000006
   18.02416611  220.18800354    4.90999985    1.91999996
   18.02416611  401.59298706    4.90999985    1.88000000
   18.02611160  208.66299438    4.90999985    1.66999996
   18.02944374  177.18800354    4.90999985    1.66999996
   18.03277779  173.71000671    4.90999985    1.94000006
   18.03583336  267.31698608    4.90999985    2.13000011
   18.03916550  214.18099976    4.90999985    1.98000002
   18.04416656  214.18099976    4.90999985    1.96000004
   18.04833221  177.89700317    4.90999985    2.17000008
   18.05166626  179.92900085    4.90999985    2.17000008
   18.05472183  227.76400757    4.90999985    2.19000006
   18.05722237  218.34599304    4.90999985    2.07999992
   18.05861092  223.34399414    4.90999985    2.05999994
   18.06166649  236.09800720    4.90999985    2.00000000
   18.06499863  219.43899536    4.90999985    2.07999992
   18.06833458  206.33599854    4.90999985    2.03999996
   18.07139015  180.04100037    4.90999985    2.05999994
   18.07472229  187.69999695    4.90999985    2.13000011
   18.07805634  220.28700256    4.90999985    2.09999990
   18.08111191  189.37199402    4.90999985    2.01999998
   18.08694458  189.37199402    4.90999985    2.03999996
   18.09111214  204.45500183    4.90999985    2.17000008
   18.09472275  163.26899719    4.90999985    2.19000006
   18.09805679  189.66400146    4.90999985    2.21000004
   18.10111237  202.45899963    4.90999985    2.03999996
   18.10444450  164.81100464    4.90999985    2.03999996
   18.10777855  181.50500488    4.90999985    2.19000006
   18.11083412  149.94799805    4.90999985    2.13000011
   18.11416626  241.64599609    4.90999985    2.09999990
   18.11722183  206.13499451    4.90999985    2.00000000
   18.12055588  192.04699707    4.90999985    2.05999994
   18.12388992  221.39199829    4.90999985    2.07999992
   18.12444496  219.90699768    4.90999985    2.07999992
   18.13000107  219.90699768    4.90999985    2.09999990
   18.13416672  202.04400635    4.90999985    2.01999998
   18.13722229  227.22399902    4.90999985    2.07999992
   18.14055634  459.61999512    4.90999985    2.01999998
   18.14249992  313.51998901    4.90999985    1.91999996
   18.14249992  202.04400635    4.90999985    2.01999998
   18.14277840  227.22399902    4.90999985    2.07999992
   18.14277840  459.61999512    4.90999985    2.01999998
   18.14305496  181.50500488    4.90999985    2.19000006
   18.14305496  149.94799805    4.90999985    2.13000011
   18.14305496  241.64599609    4.90999985    2.09999990
   18.14333344  206.13499451    4.90999985    2.00000000
   18.14333344  192.04699707    4.90999985    2.05999994
   18.14333344  221.39199829    4.90999985    2.07999992
   18.14527702  390.20999146    4.90999985    1.83000004
   18.14861107  357.07199097    4.90999985    1.86000001
   18.15194321  392.30398560    4.90999985    1.91999996
   18.15499878  262.65600586    4.90999985    1.78999996
   18.15833282  145.02699280    4.90999985    1.88000000
   18.16333389  145.02699280    4.90999985    1.85000002
   18.16749954   -1.00000000    4.90999985    1.63000000
   18.17111015   -1.00000000    4.90999985    1.53999996
   18.17416573   48.83520126    4.90999985    1.53999996
   18.17777634   52.81660080    4.90999985    1.53999996
   18.18111038  128.70199585    4.90999985    1.61000001
   18.18444443  336.54699707    4.90999985    1.73000002
   18.18750000  195.25399780    4.90999985    1.83000004
   18.19083214  139.75000000    4.90999985    1.85000002
   18.19416618  130.16799927    4.90999985    1.64999998
   18.19722176  140.61999512    4.90999985    1.83000004
   18.20055580  383.45599365    4.90999985    1.80999994
   18.20611191  383.45599365    4.90999985    1.80999994
   18.21027946  135.41799927    4.90999985    1.78999996
   18.21361160  108.47399902    4.90999985    1.69000006
   18.21666718  121.48899841    4.90999985    1.75000000
   18.22000122   -1.00000000    4.90999985    1.60000002
   18.22333336   -1.00000000    4.90999985    1.44000006
   18.22638893   -1.00000000    4.90999985    1.46000004
   18.22972298   -1.00000000    4.90999985    1.34000003
   18.23305511   -1.00000000    4.90999985    1.30999994
   18.23611069   -1.00000000    4.90999985    1.36000001
   18.23944473   63.49300003    4.90999985    1.63000000
   18.24250031   -1.00000000    4.90999985    1.53999996
   18.24305534   62.55599976    4.90999985    1.50000000
   18.24916649   62.55599976    4.90999985    1.53999996
   18.25305557   -1.00000000    4.90999985    1.58000004
   18.25638962   -1.00000000    4.90999985    1.60000002
   18.25972176   -1.00000000    4.90999985    1.50000000
   18.26277733   -1.00000000    4.90999985    1.13000000
   18.26611137   87.29409790    4.90999985    1.34000003
   18.26944351   -1.00000000    4.90999985    1.58000004
   18.27249908   -1.00000000    4.90999985    0.95999998
   18.27583313   -1.00000000    4.90999985    1.16999996
   18.27944374   -1.00000000    4.90999985    1.44000006
   18.28249931   -1.00000000    4.90999985    1.58000004
   18.28583336   -1.00000000    4.90999985    1.38000000
   18.29583359   -1.00000000    4.90999985    1.30999994
   18.29916573   -1.00000000    4.90999985    1.39999998
   18.30249977   -1.00000000    4.90999985    1.46000004
   18.30555534   -1.00000000    4.90999985    1.28999996
   18.30888748   -1.00000000    4.90999985    1.46000004
   18.31250000   -1.00000000    4.90999985    1.55999994
   18.31555557   -1.00000000    4.90999985    1.69000006
   18.31888962   -1.00000000    4.90999985    1.50000000
   18.32222366   -1.00000000    4.90999985    1.25000000
   18.32527924   -1.00000000    4.90999985    1.09000003
   18.32861137   -1.00000000    4.90999985    1.48000002
   18.33472252   -1.00000000    4.90999985    1.73000002
   18.33889008   -1.00000000   -1.00000000   -1.00000000
   18.34222221   74.48600006    4.90999985    1.60000002
   18.34583473  139.80799866    4.90999985    1.55999994
   18.34889030   -1.00000000    4.90999985    1.71000004
   18.35222244   59.88209915    4.90999985    1.64999998
   18.35555649   -1.00000000    4.90999985    1.58000004
   18.35861206   -1.00000000    4.90999985    1.48000002
   18.36194420   -1.00000000    4.90999985    1.60000002
   18.36499977   -1.00000000    4.90999985    1.53999996
   18.36833382   -1.00000000   -1.00000000   -1.00000000
   18.37166595   -1.00000000    4.90999985    1.71000004
   18.37750053   -1.00000000    4.90999985    1.75000000
   18.39694405   -1.00000000    4.90999985    1.03999996
   18.40027809   -1.00000000    4.90999985    1.33000004
   18.40333366   -1.00000000    4.90999985    1.33000004
   18.40666580   -1.00000000    4.90999985    0.79000002
   18.40972137   -1.00000000    4.90999985    0.89999998
   18.41361046   -1.00000000    4.90999985    1.28999996
   18.41666603   -1.00000000    4.90999985    1.33000004
   18.42499924   -1.00000000    4.90999985    1.09000003
   18.42805481   -1.00000000    4.90999985    1.25000000
   18.43138885   -1.00000000    4.90999985    1.30999994
   18.43472099   -1.00000000    4.90999985    1.30999994
   18.43777657   -1.00000000    4.90999985    1.11000001
   18.44111061   -1.00000000    4.90999985    1.00000000
   18.44472122   -1.00000000    4.90999985    0.83999997
   18.44777679   -1.00000000    4.90999985    0.89999998
   18.45111275   -1.00000000    4.90999985    1.36000001
   18.45444489   -1.00000000    4.90999985    1.33000004
   18.45750046   -1.00000000    4.90999985    1.00000000
   18.46777916   -1.00000000    4.90999985    0.73000002
   18.47111130   -1.00000000    4.90999985    0.61000001
   18.47416687   -1.00000000    4.90999985    0.55000001
   18.47777748   -1.00000000    4.90999985    0.56999999
   18.48083305   -1.00000000    4.90999985    0.58999997
   18.48416710   -1.00000000    4.90999985    0.56999999
   18.48722267   -1.00000000    4.90999985    0.55000001
   18.49055672   -1.00000000    4.90999985    0.55000001
   18.49388885   -1.00000000    4.90999985    0.81999999
   18.49694443   -1.00000000    4.90999985    1.19000006
   18.50027847   -1.00000000    4.90999985    1.16999996
   18.50666618   -1.00000000    4.90999985    1.19000006
   18.51083374   -1.00000000    4.90999985    1.00000000
   18.51388931   -1.00000000    4.90999985    0.80000001
   18.51722145   -1.00000000    4.90999985    0.94000000
   18.52027702   -1.00000000    4.90999985    1.28999996
   18.52361107   -1.00000000    4.90999985    1.34000003
   18.52694511   -1.00000000    4.90999985    1.19000006
   18.53000069   -1.00000000    4.90999985    1.09000003
   18.53333282   -1.00000000    4.90999985    1.25000000
   18.53666687   -1.00000000    4.90999985    1.23000002
   18.53972244   -1.00000000    4.90999985    0.98000002
   18.54305458   -1.00000000    4.90999985    0.83999997
   18.54944420   -1.00000000    4.90999985    0.88000000
   18.55360985   -1.00000000    4.90999985    1.03999996
   18.55666542   -1.00000000    4.90999985    0.73000002
   18.55999947   -1.00000000    4.90999985    0.69000000
   18.56333351   -1.00000000    4.90999985    0.55000001
   18.56638718   -1.00000000    4.90999985    0.61000001
   18.56972313   -1.00000000    4.90999985    0.64999998
   18.57277870   -1.00000000    4.90999985    0.50000000
   18.57611275   -1.00000000    4.90999985    0.38000000
   18.57972336   -1.00000000    4.90999985    0.40000001
   18.58277893   -1.00000000    4.90999985    0.47999999
   18.58611107   -1.00000000    4.90999985    0.56999999
   18.59638977   -1.00000000    4.90999985    0.67000002
   18.59944534   -1.00000000    4.90999985    0.75000000
   18.60277748   -1.00000000    4.90999985    0.67000002
   18.60583305   -1.00000000    4.90999985    0.67000002
   18.60916710   -1.00000000    4.90999985    0.34000000
   18.61277771   -1.00000000    4.90999985    0.25000000
   18.61583328   -1.00000000    4.90999985    0.23000000
   18.61916733   -1.00000000    4.90999985    0.25000000
   18.62249947   -1.00000000    4.90999985    0.28000000
   18.62555504   -1.00000000    4.90999985    0.28000000
   18.62888908   -1.00000000    4.90999985    0.30000001
   18.63916588   -1.00000000    4.90999985    0.31999999
   18.64222145   -1.00000000    4.90999985    0.36000001
   18.64611053   -1.00000000    4.90999985    0.38000000
   18.64916611   -1.00000000    4.90999985    0.38000000
   18.65250015   -1.00000000    4.90999985    0.38000000
   18.65583229   -1.00000000    4.90999985    0.31999999
   18.65888786   -1.00000000    4.90999985    0.30000001
