    HOUR (UT)   FLARE FACTOR    SKY TESTER    SUN TESTER
   11.95777798   -1.00000000   -1.00000000   -1.00000000
   12.42583370   91.14890289    0.67000002    1.91999996
   12.42916679  105.51599884    0.69000000    1.91999996
   12.43222237  103.09300232    0.67000002    1.91999996
   12.43555546  100.77600098    0.69000000    1.91999996
   12.43861103  104.70800018    0.69000000    1.91999996
   12.44194412   97.48410034    0.69000000    1.91999996
   12.44611073   97.48410034    0.69000000    1.94000006
   12.45027733   97.92379761    0.69000000    1.94000006
   12.45333290   96.12259674    0.70999998    1.94000006
   12.45666695  100.32499695    0.70999998    1.94000006
   12.45916653   95.05030060    0.70999998    1.94000006
   12.46027756   96.94080353    0.70999998    1.94000006
   12.46361065   99.75019836    0.73000002    1.94000006
   12.46666622  102.28500366    0.70999998    1.96000004
   12.46999931   98.61329651    0.73000002    1.96000004
   12.47333336  101.97799683    0.73000002    1.96000004
   12.47638798  101.19999695    0.73000002    1.96000004
   12.47972202  100.39399719    0.73000002    1.96000004
   12.48305511   98.50830078    0.73000002    1.98000002
   12.48888874   98.50830078    0.73000002    1.96000004
   12.49305534  101.50000000    0.75000000    1.98000002
   12.49611092   95.95670319    0.75000000    1.98000002
   12.49944496   95.96189880    0.73000002    1.98000002
   12.50277805   91.38649750    0.73000002    1.98000002
   12.50583363   99.55480194    0.75000000    1.98000002
   12.50916672  102.65899658    0.75000000    1.98000002
   12.51249981  103.57299805    0.75000000    1.98000002
   12.51555538  104.38400269    0.76999998    2.00000000
   12.51888847   93.41799927    0.76999998    2.00000000
   12.52194405  102.39199829    0.76999998    2.00000000
   12.52527714  105.28500366    0.75000000    2.00000000
   12.52583313  102.56099701    0.75000000    2.00000000
   12.53166676  102.56099701    0.75000000    2.01999998
   12.53583336  106.15100098    0.75000000    2.01999998
   12.53916740  106.24199677    0.75000000    2.01999998
   12.54222298  101.68499756    0.75000000    2.00000000
   12.54555607  101.74400330    0.73000002    2.01999998
   12.54888916  102.14099884    0.73000002    2.01999998
   12.55194473   95.23880005    0.73000002    2.01999998
   12.55527782   97.79530334    0.73000002    2.01999998
   12.55833340   95.06790161    0.70999998    2.01999998
   12.55916691   93.73339844    0.70999998    2.01999998
   12.56222248   97.82479858    0.70999998    2.01999998
   12.56527805  104.46099854    0.69000000    2.01999998
   12.56888866   97.38619995    0.69000000    2.03999996
   12.57472229   97.38619995    0.69000000    2.03999996
   12.57861137  103.84799957    0.67000002    2.03999996
   12.58194447   99.22930145    0.69000000    2.03999996
   12.58527756   98.10690308    0.67000002    2.03999996
   12.58833313  101.98000336    0.64999998    2.05999994
   12.59166622   95.99259949    0.64999998    2.03999996
   12.59249973  100.32499695    0.64999998    2.03999996
   12.59527779   99.42199707    0.64999998    2.05999994
   12.59833336  105.69999695    0.64999998    2.03999996
   12.60166740  100.55000305    0.63000000    2.05999994
   12.60500050   98.06320190    0.63000000    2.05999994
   12.60805607   99.57140350    0.63000000    2.05999994
   12.61138916   98.14369965    0.63000000    2.05999994
   12.61750031   98.14369965    0.63000000    2.05999994
   12.62166691   98.06060028    0.61000001    2.05999994
   12.62472248   99.99949646    0.61000001    2.07999992
   12.62583351  100.64600372    0.61000001    2.07999992
   12.62861156  101.83399963    0.61000001    2.07999992
   12.63166714  101.77100372    0.61000001    2.07999992
   12.63500023   95.18630219    0.58999997    2.07999992
   12.63833332  103.89099884    0.58999997    2.07999992
   12.64138889  100.28900146    0.61000001    2.07999992
   12.64472198   94.86119843    0.61000001    2.07999992
   12.64805508   93.63860321    0.58999997    2.07999992
   12.65111065   97.35209656    0.61000001    2.09999990
   12.65444374  106.17099762    0.58999997    2.09999990
   12.66027737  106.17099762    0.58999997    2.09999990
   12.66444397   95.38590240    0.58999997    2.09999990
   12.66750050   98.29129791    0.58999997    2.07999992
   12.67083359  101.44999695    0.58999997    2.09999990
   12.67416668   96.10420227    0.56999999    2.09999990
   12.67722225  106.88600159    0.58999997    2.09999990
   12.68055630  103.49099731    0.56999999    2.11999989
   12.68388939   96.66950226    0.58999997    2.09999990
   12.68694496  102.54699707    0.56999999    2.11999989
   12.69027805  101.08300018    0.56999999    2.11999989
   12.69250011  100.07800293    0.56999999    2.11999989
   12.69388866  115.78900146    0.56999999    2.11999989
   12.69694424   96.59739685    0.56999999    2.11999989
   12.70305538   96.59739685    0.56999999    2.11999989
   12.70722198   99.23960114    0.58999997    2.13000011
   12.71055508  100.93099976    0.58999997    2.13000011
   12.71361065   99.07240295    0.58999997    2.13000011
   12.71694374  106.80899811    0.58999997    2.13000011
   12.72027779  106.78800201    0.58999997    2.13000011
   12.72333336   98.25000000    0.56999999    2.13000011
   12.72583294  107.12699890    0.56999999    2.13000011
   12.72722149   95.35310364    0.58999997    2.13000011
   12.73027706  105.62599945    0.58999997    2.13000011
   12.73361111  103.52899933    0.58999997    2.13000011
   12.73722267  102.54199982    0.58999997    2.13000011
   12.74027824  101.05300140    0.61000001    2.13000011
   12.74611092  101.05300140    0.56999999    2.15000010
   12.75000000   99.12979889    0.55000001    2.15000010
   12.75333309   98.46949768    0.55000001    2.15000010
   12.75666714   95.29669952    0.55000001    2.13000011
   12.75916672  104.60500336    0.55000001    2.13000011
   12.76027775   96.99929810    0.55000001    2.15000010
   12.76333332  108.51100159    0.55000001    2.15000010
   12.76666641  102.65599823    0.55000001    2.15000010
   12.76999950   97.59120178    0.55000001    2.15000010
   12.77305508   99.34539795    0.55000001    2.17000008
   12.77638817  109.36199951    0.55000001    2.15000010
   12.77972221  103.76999664    0.55000001    2.15000010
   12.78277779   97.71029663    0.55000001    2.15000010
   12.78888893   97.71029663    0.55000001    2.15000010
   12.79305553   99.58499908    0.55000001    2.17000008
   12.79611111  100.63500214    0.55000001    2.17000008
   12.79944515   97.17700195    0.55000001    2.17000008
   12.80277824  101.70400238    0.55000001    2.17000008
   12.80583382   96.15029907    0.55000001    2.17000008
   12.80916691   94.28859711    0.55000001    2.17000008
   12.81222248  100.39099884    0.55000001    2.17000008
   12.81555557   96.83290100    0.55000001    2.17000008
   12.81888866   99.70860291    0.52999997    2.17000008
   12.82194424  100.68199921    0.52999997    2.19000006
   12.82527733   95.43280029    0.52999997    2.17000008
   12.82583332   99.63770294    0.52999997    2.19000006
   12.83166695   99.63770294    0.52999997    2.19000006
   12.83583260   97.14959717    0.52999997    2.19000006
   12.83916664  102.93699646    0.52999997    2.19000006
   12.84222221  101.01699829    0.52999997    2.19000006
   12.84555531  100.22100067    0.52999997    2.19000006
   12.84888840  102.16999817    0.52999997    2.21000004
   12.85194492   96.54570007    0.52999997    2.19000006
   12.85527802  107.31500244    0.51999998    2.19000006
   12.85833359  103.32499695    0.52999997    2.19000006
   12.85916710  101.74099731    0.52999997    2.19000006
   12.86222267  111.36299896    0.51999998    2.19000006
   12.86555576  103.63700104    0.51999998    2.19000006
   12.86861134  106.95899963    0.51999998    2.21000004
   12.87444496  106.95899963    0.52999997    2.21000004
   12.87861156  100.05899811    0.51999998    2.19000006
   12.88194466  100.87699890    0.51999998    2.21000004
   12.88500023  103.26300049    0.51999998    2.21000004
   12.88833332  104.58499908    0.51999998    2.21000004
   12.89166641  100.45500183    0.51999998    2.21000004
   12.89249992  103.33200073    0.51999998    2.21000004
   12.89527798  100.14199829    0.51999998    2.21000004
   12.89861107   98.61009979    0.51999998    2.21000004
   12.90166664  103.29499817    0.51999998    2.21000004
   12.90499973  103.96800232    0.51999998    2.21000004
   12.90833282  100.34400177    0.51999998    2.21000004
   12.91138840   98.24050140    0.51999998    2.23000002
   12.91722298   98.24050140    0.50000000    2.23000002
   12.92138958   97.36150360    0.51999998    2.23000002
   12.92472267  105.92299652    0.50000000    2.23000002
   12.92583370   98.95570374    0.50000000    2.23000002
   12.92833328   96.66120148    0.50000000    2.23000002
   12.93166733  100.54399872    0.51999998    2.23000002
   12.93500042   95.09339905    0.51999998    2.23000002
   12.93805599  102.37799835    0.50000000    2.23000002
   12.94138908  102.88600159    0.51999998    2.23000002
   12.94444466  102.54699707    0.50000000    2.23000002
   12.94777775  107.99900055    0.50000000    2.23000002
   12.95111084  101.40599823    0.50000000    2.23000002
   12.95444393  103.69000244    0.50000000    2.25000000
   12.96027756  103.69000244    0.50000000    2.25000000
   12.96444416   95.35240173    0.50000000    2.23000002
   12.96749973  101.00199890    0.50000000    2.25000000
   12.97083282   98.16619873    0.50000000    2.25000000
   12.97416592   96.84559631    0.50000000    2.25000000
   12.97722149   99.50330353    0.50000000    2.25000000
   12.98055553   97.74160004    0.50000000    2.25000000
   12.98361111   92.06990051    0.50000000    2.25000000
   12.98694515  101.47200012    0.50000000    2.25000000
   12.99027824   94.92079926    0.50000000    2.25000000
   12.99250031   92.72910309    0.50000000    2.25000000
   12.99388885   97.68319702    0.50000000    2.25000000
   12.99722290   96.19349670    0.47999999    2.25000000
   13.00305557   96.19349670    0.50000000    2.26999998
   13.00722218   95.96640015    0.50000000    2.25000000
   13.01027775   92.23190308    0.47999999    2.26999998
   13.01361084  105.90200043    0.47999999    2.26999998
   13.01694393   92.28669739    0.47999999    2.26999998
   13.01999950   94.72059631    0.47999999    2.26999998
   13.02333355   93.04570007    0.47999999    2.26999998
   13.02583313  101.70899963    0.47999999    2.26999998
   13.02694416   99.36869812    0.47999999    2.26999998
   13.03027725   96.88629913    0.47999999    2.26999998
   13.03333378   99.06220245    0.47999999    2.26999998
   13.03666687   99.31909943    0.47999999    2.26999998
   13.04000092   97.76280212    0.47999999    2.26999998
   13.04583359   97.76280212    0.47999999    2.28999996
   13.05000019  106.68299866    0.47999999    2.26999998
   13.05333328  102.20600128    0.47999999    2.28999996
   13.05666733  109.27700043    0.47999999    2.28999996
   13.05944443  100.19899750    0.47999999    2.28999996
   13.06027794   95.23190308    0.47999999    2.28999996
   13.06361103  100.07099915    0.47999999    2.28999996
   13.06694412   98.21450043    0.47999999    2.28999996
   13.06999969  102.27999878    0.47999999    2.28999996
   13.07333374   98.02259827    0.47999999    2.28999996
   13.07638836   96.71649933    0.47999999    2.28999996
   13.07972240   94.21029663    0.47999999    2.28999996
   13.08305550   97.50000000    0.47999999    2.28999996
   13.08888817   97.50000000    0.46000001    2.28999996
   13.09305477  102.04000092    0.46000001    2.28999996
   13.09611034   97.40129852    0.46000001    2.28999996
   13.09944439   98.21739960    0.47999999    2.28999996
   13.10277843   93.57990265    0.47999999    2.28999996
   13.10583401  103.17800140    0.46000001    2.28999996
   13.10916710   94.81800079    0.47999999    2.30999994
   13.11250019  104.70400238    0.47999999    2.30999994
   13.11555576   99.40049744    0.46000001    2.30999994
   13.11888885   97.79019928    0.46000001    2.30999994
   13.12222195  104.85299683    0.46000001    2.30999994
   13.12527752   95.71479797    0.46000001    2.30999994
   13.12611103   96.96389771    0.46000001    2.30999994
   13.13166714   96.96389771    0.44000000    2.30999994
   13.13583279   97.29789734    0.44000000    2.30999994
   13.13888836   97.27809906    0.44000000    2.30999994
   13.14222240   92.85169983    0.44000000    2.30999994
   13.14555550   94.62750244    0.46000001    2.30999994
   13.14861107  102.09200287    0.44000000    2.30999994
   13.15194416   92.68969727    0.44000000    2.30999994
   13.15499973   96.55560303    0.44000000    2.32999992
   13.15833282   93.16809845    0.44000000    2.32999992
   13.15972137   96.95420074    0.44000000    2.30999994
   13.16249943  103.11299896    0.44000000    2.30999994
   13.16583252   94.66480255    0.44000000    2.30999994
   13.16916656   90.83300018    0.44000000    2.30999994
   13.17472267   90.83300018    0.44000000    2.30999994
   13.17888927   91.70870209    0.44000000    2.32999992
   13.18222237   90.74099731    0.44000000    2.30999994
   13.18527794   92.71810150    0.44000000    2.32999992
   13.18861103   94.67449951    0.44000000    2.32999992
   13.19194412   94.01650238    0.44000000    2.32999992
   13.19277763   94.13899994    0.44000000    2.32999992
   13.19555569   93.17970276    0.44000000    2.32999992
   13.19888878   92.34470367    0.44000000    2.32999992
   13.20194435   92.77400208    0.44000000    2.32999992
   13.20527744   96.48259735    0.44000000    2.32999992
   13.20861053   93.11569977    0.44000000    2.32999992
   13.21166611   95.45320129    0.44000000    2.32999992
   13.21722221   95.45320129    0.44000000    2.32999992
   13.22138882   95.30229950    0.44000000    2.32999992
   13.22472191   98.79969788    0.44000000    2.32999992
   13.22611046   96.46410370    0.44000000    2.32999992
   13.22833252   94.34079742    0.44000000    2.34999990
   13.23166656   96.99490356    0.41999999    2.32999992
   13.23472214   96.29239655    0.41999999    2.34999990
   13.23805618   91.29630280    0.44000000    2.32999992
   13.24138927   97.19869995    0.44000000    2.32999992
   13.24444485   96.26439667    0.44000000    2.34999990
   13.24777794   95.63839722    0.44000000    2.34999990
   13.25111103   89.64730072    0.44000000    2.34999990
   13.25416660   95.21150208    0.41999999    2.34999990
   13.26027775   95.21150208    0.41999999    2.34999990
   13.26416683   93.42769623    0.44000000    2.34999990
   13.26749992   94.33840179    0.44000000    2.34999990
   13.27083302  103.73000336    0.44000000    2.34999990
   13.27388859   94.18939972    0.41999999    2.34999990
   13.27722168   93.63860321    0.41999999    2.34999990
   13.28055573   94.18859863    0.41999999    2.34999990
   13.28361130   91.39810181    0.41999999    2.34999990
   13.28694534  101.20400238    0.41999999    2.36999989
   13.29000092   88.80180359    0.41999999    2.36999989
   13.29277802   95.77519989    0.41999999    2.34999990
   13.29361153   90.72499847    0.41999999    2.34999990
   13.29694462   91.99770355    0.41999999    2.34999990
   13.30305576   91.99770355    0.41999999    2.36999989
   13.30722237   92.08840179    0.41999999    2.36999989
   13.31027794   91.62740326    0.40000001    2.36999989
   13.31361103   93.59739685    0.41999999    2.36999989
   13.31694412   88.97660065    0.41999999    2.36999989
   13.31999969   90.39969635    0.41999999    2.36999989
   13.32333374   94.39559937    0.41999999    2.36999989
   13.32611084   91.05380249    0.41999999    2.36999989
   13.32722187   87.58149719    0.41999999    2.36999989
   13.33027744   90.82150269    0.41999999    2.36999989
   13.33361053   94.24320221    0.40000001    2.39000010
   13.33694458   96.59580231    0.40000001    2.36999989
   13.34027767   93.33509827    0.40000001    2.36999989
   13.34583282   93.33509827    0.40000001    2.39000010
   13.35000038  100.24600220    0.40000001    2.39000010
   13.35333347   93.04699707    0.40000001    2.39000010
   13.35638905  100.02600098    0.40000001    2.39000010
   13.35944462   91.82550049    0.41999999    2.36999989
   13.36000061   92.00630188    0.41999999    2.36999989
   13.36333370   94.12779999    0.40000001    2.39000010
   13.36666679   91.74510193    0.41999999    2.39000010
   13.36972237   99.27600098    0.41999999    2.39000010
   13.37305546   89.88449860    0.40000001    2.39000010
   13.37611103  101.67600250    0.40000001    2.39000010
   13.37944412   90.65660095    0.40000001    2.39000010
   13.38277817   91.10220337    0.40000001    2.39000010
   13.38861084   91.10220337    0.40000001    2.39000010
   13.39277744   95.98860168    0.40000001    2.39000010
   13.39611053   95.13539886    0.40000001    2.39000010
   13.39916611   99.58630371    0.40000001    2.39000010
   13.40249920   93.87850189    0.40000001    2.39000010
   13.40583324   91.44499969    0.40000001    2.39000010
   13.40888882   97.66929626    0.40000001    2.40000010
   13.41222191   93.86229706    0.41999999    2.40000010
   13.41555500   90.01889801    0.41999999    2.40000010
   13.41861153   93.24710083    0.40000001    2.39000010
   13.42194462   97.98139954    0.40000001    2.39000010
   13.42527771   94.93209839    0.40000001    2.40000010
   13.42611122   96.97149658    0.40000001    2.40000010
   13.44666672   96.97149658    0.40000001    2.40000010
   13.45083332   91.53250122    0.40000001    2.40000010
   13.45416641   97.06670380    0.40000001    2.40000010
   13.45722198  100.95400238    0.40000001    2.40000010
   13.45944405   95.42569733    0.40000001    2.40000010
   13.46083355   94.18270111    0.40000001    2.40000010
   13.46416664   95.59609985    0.40000001    2.40000010
   13.46722221   95.18730164    0.40000001    2.40000010
   13.47055531   90.94339752    0.40000001    2.40000010
   13.47388840   97.97619629    0.40000001    2.40000010
   13.47694397   92.44460297    0.40000001    2.40000010
   13.48027706   95.53469849    0.40000001    2.40000010
   13.48361111   93.87329865    0.40000001    2.40000010
   13.48944473   93.87329865    0.40000001    2.40000010
   13.49361134   87.98870087    0.40000001    2.40000010
   13.49694443   91.20449829    0.40000001    2.40000010
   13.50000000   89.98509979    0.40000001    2.40000010
   13.50333309   89.80940247    0.40000001    2.40000010
   13.50638866   91.44529724    0.40000001    2.40000010
   13.50972176   89.94740295    0.40000001    2.40000010
   13.51305580   90.91030121    0.40000001    2.40000010
   13.51611137   90.67350006    0.40000001    2.42000008
   13.51944447   89.24359894    0.40000001    2.40000010
   13.52277756   87.25980377    0.40000001    2.40000010
   13.52583313   89.70919800    0.38000000    2.42000008
   13.52638817   89.72820282    0.38000000    2.42000008
   13.53222179   89.72820282    0.40000001    2.42000008
   13.53638935   88.18199921    0.40000001    2.42000008
   13.53972244   87.85109711    0.40000001    2.42000008
   13.54277802   87.95899963    0.38000000    2.42000008
   13.54611111   83.61879730    0.40000001    2.42000008
   13.54916668   88.28109741    0.38000000    2.42000008
   13.55249977   86.40000153    0.38000000    2.42000008
   13.55583382   86.65959930    0.40000001    2.42000008
   13.55888939   85.79599762    0.40000001    2.42000008
   13.55972195   89.07170105    0.38000000    2.42000008
   13.56277752   88.10510254    0.38000000    2.42000008
   13.56583309   88.43299866    0.38000000    2.42000008
   13.56916618   88.45230103    0.40000001    2.42000008
   13.57499981   88.45230103    0.38000000    2.42000008
   13.57916641   94.22049713    0.38000000    2.42000008
   13.58249950   90.30370331    0.38000000    2.44000006
   13.58583260   87.89559937    0.38000000    2.44000006
   13.58888817   83.79049683    0.38000000    2.44000006
   13.59222221   90.78479767    0.38000000    2.44000006
   13.59305477   89.23940277    0.38000000    2.44000006
   13.59583282   91.09259796    0.38000000    2.44000006
   13.59888840   86.68440247    0.40000001    2.42000008
   13.60222244   87.85119629    0.38000000    2.44000006
   13.60555553   86.82769775    0.38000000    2.42000008
   13.60861111   88.61940002    0.38000000    2.42000008
   13.61194515   94.69650269    0.38000000    2.44000006
   13.61805534   94.69650269    0.38000000    2.42000008
   13.62194443   86.43959808    0.38000000    2.44000006
   13.62527752   88.39649963    0.38000000    2.42000008
   13.62638855   89.99479675    0.38000000    2.42000008
   13.62888908   91.03900146    0.38000000    2.44000006
   13.63194466   87.94270325    0.38000000    2.44000006
   13.63527775   86.44460297    0.38000000    2.44000006
   13.63861084   85.98400116    0.38000000    2.44000006
   13.64166641   90.86190033    0.38000000    2.44000006
   13.64499950   86.22519684    0.38000000    2.44000006
   13.64833355   92.31079865    0.38000000    2.44000006
   13.65138817   89.13649750    0.38000000    2.44000006
   13.65472221   91.44309998    0.36000001    2.44000006
   13.66083336   91.44309998    0.38000000    2.46000004
   13.66499996   91.73169708    0.38000000    2.46000004
   13.66805553   88.14499664    0.38000000    2.44000006
   13.67138958   88.93489838    0.38000000    2.46000004
   13.67472267   83.99310303    0.36000001    2.46000004
   13.67777824   88.40640259    0.36000001    2.46000004
   13.68111134   89.90200043    0.36000001    2.46000004
   13.68416691   89.26349640    0.36000001    2.46000004
   13.68750000   89.65419769    0.36000001    2.44000006
   13.69083309   92.60849762    0.38000000    2.46000004
   13.69305515   92.51920319    0.38000000    2.46000004
   13.69444466   90.90219879    0.36000001    2.46000004
   13.69750023   87.02110291    0.38000000    2.46000004
   13.70361137   87.02110291    0.38000000    2.46000004
   13.70777798   84.81189728    0.36000001    2.46000004
   13.71111107   91.06079865    0.38000000    2.46000004
   13.71416664   86.98529816    0.38000000    2.46000004
   13.71749973   89.12640381    0.36000001    2.46000004
   13.72055531   89.09010315    0.38000000    2.46000004
   13.72388840   89.27819824    0.38000000    2.46000004
   13.72638798   94.02729797    0.36000001    2.46000004
   13.72749996   92.52729797    0.36000001    2.46000004
   13.73055553   89.09889984    0.38000000    2.46000004
   13.73388958   91.08110046    0.38000000    2.46000004
   13.73722267   86.47650146    0.38000000    2.48000002
   13.74027824   90.56690216    0.36000001    2.46000004
   13.74638939   90.56690216    0.38000000    2.46000004
   13.75055599   85.85459900    0.38000000    2.46000004
   13.75388908   87.15209961    0.38000000    2.46000004
   13.75694466   87.41359711    0.36000001    2.46000004
   13.75972176   87.43280029    0.36000001    2.46000004
   13.76083374   84.47250366    0.36000001    2.46000004
   13.76388931   89.14689636    0.36000001    2.46000004
   13.76722240   85.14929962    0.36000001    2.46000004
   13.77055550   85.92539978    0.36000001    2.48000002
   13.77361107   88.76239777    0.38000000    2.46000004
   13.77694416   87.51029968    0.36000001    2.46000004
   13.78027725   86.57859802    0.36000001    2.46000004
   13.78333378   88.46320343    0.36000001    2.46000004
   13.78944492   88.46320343    0.36000001    2.46000004
   13.79333401   85.95680237    0.36000001    2.46000004
   13.79666710   90.74479675    0.36000001    2.48000002
   13.80000019   87.13619995    0.36000001    2.48000002
   13.80305576   87.43309784    0.38000000    2.48000002
   13.80638885   84.26889801    0.38000000    2.48000002
   13.80972195   90.24890137    0.36000001    2.48000002
   13.81277752   86.35929871    0.36000001    2.46000004
   13.81611156   87.93699646    0.36000001    2.46000004
   13.81944466   81.81569672    0.38000000    2.46000004
   13.82250023   87.81030273    0.36000001    2.48000002
   13.82583332   89.77469635    0.36000001    2.46000004
   13.82638836   87.86160278    0.36000001    2.46000004
   13.83222198   87.86160278    0.38000000    2.48000002
   13.83638859   87.73899841    0.36000001    2.48000002
   13.83944416   87.12359619    0.36000001    2.48000002
   13.84277725   92.81300354    0.38000000    2.48000002
   13.84611034   85.59750366    0.38000000    2.48000002
   13.84916592   87.55690002    0.36000001    2.48000002
   13.85249996   84.91970062    0.36000001    2.48000002
   13.85583401   91.00800323    0.36000001    2.48000002
   13.85888958   86.83350372    0.38000000    2.48000002
   13.85972214   89.89839935    0.38000000    2.48000002
   13.86250019   87.77439880    0.38000000    2.48000002
   13.86583328   93.55999756    0.38000000    2.48000002
   13.86916637   86.24440002    0.40000001    2.48000002
   13.87500000   86.24440002    0.40000001    2.48000002
   13.87916660   89.75109863    0.40000001    2.48000002
   13.88249969   86.65889740    0.40000001    2.48000002
   13.88555527   89.03540039    0.40000001    2.48000002
   13.88888836   89.24739838    0.40000001    2.50000000
   13.89194393   85.97619629    0.40000001    2.48000002
   13.89305496   95.28250122    0.40000001    2.48000002
   13.89583302   87.32450104    0.40000001    2.48000002
   13.89916611   93.73110199    0.40000001    2.48000002
   13.90222168   88.44539642    0.40000001    2.48000002
   13.90555477   87.20819855    0.40000001    2.48000002
   13.90861034   85.76200104    0.40000001    2.48000002
   13.91194439   86.09429932    0.40000001    2.48000002
   13.91777802   86.09429932    0.40000001    2.50000000
   13.92194462   91.38580322    0.38000000    2.48000002
   13.92527771   86.91889954    0.40000001    2.48000002
   13.92638874   82.68180084    0.40000001    2.48000002
   13.92888927   86.23000336    0.40000001    2.50000000
   13.93222237   86.65229797    0.40000001    2.50000000
   13.93527794   83.84449768    0.40000001    2.50000000
   13.93861103   88.70469666    0.40000001    2.48000002
   13.94166660   85.03260040    0.40000001    2.48000002
   13.94499969   82.30829620    0.40000001    2.48000002
   13.94833374   91.44170380    0.41999999    2.50000000
   13.95166683   87.23860168    0.44000000    2.48000002
   13.95472240   86.70310211    0.44000000    2.48000002
   13.96083355   86.70310211    0.46000001    2.50000000
   13.96472168   87.78250122    0.50000000    2.50000000
   13.96805477   86.16950226    0.50000000    2.50000000
   13.97138882   89.56549835    0.50000000    2.50000000
   13.97444439   85.88700104    0.47999999    2.50000000
   13.97777748   89.66929626    0.47999999    2.50000000
   13.98111057   86.66239929    0.46000001    2.50000000
   13.98416710   91.66519928    0.50000000    2.50000000
   13.98750019   85.52629852    0.47999999    2.50000000
   13.99055576   81.93550110    0.50000000    2.50000000
   13.99305534   85.59179688    0.50000000    2.50000000
   13.99444485   86.65229797    0.51999998    2.50000000
   13.99777794   85.92720032    0.55000001    2.50000000
   14.00361156   85.92720032    0.52999997    2.50000000
   14.00777817   85.75700378    0.50000000    2.50000000
   14.01083374   87.22190094    0.47999999    2.50000000
   14.01416683   84.68740082    0.52999997    2.50000000
   14.01722240   88.52929688    0.55000001    2.51999998
   14.02055550   85.97489929    0.56999999    2.50000000
   14.02388859   85.89170074    0.56999999    2.50000000
   14.02638817   85.71659851    0.56999999    2.50000000
   14.02750015   85.93789673    0.51999998    2.50000000
   14.03083324   86.87889862    0.51999998    2.50000000
   14.03388977   87.54429626    0.52999997    2.50000000
   14.03722286   85.97000122    0.55000001    2.50000000
   14.04055595   85.37629700    0.51999998    2.50000000
   14.04638958   85.37629700    0.51999998    2.51999998
   14.05055618   82.95890045    0.51999998    2.51999998
   14.05361176   82.55149841    0.50000000    2.50000000
   14.05694485   84.42939758    0.50000000    2.50000000
   14.06000042   85.33059692    0.44000000    2.51999998
   14.06083393   83.90170288    0.44000000    2.51999998
   14.06388950   81.00509644    0.38000000    2.50000000
   14.06722260   83.89969635    0.38000000    2.51999998
   14.07027817   89.07309723    0.38000000    2.51999998
   14.07361126   89.88410187    0.36000001    2.51999998
   14.07694435   86.71759796    0.36000001    2.51999998
   14.07999992   84.63400269    0.34000000    2.51999998
   14.08333302   84.24810028    0.34000000    2.51999998
   14.08916664   84.24810028    0.36000001    2.51999998
   14.09333324   91.20559692    0.36000001    2.51999998
   14.09666634   89.16020203    0.36000001    2.51999998
   14.09972191   86.35040283    0.34000000    2.51999998
   14.10305595   88.30490112    0.36000001    2.51999998
   14.10638905   84.12270355    0.36000001    2.51999998
   14.10944462   90.02850342    0.36000001    2.51999998
   14.11277771   85.85279846    0.36000001    2.51999998
   14.11611176   86.91629791    0.36000001    2.51999998
   14.11916637   86.13140106    0.36000001    2.51999998
   14.12250042   91.53009796    0.36000001    2.51999998
   14.12555599   82.08750153    0.36000001    2.51999998
   14.12638855   84.26029968    0.36000001    2.51999998
   14.13194466   84.26029968    0.36000001    2.51999998
   14.13611126   85.26699829    0.36000001    2.51999998
   14.13944435   89.69249725    0.38000000    2.51999998
   14.14277744   84.73000336    0.38000000    2.51999998
   14.14583302   87.83959961    0.36000001    2.51999998
   14.14916611   87.71779633    0.38000000    2.51999998
   14.15222168   84.24009705    0.38000000    2.51999998
   14.15555477   95.01560211    0.36000001    2.51999998
   14.15888882   86.33300018    0.36000001    2.51999998
   14.15972137   89.47370148    0.36000001    2.51999998
   14.16249943   84.59079742    0.38000000    2.51999998
   14.16583252   87.15859985    0.38000000    2.51999998
   14.16888905   85.07409668    0.36000001    2.53999996
   14.17500019   85.07409668    0.36000001    2.51999998
   14.17916679   86.45639801    0.36000001    2.51999998
   14.18222237   86.78330231    0.36000001    2.51999998
   14.18555546   88.75250244    0.36000001    2.51999998
   14.18861103   91.78109741    0.36000001    2.51999998
   14.19194412   88.76450348    0.34000000    2.51999998
   14.19305515   89.35549927    0.34000000    2.51999998
   14.19555569   87.47160339    0.34000000    2.51999998
   14.19888878   90.00749969    0.34000000    2.51999998
   14.20194435   87.61969757    0.34000000    2.51999998
   14.20527744   86.66200256    0.34000000    2.51999998
   14.20861053   85.72820282    0.34000000    2.51999998
   14.21166611   87.33139801    0.34000000    2.51999998
   14.21777725   87.33139801    0.34000000    2.53999996
   14.22194386   86.95500183    0.34000000    2.53999996
   14.22499943   83.79440308    0.34000000    2.53999996
   14.22638798   87.18530273    0.34000000    2.53999996
   14.22861099   84.10279846    0.34000000    2.53999996
   14.23194408   84.97859955    0.34000000    2.53999996
   14.23500061   86.17060089    0.34000000    2.51999998
   14.23833370   83.95390320    0.34000000    2.53999996
   14.24166679   84.66639709    0.34000000    2.53999996
   14.24472237   83.84100342    0.38000000    2.53999996
   14.24805546   86.54879761    0.38000000    2.53999996
   14.25138855   85.43979645    0.40000001    2.53999996
   14.25444412   87.04589844    0.41999999    2.53999996
   14.26055527   87.04589844    0.44000000    2.53999996
   14.26472187   81.16860199    0.40000001    2.53999996
   14.26805496   84.42109680    0.40000001    2.53999996
   14.27111053   84.11650085    0.40000001    2.53999996
   14.27444458   84.99040222    0.38000000    2.53999996
   14.27777767   86.05220032    0.36000001    2.53999996
   14.28083324   86.44219971    0.38000000    2.53999996
   14.28416729   89.44229889    0.36000001    2.53999996
   14.28750038   89.63430023    0.38000000    2.53999996
   14.29055595   86.62220001    0.38000000    2.53999996
   14.29305553   89.10530090    0.38000000    2.53999996
   14.29416752   87.58809662    0.38000000    2.53999996
   14.29750061   89.10189819    0.38000000    2.53999996
   14.30333328   89.10189819    0.40000001    2.55999994
   14.30749989   88.45760345    0.40000001    2.53999996
   14.31083393   90.57710266    0.38000000    2.53999996
   14.31416702   85.66790009    0.38000000    2.53999996
   14.31722260   84.21420288    0.38000000    2.53999996
   14.32055569   90.41310120    0.40000001    2.53999996
   14.32361126   85.44869995    0.41999999    2.53999996
   14.32666683   81.13929749    0.41999999    2.53999996
   14.32750034   85.58450317    0.41999999    2.53999996
   14.33055592   84.31559753    0.41999999    2.53999996
   14.33388901   83.95290375    0.41999999    2.53999996
   14.33722210   86.54209900    0.41999999    2.53999996
   14.34027767   85.38359833    0.41999999    2.53999996
   14.34638882   85.38359833    0.41999999    2.53999996
   14.35055637   84.62760162    0.40000001    2.53999996
   14.35361195   84.37960052    0.40000001    2.53999996
   14.35694504   82.16369629    0.40000001    2.53999996
   14.35972214   85.11430359    0.40000001    2.53999996
   14.36083412   84.28230286    0.38000000    2.53999996
   14.36388969   83.12349701    0.38000000    2.53999996
   14.36722279   85.40720367    0.38000000    2.53999996
   14.37055588   87.70700073    0.40000001    2.53999996
   14.37361145   82.49040222    0.40000001    2.53999996
   14.37694454   82.34539795    0.38000000    2.55999994
   14.38000011   83.59490204    0.38000000    2.53999996
   14.38333321   89.96649933    0.36000001    2.53999996
   14.38916683   89.96649933    0.36000001    2.55999994
   14.39333344   83.11399841    0.36000001    2.55999994
   14.39638901   84.78089905    0.36000001    2.53999996
   14.39972210   89.60880280    0.36000001    2.55999994
   14.40305519   84.79260254    0.36000001    2.55999994
   14.40638828   81.59159851    0.34000000    2.55999994
   14.40944386   86.00640106    0.34000000    2.55999994
   14.41277695   88.37750244    0.34000000    2.53999996
   14.41583252   85.65180206    0.34000000    2.55999994
   14.41916656   83.59380341    0.34000000    2.55999994
   14.42250061   88.24199677    0.34000000    2.55999994
   14.42583370   80.76750183    0.34000000    2.55999994
   14.42666721   85.38839722    0.34000000    2.55999994
   14.43194485   85.38839722    0.34000000    2.55999994
   14.43611145   87.41149902    0.34000000    2.55999994
   14.43944454   87.72530365    0.34000000    2.55999994
   14.44250011   82.72489929    0.34000000    2.55999994
   14.46027756   83.99269867    0.34000000    2.55999994
   14.46249962   83.14330292    0.34000000    2.55999994
   14.46583271   87.37500000    0.34000000    2.55999994
   14.46916580   81.97550201    0.34000000    2.55999994
   14.47499943   81.97550201    0.34000000    2.55999994
   14.47916603   84.26589966    0.31999999    2.55999994
   14.48249912   81.87509918    0.31999999    2.55999994
   14.48555565   84.56490326    0.31999999    2.55999994
   14.48888874   82.66490173    0.31999999    2.55999994
   14.49194431   81.72640228    0.31999999    2.55999994
   14.49333382   81.63680267    0.31999999    2.55999994
   14.49583340   83.47299957    0.31999999    2.55999994
   14.49916649   85.11990356    0.31999999    2.55999994
   14.50222206   83.23349762    0.31999999    2.55999994
   14.50555515   87.48850250    0.31999999    2.55999994
   14.50861073   84.02239990    0.31999999    2.55999994
   14.51194477   85.27519989    0.31999999    2.55999994
   14.51777744   85.27519989    0.31999999    2.55999994
   14.52194405   84.52940369    0.31999999    2.55999994
   14.52527714   82.32679749    0.31999999    2.55999994
   14.52666664   86.90290070    0.31999999    2.55999994
   14.52888870   83.76419830    0.31999999    2.55999994
   14.53222179   82.52040100    0.30000001    2.55999994
   14.53527832   84.09359741    0.31999999    2.55999994
   14.53861141   84.50060272    0.30000001    2.55999994
   14.54194450   84.60150146    0.30000001    2.57999992
   14.54500008   81.92590332    0.30000001    2.55999994
   14.54833412   82.87220001    0.30000001    2.57999992
   14.55166721   82.11450195    0.31999999    2.55999994
   14.55472279   82.13739777    0.31999999    2.55999994
   14.56083393   82.13739777    0.31999999    2.55999994
   14.56472206   81.07869720    0.31999999    2.57999992
   14.56805515   84.16960144    0.30000001    2.57999992
   14.57138920   85.28669739    0.30000001    2.55999994
   14.57444477   83.34580231    0.30000001    2.55999994
   14.57777786   82.94650269    0.31999999    2.57999992
   14.58111095   83.22630310    0.30000001    2.55999994
   14.58416653   85.70500183    0.31999999    2.57999992
   14.58749962   83.86689758    0.30000001    2.55999994
   14.59055519   83.61669922    0.30000001    2.57999992
   14.59333324   87.17530060    0.30000001    2.57999992
   14.59444427   87.97460175    0.30000001    2.55999994
   14.59777737   85.75440216    0.30000001    2.55999994
   14.60361195   85.75440216    0.31999999    2.57999992
   14.60777855   85.79229736    0.31999999    2.57999992
   14.61083412   87.60759735    0.31999999    2.57999992
   14.61416721   89.33090210    0.31999999    2.57999992
   14.61750031   84.36940002    0.31999999    2.57999992
   14.62055588   82.08370209    0.31999999    2.57999992
   14.62388897   83.12210083    0.31999999    2.57999992
   14.62666702   84.01619720    0.31999999    2.57999992
   14.62750053   87.54570007    0.31999999    2.57999992
   14.63083363   81.31829834    0.31999999    2.57999992
   14.63388920   87.22149658    0.30000001    2.57999992
   14.63722229   83.51329803    0.30000001    2.57999992
   14.64055538   82.21019745    0.31999999    2.57999992
   14.64638901   82.21019745    0.31999999    2.57999992
   14.65055561   81.96009827    0.31999999    2.57999992
   14.65388870   80.15090179    0.31999999    2.57999992
   14.65694427   83.56880188    0.31999999    2.57999992
   14.65999985   80.02739716    0.31999999    2.57999992
   14.66055489   78.81580353    0.31999999    2.57999992
   14.66388893   82.48020172    0.34000000    2.57999992
   14.66694450   81.31410217    0.34000000    2.57999992
   14.67027855   78.92839813    0.34000000    2.57999992
   14.67361164   81.58979797    0.34000000    2.57999992
   14.67694473   83.08899689    0.31999999    2.57999992
   14.68000031   84.75070190    0.31999999    2.57999992
   14.68333340   83.40889740    0.31999999    2.57999992
   14.68916702   83.40889740    0.31999999    2.57999992
   14.69333363   83.61689758    0.31999999    2.57999992
   14.69388866   84.20929718    0.31999999    2.57999992
   14.69722271   82.60250092    0.31999999    2.57999992
   14.70027733   83.67829895    0.31999999    2.57999992
   14.70361137   84.65180206    0.30000001    2.57999992
   14.70694447   80.15660095    0.30000001    2.57999992
   14.71000004   82.30850220    0.30000001    2.57999992
   14.71333313   84.58689880    0.31999999    2.57999992
   14.71666622   82.92870331    0.31999999    2.57999992
   14.71972179   86.31670380    0.31999999    2.57999992
   14.72305489   81.31169891    0.31999999    2.57999992
   14.72611046   82.48229980    0.31999999    2.57999992
   14.72666645   85.34200287    0.31999999    2.57999992
   14.73194408   85.34200287    0.31999999    2.59999990
   14.73611164   81.99160004    0.31999999    2.57999992
   14.73944473   86.50579834    0.31999999    2.57999992
   14.74277782   87.02239990    0.31999999    2.57999992
   14.74583340   85.06269836    0.31999999    2.57999992
   14.74916649   81.40460205    0.31999999    2.57999992
   14.75249958   82.24310303    0.34000000    2.57999992
   14.75555515   85.83409882    0.31999999    2.59999990
   14.75888920   82.72660065    0.31999999    2.57999992
   14.76000023   82.30799866    0.31999999    2.57999992
   14.76249981   83.49269867    0.31999999    2.59999990
   14.76583290   82.02159882    0.31999999    2.59999990
   14.76888847   83.76360321    0.31999999    2.57999992
   14.77499962   83.76360321    0.31999999    2.59999990
   14.77916622   81.59300232    0.31999999    2.57999992
   14.78222179   82.12480164    0.30000001    2.57999992
   14.78555584   88.67859650    0.30000001    2.59999990
   14.78888893   85.10299683    0.30000001    2.59999990
   14.79194450   89.38050079    0.30000001    2.59999990
   14.79333401   89.36830139    0.30000001    2.59999990
   14.79555607   87.54540253    0.30000001    2.57999992
   14.79888916   84.88179779    0.30000001    2.57999992
   14.80194473   84.04109955    0.30000001    2.59999990
   14.80527782   86.34790039    0.31999999    2.59999990
   14.80861092   91.63390350    0.31999999    2.59999990
   14.81166649   81.25509644    0.31999999    2.57999992
   14.81777763   81.25509644    0.34000000    2.59999990
   14.82194424   84.19860077    0.34000000    2.59999990
   14.82499981   86.10009766    0.34000000    2.59999990
   14.82694435   82.24410248    0.34000000    2.59999990
   14.82888889   80.61060333    0.34000000    2.59999990
   14.83194447   85.05750275    0.34000000    2.57999992
   14.83527756   82.06950378    0.34000000    2.57999992
   14.96138859   -1.00000000   -1.00000000   -1.00000000
   15.15888882   -1.00000000   -1.00000000   -1.00000000
   15.60388947   -1.00000000   -1.00000000   -1.00000000
   15.63305569   69.44930267    0.30000001    2.64000010
   15.63638878   87.62979889    0.28000000    2.64000010
   15.63944435   84.80100250    0.28000000    2.64000010
   15.64277744   86.71260071    0.30000001    2.64000010
   15.64611053   85.27639771    0.28000000    2.64000010
   15.64916611   90.16950226    0.28000000    2.64000010
   15.65333271   90.16950226    0.28000000    2.61999989
   15.65749931   88.55280304    0.28000000    2.64000010
   15.66083336   88.49710083    0.28000000    2.64000010
   15.66388893   92.45700073    0.28000000    2.64000010
   15.66638851   91.93789673    0.28000000    2.64000010
   15.66777802   88.33760071    0.28000000    2.64000010
   15.67083359   89.15090179    0.28000000    2.64000010
   15.67416668   86.27780151    0.28000000    2.64000010
   15.67750072   89.49890137    0.30000001    2.64000010
   15.68055630   90.24140167    0.30000001    2.64000010
   15.68388939   91.15650177    0.30000001    2.64000010
   15.68694496   86.41950226    0.30000001    2.64000010
   15.69027805   90.08950043    0.28000000    2.64000010
   15.69611073   90.08950043    0.28000000    2.64000010
   15.70027733   88.84519958    0.28000000    2.64000010
   15.70416641   88.60949707    0.28000000    2.64000010
   15.70749950   89.32350159    0.28000000    2.64000010
   15.71055508   93.94180298    0.28000000    2.64000010
   15.71388912   92.70249939    0.28000000    2.61999989
   15.71722221   92.49369812    0.30000001    2.64000010
   15.72027779   87.37989807    0.30000001    2.64000010
   15.72361088   86.92410278    0.30000001    2.64000010
   15.72666645   86.37750244    0.28000000    2.64000010
   15.72999954   85.89659882    0.30000001    2.64000010
   15.73305511   87.27970123    0.28000000    2.64000010
   15.73388958   88.79019928    0.28000000    2.64000010
   15.73888874   88.79019928    0.28000000    2.64000010
   15.74305534   89.28959656    0.28000000    2.64000010
   15.74638939   84.28240204    0.30000001    2.64000010
   15.74972248   88.85620117    0.30000001    2.64000010
   15.75277805   87.44850159    0.28000000    2.64000010
   15.75611115   85.34149933    0.28000000    2.64000010
   15.75916672   84.27770233    0.28000000    2.64000010
   15.76249981   86.78610229    0.28000000    2.64000010
   15.76583290   86.67530060    0.28000000    2.64000010
   15.76638889   83.99610138    0.28000000    2.64000010
   15.76944447   85.75669861    0.28000000    2.64000010
   15.77250004   86.13079834    0.28000000    2.64000010
   15.77583313   94.18170166    0.28000000    2.64000010
   15.78194427   94.18170166    0.28000000    2.64000010
   15.78611183   85.28330231    0.28000000    2.64000010
   15.78916740   83.26869965    0.28000000    2.64000010
   15.79250050   86.65509796    0.28000000    2.64000010
   15.79555607   85.18990326    0.28000000    2.64000010
   15.79861164   90.74299622    0.28000000    2.64000010
   15.79944515   84.82240295    0.28000000    2.64000010
   15.80194473   88.55380249    0.28000000    2.64000010
   15.80527782   84.05259705    0.28000000    2.64000010
   15.80833340   90.74880219    0.28000000    2.64000010
   15.81166649   84.45610046    0.28000000    2.64000010
   15.81500053   86.67690277    0.28000000    2.64000010
   15.81833363   88.72810364    0.28000000    2.64000010
   15.82416630   88.72810364    0.28000000    2.64000010
   15.82833290   90.95860291    0.28000000    2.64000010
   15.83166695   87.51509857    0.28000000    2.64000010
   15.83277798   92.03060150    0.28000000    2.64000010
   15.83527756   87.87200165    0.28000000    2.64000010
   15.83861065   85.34149933    0.28000000    2.64000010
   15.84166622   85.61080170    0.28000000    2.64000010
   15.84499931   83.84149933    0.28000000    2.64000010
   15.84833336   87.83100128    0.28000000    2.66000009
   15.85138893   88.91329956    0.28000000    2.64000010
   15.85472298   88.31700134    0.25999999    2.66000009
   15.85805607   87.70520020    0.28000000    2.64000010
   15.86111164   83.19499969    0.28000000    2.64000010
   15.86722279   83.19499969    0.25999999    2.64000010
   15.87138939   88.62570190    0.28000000    2.66000009
   15.87444496   90.36119843    0.28000000    2.64000010
   15.87777805   89.56600189    0.28000000    2.64000010
   15.88138866   90.65239716    0.28000000    2.64000010
   15.88472176   84.83429718    0.28000000    2.64000010
   15.88777733   85.96040344    0.28000000    2.66000009
   15.89111137   85.56919861    0.28000000    2.66000009
   15.89416695   89.76380157    0.28000000    2.64000010
   15.89750004   84.00700378    0.28000000    2.64000010
   15.89972210   88.27279663    0.28000000    2.64000010
   15.90111065   89.25930023    0.28000000    2.64000010
   15.90416622   91.00830078    0.28000000    2.66000009
   15.91027737   91.00830078    0.28000000    2.64000010
   15.91444397   89.63680267    0.28000000    2.64000010
   15.91777802   90.82360077    0.28000000    2.64000010
   15.92111111   90.57700348    0.28000000    2.64000010
   15.92416668   93.17130280    0.30000001    2.64000010
   15.92750072   86.29489899    0.28000000    2.66000009
   15.93055630   90.70639801    0.30000001    2.64000010
   15.93305588   90.93579865    0.30000001    2.64000010
   15.93444443   87.49729919    0.28000000    2.64000010
   15.93750000   86.76889801    0.28000000    2.64000010
   15.94083309   86.39700317    0.28000000    2.66000009
   15.94416714   92.50839996    0.28000000    2.66000009
   15.94722271   89.15209961    0.28000000    2.64000010
   15.95333290   89.15209961    0.28000000    2.66000009
   15.95749950   92.59359741    0.28000000    2.66000009
   15.96055508   93.23940277    0.28000000    2.64000010
   15.96388912   84.76599884    0.28000000    2.64000010
   15.96638870   76.91729736    0.28000000    2.64000010
   15.96749973   85.65450287    0.28000000    2.64000010
   15.97055531   88.62100220    0.28000000    2.64000010
   15.97388840   82.77510071    0.28000000    2.66000009
   15.97722149   88.88870239    0.28000000    2.64000010
   15.98027706   84.81569672    0.28000000    2.64000010
   15.98361111   85.63009644    0.28000000    2.64000010
   15.98666668   90.51300049    0.28000000    2.64000010
   15.99000072   92.45050049    0.28000000    2.64000010
   15.99611092   92.45050049    0.28000000    2.64000010
   16.00027847   86.86540222    0.28000000    2.64000010
   16.00333405   89.08599854    0.28000000    2.64000010
   16.00666618   88.78639984    0.28000000    2.64000010
   16.01000023   87.55770111    0.28000000    2.64000010
   16.01305580   89.18460083    0.28000000    2.66000009
   16.01638794   86.91660309    0.28000000    2.64000010
   16.01972198   90.59600067    0.28000000    2.64000010
   16.02277756   88.90299988    0.28000000    2.66000009
   16.02611160   87.97059631    0.28000000    2.64000010
   16.02916718   87.43240356    0.28000000    2.64000010
   16.03249931   86.62380219    0.28000000    2.64000010
   16.03305435   85.82599640    0.28000000    2.64000010
   16.03888893   85.82599640    0.28000000    2.64000010
   16.04305458   92.16320038    0.28000000    2.64000010
   16.04638863   88.47709656    0.28000000    2.64000010
   16.04944420   91.20680237    0.28000000    2.66000009
   16.05277634   90.94770050    0.28000000    2.64000010
   16.05583191   89.82240295    0.28000000    2.64000010
   16.05916595   85.90529633    0.28000000    2.66000009
   16.06250000   83.04720306    0.28000000    2.64000010
   16.06555557   90.88040161    0.28000000    2.64000010
   16.06638718   89.12750244    0.28000000    2.64000010
   16.06944466   89.05799866    0.28000000    2.66000009
   16.07250023   88.52529907    0.28000000    2.64000010
   16.07583427   84.82969666    0.28000000    2.66000009
   16.08194542   84.82969666    0.28000000    2.64000010
   16.08611107   85.09940338    0.28000000    2.66000009
   16.08916664   85.95480347    0.28000000    2.64000010
   16.09250069   94.08670044    0.28000000    2.64000010
   16.09555626   85.27719879    0.28000000    2.66000009
   16.09889030   85.96549988    0.28000000    2.64000010
   16.09972191   88.03260040    0.28000000    2.64000010
   16.10250092   89.34960175    0.28000000    2.66000009
   16.10555649   90.53060150    0.28000000    2.66000009
   16.10888863   85.78520203    0.28000000    2.64000010
   16.11222267   84.53150177    0.28000000    2.66000009
   16.11527824   85.32309723    0.28000000    2.64000010
   16.11861038   84.55930328    0.28000000    2.64000010
   16.12472153   84.55930328    0.28000000    2.64000010
   16.12888908   86.49430084    0.28000000    2.64000010
   16.13194466   87.70829773    0.28000000    2.64000010
   16.13305473   84.54199982    0.28000000    2.64000010
   16.13555527   90.35829926    0.28000000    2.64000010
   16.13888931   85.93129730    0.28000000    2.64000010
   16.14222145   82.92389679    0.28000000    2.66000009
   16.14527702   85.27670288    0.28000000    2.66000009
   16.14861107   84.84619904    0.28000000    2.66000009
   16.15166664   81.35209656    0.28000000    2.66000009
   16.15499878   87.36630249    0.28000000    2.64000010
   16.15833282   88.19650269    0.28000000    2.66000009
   16.16138840   85.26419830    0.28000000    2.66000009
   16.16749954   85.26419830    0.28000000    2.66000009
   16.17166519   88.10240173    0.28000000    2.66000009
   16.17472076   88.81520081    0.28000000    2.66000009
   16.17805481   85.87120056    0.28000000    2.66000009
   16.18138885   88.67669678    0.28000000    2.66000009
   16.18444443   85.89179993    0.28000000    2.66000009
   16.18777657   91.63330078    0.28000000    2.64000010
   16.19083214   91.91069794    0.28000000    2.64000010
   16.19416618   89.01360321    0.28000000    2.64000010
   16.19749832   87.85119629    0.28000000    2.64000010
   16.20000076   91.80719757    0.28000000    2.64000010
   16.20111275   90.52850342    0.28000000    2.64000010
   16.20444489   90.65270233    0.28000000    2.66000009
   16.21027946   90.65270233    0.28000000    2.66000009
   16.21444511   88.64089966    0.28000000    2.66000009
   16.21777916   91.91249847    0.28000000    2.66000009
   16.22083473   88.93689728    0.28000000    2.66000009
   16.22416687   88.09190369    0.28000000    2.66000009
   16.22750092   91.81680298    0.28000000    2.66000009
   16.23055649   94.94989777    0.28000000    2.66000009
   16.23305511   96.49240112    0.28000000    2.66000009
   16.23416710   86.56639862    0.28000000    2.64000010
   16.23722267   90.64050293    0.28000000    2.64000010
   16.24055672   88.41349792    0.28000000    2.64000010
   16.24388885   89.03530121    0.28000000    2.66000009
   16.24694443   88.11640167    0.28000000    2.64000010
   16.25305557   88.11640167    0.28000000    2.64000010
   16.25722313   89.11579895    0.28000000    2.64000010
   16.26055527   89.77239990    0.28000000    2.64000010
   16.26388931   89.79769897    0.28000000    2.64000010
   16.26638794   85.71849823    0.28000000    2.64000010
   16.26749992   87.79810333    0.28000000    2.64000010
   16.27083397   85.20909882    0.28000000    2.64000010
   16.27388954   86.64199829    0.28000000    2.66000009
   16.27722168   86.69020081    0.30000001    2.64000010
   16.28027725   87.69480133    0.30000001    2.64000010
   16.28361130   92.51760101    0.28000000    2.66000009
   16.28694344   87.48329926    0.28000000    2.64000010
   16.28999901   94.01889801    0.28000000    2.66000009
   16.29611015   94.01889801    0.28000000    2.66000009
   16.29999924   87.72859955    0.28000000    2.64000010
   16.30333328   88.85929871    0.28000000    2.66000009
   16.30666542   90.20980072    0.28000000    2.66000009
   16.30972099   88.48840332    0.30000001    2.66000009
   16.31305504   88.19609833    0.30000001    2.66000009
   16.31638718   88.99019623    0.30000001    2.64000010
   16.31944466   89.42320251    0.30000001    2.64000010
   16.32277870   92.04900360    0.30000001    2.66000009
   16.32611275   89.26029968    0.30000001    2.64000010
   16.32916832   90.14659882    0.30000001    2.66000009
   16.33250046   87.93270111    0.30000001    2.64000010
   16.33305550   88.81199646    0.30000001    2.64000010
   16.33889008   88.81199646    0.30000001    2.66000009
   16.34305573   83.66190338    0.30000001    2.64000010
   16.34611130   87.20619965    0.30000001    2.64000010
   16.34944534   87.04309845    0.31999999    2.66000009
   16.35277748   87.45549774    0.31999999    2.66000009
   16.35583305   94.20400238    0.31999999    2.64000010
   16.35916710   86.97570038    0.31999999    2.66000009
   16.36250114   84.69650269    0.34000000    2.64000010
   16.36555672   86.57099915    0.34000000    2.64000010
   16.36638832   91.39600372    0.34000000    2.64000010
   16.36916733   90.24320221    0.31999999    2.66000009
   16.37249947   91.07599640    0.31999999    2.66000009
   16.37555504   89.77369690    0.31999999    2.64000010
   16.38166618   89.77369690    0.31999999    2.64000010
   16.38583374   88.48660278    0.31999999    2.64000010
   16.38916588   86.06420135    0.34000000    2.64000010
   16.39222145   90.58879852    0.34000000    2.66000009
   16.39555550   87.62380219    0.34000000    2.64000010
   16.39861107   88.15370178    0.34000000    2.64000010
   16.39972115   86.41059875    0.34000000    2.66000009
   16.40250015   89.18309784    0.34000000    2.66000009
   16.40583229   87.61129761    0.34000000    2.66000009
   16.40888786   89.56819916    0.31999999    2.64000010
   16.41222191   88.91799927    0.34000000    2.66000009
   16.41555595   86.46569824    0.34000000    2.66000009
   16.41860962   90.00769806    0.34000000    2.64000010
   16.42444420   90.00769806    0.34000000    2.66000009
   16.42860985   84.49030304    0.34000000    2.64000010
   16.43194389   88.45800018    0.34000000    2.66000009
   16.43305397   87.85949707    0.34000000    2.66000009
   16.43555450   89.91369629    0.36000001    2.64000010
   16.43888855   91.99649811    0.36000001    2.66000009
   16.44222069   86.18520355    0.36000001    2.66000009
   16.44527626   92.07019806    0.34000000    2.64000010
   16.44861031   93.79450226    0.34000000    2.64000010
   16.45194435   89.24539948    0.34000000    2.64000010
   16.45499992   90.77429962    0.34000000    2.66000009
   16.45833397   91.96459961    0.36000001    2.64000010
   16.46138954   84.95159912    0.36000001    2.64000010
   16.46750069   84.95159912    0.36000001    2.64000010
   16.47138977   91.56719971    0.38000000    2.64000010
   16.47472191   95.69509888    0.38000000    2.66000009
   16.47805595   90.94300079    0.40000001    2.66000009
   16.48111153   91.60839844    0.40000001    2.64000010
   16.48472214   89.41449738    0.40000001    2.64000010
   16.48777771   86.29440308    0.40000001    2.64000010
   16.49111176   91.31189728    0.40000001    2.64000010
   16.49444389   89.95400238    0.40000001    2.64000010
   16.49749947   91.43750000    0.40000001    2.64000010
   16.49972153   94.63770294    0.40000001    2.66000009
   16.50111198   90.99510193    0.40000001    2.66000009
   16.50444412   93.51249695    0.40000001    2.64000010
   16.51027870   93.51249695    0.41999999    2.64000010
   16.51444435   88.36280060    0.41999999    2.64000010
   16.51749992   86.38870239    0.41999999    2.64000010
   16.52083397   85.80500031    0.41999999    2.66000009
   16.52416611   89.68969727    0.41999999    2.64000010
   16.52722168   82.64630127    0.41999999    2.64000010
   16.53055573   89.81150055    0.41999999    2.64000010
   16.53305435   86.88760376    0.44000000    2.64000010
   16.53416634   89.96150208    0.44000000    2.64000010
   16.53750038   87.18280029    0.44000000    2.64000010
   16.54055595   88.34380341    0.44000000    2.64000010
   16.54388809   88.82820129    0.44000000    2.64000010
   16.54722214   88.64820099    0.46000001    2.64000010
   16.55305481   88.64820099    0.47999999    2.64000010
   16.55722237   87.47129822    0.47999999    2.64000010
   16.56055450   84.86489868    0.46000001    2.64000010
   16.56361008   90.84490204    0.46000001    2.64000010
   16.56638718   85.90309906    0.44000000    2.64000010
   16.56722260   84.64320374    0.44000000    2.64000010
   16.57055664   85.20220184    0.44000000    2.66000009
   16.57361221   88.90239716    0.44000000    2.66000009
   16.57694626   84.72170258    0.44000000    2.64000010
   16.58000183   91.47180176    0.41999999    2.66000009
   16.58333397   91.82250214    0.41999999    2.64000010
   16.58666801   94.83830261    0.41999999    2.64000010
   16.58972359   90.46029663    0.44000000    2.66000009
   16.59583473   90.46029663    0.46000001    2.66000009
   16.60000038   91.46520233    0.46000001    2.66000009
   16.60333443   91.46859741    0.44000000    2.66000009
   16.60639000   85.90390015    0.44000000    2.64000010
   16.60972214   89.15640259    0.44000000    2.64000010
   16.61305618   88.17469788    0.44000000    2.64000010
   16.61611176   90.66819763    0.44000000    2.64000010
   16.61944389   84.75930023    0.44000000    2.64000010
   16.62277794   91.26270294    0.41999999    2.64000010
   16.62583351   83.36239624    0.41999999    2.66000009
   16.62916756   86.61810303    0.44000000    2.66000009
   16.63277817   86.39769745    0.44000000    2.66000009
   16.63333321   89.30079651    0.44000000    2.66000009
   16.65388870   89.30079651    0.46000001    2.66000009
   16.65805435   88.42199707    0.47999999    2.64000010
   16.66138840   87.72389984    0.50000000    2.66000009
   16.66444397   97.27020264    0.51999998    2.66000009
   16.66666603   89.07530212    0.51999998    2.64000010
   16.66805458   96.51799774    0.51999998    2.64000010
   16.67138863   95.08350372    0.50000000    2.64000010
   16.67444420   95.20339966    0.50000000    2.64000010
   16.67777634   91.73470306    0.51999998    2.64000010
   16.68111038   90.93229675    0.51999998    2.64000010
   16.68416595   91.26370239    0.52999997    2.66000009
   16.68750000   88.57879639    0.52999997    2.66000009
   16.69083214   85.04709625    0.52999997    2.64000010
   16.69666672   85.04709625    0.55000001    2.64000010
   16.70083427   87.86489868    0.56999999    2.64000010
   16.70388985   90.36070251    0.56999999    2.64000010
   16.70722389   91.10910034    0.56999999    2.64000010
   16.71055603   91.90249634    0.56999999    2.66000009
   16.71361160   89.27020264    0.56999999    2.66000009
   16.71694565   93.70929718    0.55000001    2.64000010
   16.72027779   90.68679810    0.52999997    2.64000010
   16.72333336   90.37930298    0.52999997    2.64000010
   16.72666740   91.27989960    0.52999997    2.64000010
   16.72972298   88.74479675    0.52999997    2.64000010
   16.73305511   88.09709930    0.52999997    2.64000010
   16.73361206   88.42379761    0.52999997    2.64000010
   16.73944473   88.42379761    0.51999998    2.64000010
   16.74361229   86.65830231    0.52999997    2.64000010
   16.74694443   87.53359985    0.52999997    2.64000010
   16.75000000   90.00499725    0.52999997    2.64000010
   16.75333405   91.35579681    0.55000001    2.66000009
   16.75666618   91.47940063    0.55000001    2.64000010
   16.75972176   92.15000153    0.55000001    2.64000010
   16.76305580   88.88400269    0.55000001    2.64000010
   16.76638794   89.77760315    0.56999999    2.64000010
   16.76694489   91.05480194    0.56999999    2.64000010
   16.77000046   89.69110107    0.58999997    2.64000010
   16.77305603   90.18569946    0.58999997    2.64000010
   16.77638817   88.88279724    0.58999997    2.64000010
   16.78249931   88.88279724    0.58999997    2.64000010
   16.78666687   86.51110077    0.61000001    2.64000010
   16.78972244   91.24559784    0.63000000    2.64000010
   16.79305458   90.88320160    0.63000000    2.64000010
   16.79638863   92.75070190    0.63000000    2.64000010
   16.79944420   89.08100128    0.63000000    2.64000010
   16.80027771   92.89469910    0.58999997    2.66000009
   16.80333328   86.10310364    0.58999997    2.66000009
   16.80638885   85.33329773    0.55000001    2.64000010
   16.80972099   88.22989655    0.55000001    2.66000009
   16.81305504   86.60459900    0.55000001    2.64000010
   16.81611061   83.75890350    0.56999999    2.64000010
   16.81944466   86.26689911    0.55000001    2.64000010
   16.82527924   86.26689911    0.55000001    2.66000009
   16.82944489   89.36879730    0.56999999    2.64000010
   16.83250046   87.74859619    0.56999999    2.64000010
   16.83388901   89.58070374    0.61000001    2.64000010
   16.83638954   84.90889740    0.61000001    2.64000010
   16.83972359   88.03070068    0.63000000    2.66000009
   16.84305573   86.45529938    0.63000000    2.64000010
   16.84611130   87.45040131    0.64999998    2.64000010
   16.84944534   85.75270081    0.70999998    2.64000010
   16.85250092   87.93350220    0.69000000    2.64000010
   16.85583305   86.02130127    0.69000000    2.64000010
   16.85916710   85.66860199    0.67000002    2.64000010
   16.86222267   86.77719879    0.67000002    2.66000009
   16.86805534   86.77719879    0.61000001    2.66000009
   16.87222290   89.38700104    0.63000000    2.66000009
   16.87527847   86.55870056    0.63000000    2.66000009
   16.87861061   83.93710327    0.63000000    2.66000009
   16.88194466   88.49770355    0.61000001    2.64000010
   16.88500023   89.31240082    0.58999997    2.66000009
   16.88833237   87.66130066    0.58999997    2.64000010
   16.89166641   92.06179810    0.61000001    2.66000009
   16.89472198   87.27179718    0.58999997    2.64000010
   16.89805603   88.91200256    0.58999997    2.64000010
   16.90027809   91.10579681    0.58999997    2.64000010
   16.90166664   89.18180084    0.58999997    2.64000010
   16.90472221   90.76149750    0.55000001    2.64000010
   16.91083336   90.76149750    0.55000001    2.64000010
   16.91499901   94.25830078    0.61000001    2.64000010
   16.91833305   92.16339874    0.61000001    2.64000010
   16.92138863   87.49759674    0.61000001    2.64000010
   16.92472076   88.10820007    0.64999998    2.64000010
   16.92805481   92.36599731    0.70999998    2.64000010
   16.93111038   90.33570099    0.70999998    2.64000010
   16.93361092   87.83899689    0.70999998    2.66000009
   16.93499947   91.30590057    0.70999998    2.66000009
   16.93805504   90.58589935    0.70999998    2.64000010
   16.94138718   87.90540314    0.73000002    2.64000010
   16.94472122   88.15930176    0.73000002    2.66000009
   16.94777679   88.53639984    0.73000002    2.66000009
   16.95361137   88.53639984    0.69000000    2.64000010
   16.95777893   93.38870239    0.67000002    2.64000010
   16.96111107   85.13449860    0.64999998    2.64000010
   16.96444511   88.31960297    0.64999998    2.64000010
   16.96694565   89.46330261    0.63000000    2.66000009
   16.96805573   92.86589813    0.63000000    2.66000009
   16.97111130   86.98159790    0.63000000    2.64000010
   16.97444534   92.66369629    0.63000000    2.64000010
   16.97777748   89.29070282    0.64999998    2.64000010
   16.98083305   86.35109711    0.64999998    2.66000009
   16.98416710   90.73509979    0.67000002    2.66000009
   16.98750114   93.93849945    0.67000002    2.66000009
   16.99055672   92.06819916    0.69000000    2.64000010
   16.99666786   92.06819916    0.61000001    2.64000010
   17.00083351   87.44760132    0.61000001    2.64000010
   17.00416756   94.36669922    0.63000000    2.64000010
   17.00722313   89.02970123    0.63000000    2.64000010
   17.01055527   85.91809845    0.61000001    2.64000010
   17.01388931   90.73139954    0.63000000    2.64000010
   17.01694489   88.68000031    0.58999997    2.64000010
   17.02027702   91.47640228    0.58999997    2.64000010
   17.02333260   88.45169830    0.55000001    2.64000010
   17.02666664   87.32209778    0.55000001    2.64000010
   17.03000069   85.88980103    0.55000001    2.66000009
   17.03305435   88.59210205    0.56999999    2.64000010
   17.03361130   94.94110107    0.56999999    2.64000010
   17.03944397   94.94110107    0.56999999    2.64000010
   17.04361153   95.38500214    0.56999999    2.64000010
   17.04694366   90.57910156    0.56999999    2.64000010
   17.04999924   89.93730164    0.56999999    2.64000010
   17.05333328   89.67050171    0.56999999    2.64000010
   17.05638885   97.28859711    0.56999999    2.64000010
   17.05972099   94.66950226    0.58999997    2.64000010
   17.06305504   93.30110168    0.58999997    2.64000010
   17.06611061   90.20300293    0.58999997    2.64000010
   17.06694603   94.39420319    0.58999997    2.64000010
   17.06972313   91.55709839    0.58999997    2.64000010
   17.07305717   94.15550232    0.61000001    2.64000010
   17.07611275   95.51110077    0.61000001    2.64000010
   17.08222389   95.51110077    0.58999997    2.64000010
   17.08638954   92.44210052    0.58999997    2.64000010
   17.08972359   92.15029907    0.61000001    2.64000010
   17.09277916   92.48639679    0.58999997    2.64000010
   17.09611130   90.80259705    0.58999997    2.64000010
   17.09944534   90.43479919    0.58999997    2.64000010
   17.10027885   92.09439850    0.58999997    2.64000010
   17.10305595   92.84739685    0.63000000    2.66000009
   17.10639000   87.88629913    0.63000000    2.66000009
   17.10944557   91.30780029    0.63000000    2.66000009
   17.11277771   92.99939728    0.63000000    2.64000010
   17.11583328   93.05860138    0.64999998    2.64000010
   17.11916733   89.19719696    0.67000002    2.64000010
   17.12500000   89.19719696    0.69000000    2.64000010
   17.12916756   91.70169830    0.67000002    2.64000010
   17.13249969   95.15229797    0.67000002    2.64000010
   17.13361168   93.70480347    0.67000002    2.64000010
   17.13611031   91.73870087    0.67000002    2.64000010
   17.13944435   92.28600311    0.67000002    2.64000010
   17.14249992   90.93800354    0.67000002    2.64000010
   17.14583397   93.58529663    0.67000002    2.64000010
   17.14888954   93.51229858    0.69000000    2.64000010
   17.15222168   97.46589661    0.69000000    2.64000010
   17.15555573   94.55159760    0.69000000    2.64000010
   17.15888786   91.94799805    0.69000000    2.64000010
   17.16194344   93.53479767    0.67000002    2.64000010
   17.16805458   93.53479767    0.69000000    2.64000010
   17.17222214   88.51550293    0.67000002    2.64000010
   17.17527771   95.00659943    0.67000002    2.64000010
   17.17860985   89.87729645    0.67000002    2.64000010
   17.18166542   98.15049744    0.69000000    2.64000010
   17.18499947   92.64649963    0.64999998    2.64000010
   17.18833160   91.40910339    0.67000002    2.64000010
   17.19138718   94.37329865    0.64999998    2.64000010
   17.19472122   93.80290222    0.64999998    2.64000010
   17.19805527   94.00859833    0.67000002    2.64000010
   17.20027924  100.44400024    0.67000002    2.64000010
   17.20166779   98.08689880    0.67000002    2.64000010
   17.20499992   92.85359955    0.70999998    2.64000010
   17.21083450   92.85359955    0.73000002    2.64000010
   17.21500015   91.12460327    0.75000000    2.64000010
   17.21833420   88.05100250    0.76999998    2.64000010
   17.22166634   90.34400177    0.76999998    2.64000010
   17.22472191   94.16950226    0.80000001    2.64000010
   17.22805595   91.13860321    0.80000001    2.64000010
   17.23139000   94.69999695    0.80000001    2.64000010
   17.23361206   93.03829956    0.80000001    2.64000010
   17.23500061   94.57350159    0.83999997    2.64000010
   17.23833275   90.44719696    0.86000001    2.64000010
   17.24138832   91.72019958    0.86000001    2.64000010
   17.24472237   92.27860260    0.86000001    2.64000010
   17.24805641   90.35690308    0.86000001    2.64000010
   17.25361061   90.35690308    0.88000000    2.64000010
   17.25805473   92.92220306    0.88000000    2.64000010
   17.26111031   90.84030151    0.89999998    2.64000010
   17.26444435   90.25990295    0.89999998    2.64000010
   17.26694489   89.67310333    0.89999998    2.64000010
   17.26805496   91.61270142    0.89999998    2.64000010
   17.27138901   89.73799896    0.88000000    2.64000010
   17.27444458   95.70709991    0.86000001    2.64000010
   17.27777672   91.60590363    0.86000001    2.64000010
   17.28111076   96.93090057    0.86000001    2.64000010
   17.28416634   95.50650024    0.86000001    2.64000010
   17.28750038   93.34529877    0.83999997    2.64000010
   17.29055595   93.05010223    0.83999997    2.64000010
   17.29638863   93.05010223    0.81999999    2.64000010
   17.30055428   90.99620056    0.80000001    2.64000010
   17.30388832   94.14140320    0.80000001    2.64000010
   17.30722237   95.14610291    0.79000002    2.64000010
   17.31027794   93.62270355    0.76999998    2.64000010
   17.31361008   91.53579712    0.73000002    2.64000010
   17.31666756   93.44180298    0.67000002    2.64000010
   17.32000160   90.03739929    0.67000002    2.64000010
   17.32333374   90.95800018    0.67000002    2.64000010
   17.32638931   92.10440063    0.67000002    2.66000009
   17.32972336   93.41699982    0.67000002    2.64000010
   17.33305550   89.82279968    0.69000000    2.64000010
   17.33361244   90.58270264    0.69000000    2.64000010
   17.33944511   90.58270264    0.64999998    2.64000010
   17.34361267   90.84279633    0.67000002    2.64000010
   17.34666824   88.92839813    0.67000002    2.64000010
   17.35000038   92.46659851    0.70999998    2.64000010
   17.35305595   94.19619751    0.75000000    2.64000010
   17.35639000   92.31479645    0.75000000    2.64000010
   17.35972214   91.71309662    0.73000002    2.64000010
   17.36277771   92.03980255    0.75000000    2.64000010
   17.36611176   89.90319824    0.75000000    2.64000010
   17.36694527   88.63339996    0.75000000    2.64000010
   17.36972237   90.86910248    0.76999998    2.64000010
   17.37305641   89.45099640    0.76999998    2.64000010
   17.37611198   90.58300018    0.76999998    2.64000010
   17.38222313   90.58300018    0.79000002    2.64000010
   17.38638878   94.19429779    0.81999999    2.64000010
   17.38944435   91.12270355    0.86000001    2.64000010
   17.39277840   94.64910126    0.89999998    2.64000010
   17.39611053   95.15519714    0.89999998    2.64000010
   17.39916611   92.54989624    0.89999998    2.64000010
   17.40027809   93.68930054    0.89999998    2.64000010
   17.40277672   94.12840271    0.89999998    2.64000010
   17.40611076   96.45259857    0.92000002    2.64000010
   17.40916634   93.25530243    0.94000000    2.61999989
   17.41250038   96.79850006    0.89999998    2.64000010
   17.41583252   97.00029755    0.88000000    2.64000010
   17.41888809   93.32160187    0.88000000    2.64000010
   17.42499924   93.32160187    0.81999999    2.64000010
   17.42916679   89.41590118    0.83999997    2.64000010
   17.43249893   90.68039703    0.83999997    2.64000010
   17.43361092   91.21179962    0.86000001    2.64000010
   17.43610954   90.05090332    0.86000001    2.64000010
   17.43944359   89.82569885    0.83999997    2.64000010
   17.44249916   90.36509705    0.89999998    2.64000010
   17.44583321   93.98380280    0.92000002    2.64000010
   17.44916534   92.92530060    0.89999998    2.64000010
   17.45222282   90.99389648    0.88000000    2.64000010
   17.45555687   87.31780243    0.88000000    2.64000010
   17.45888901   87.84079742    0.80000001    2.64000010
   17.46194458   88.93800354    0.75000000    2.64000010
   17.46777916   88.93800354    0.69000000    2.66000009
   17.47194481   91.93309784    0.69000000    2.64000010
   17.47527885   91.37930298    0.69000000    2.64000010
   17.47833443   91.57800293    0.79000002    2.64000010
   17.48166656   86.23000336    0.81999999    2.64000010
   17.48500061   90.83029938    0.83999997    2.64000010
   17.48833275   85.09420013    0.83999997    2.64000010
   17.49138832   90.16239929    0.86000001    2.64000010
   17.49472237   92.89499664    0.88000000    2.64000010
   17.49777794   91.21720123    0.88000000    2.64000010
   17.50027847   93.15599823    0.86000001    2.64000010
   17.50138855   91.06069946    0.86000001    2.64000010
   17.50472260   94.41690063    0.83999997    2.64000010
   17.51083374   94.41690063    0.81999999    2.64000010
   17.51472282   87.09339905    0.81999999    2.64000010
   17.51805496   86.93499756    0.81999999    2.64000010
   17.52138901   92.04930115    0.81999999    2.64000010
   17.52444458   89.56240082    0.88000000    2.64000010
   17.52777672   92.62470245    0.88000000    2.64000010
   17.53111076   91.83550262    0.92000002    2.64000010
   17.53361130   93.72119904    0.92000002    2.64000010
   17.53472137   96.33679962    0.92000002    2.64000010
   17.53805542   96.14389801    0.92000002    2.64000010
   17.54111099   93.71829987    0.95999998    2.64000010
   17.54444313   92.51820374    1.00000000    2.64000010
   17.54777718   86.94020081    1.01999998    2.64000010
   17.55360985   86.94020081    1.01999998    2.64000010
   17.55777740   92.29219818    0.95999998    2.64000010
   17.56083298   91.84049988    0.92000002    2.64000010
   17.56416512   90.39399719    0.89999998    2.64000010
   17.56694603   90.93299866    0.89999998    2.64000010
   17.56777954   95.49890137    0.89999998    2.64000010
   17.57111168   93.12930298    0.89999998    2.64000010
   17.57416725   94.85469818    0.89999998    2.64000010
   17.57750130   94.64440155    0.92000002    2.64000010
   17.58083344   96.13549805    0.88000000    2.64000010
   17.58388901   95.86450195    0.88000000    2.64000010
   17.58722305   95.03829956    0.89999998    2.64000010
   17.59055710   92.24030304    0.88000000    2.64000010
   17.59638977   92.24030304    0.83999997    2.64000010
   17.60055542   81.20320129    0.80000001    2.64000010
   17.60388947   90.52390289    0.80000001    2.64000010
   17.60694504   89.92620087    0.79000002    2.64000010
   17.61027908   92.64440155    0.80000001    2.64000010
   17.61333466   95.17179871    0.81999999    2.64000010
   17.61666679   92.77870178    0.81999999    2.64000010
   17.62000084   93.88629913    0.88000000    2.61999989
   17.62305641   94.93650055    0.88000000    2.61999989
   17.62638855   91.83709717    0.88000000    2.64000010
   17.62972260   91.72660065    0.88000000    2.64000010
   17.63277817   88.73850250    0.88000000    2.64000010
   17.63361168   92.05960083    0.88000000    2.64000010
   17.63916588   92.05960083    0.92000002    2.64000010
   17.64333344   91.16639709    1.00000000    2.64000010
   17.64666748   94.70980072    1.03999996    2.64000010
   17.64972115   91.70670319    1.03999996    2.64000010
   17.66749954   95.84649658    1.05999994    2.64000010
   17.66972160   94.21540070    1.05999994    2.61999989
   17.67305565   91.45459747    1.05999994    2.64000010
   17.67638779   95.39089966    1.05999994    2.61999989
   17.68222237   95.39089966    1.01999998    2.61999989
   17.68638802   88.28839874    1.03999996    2.64000010
   17.68972206   91.45729828    1.03999996    2.64000010
   17.69277763   91.36409760    1.03999996    2.61999989
   17.69610977   89.40319824    1.03999996    2.61999989
   17.69944382   90.63159943    1.03999996    2.64000010
   17.70055580   92.97000122    1.01999998    2.61999989
   17.70305634   90.63529968    1.01999998    2.61999989
   17.70639038   91.06510162    1.05999994    2.64000010
   17.70944595   92.29180145    1.01999998    2.61999989
   17.71277809   90.77140045    0.98000002    2.61999989
   17.71611214   89.75070190    0.95999998    2.61999989
   17.71916771   94.36309814    0.95999998    2.61999989
   17.72500038   94.36309814    0.94000000    2.64000010
   17.72916794  100.78500366    0.94000000    2.64000010
   17.73250008   99.81539917    0.94000000    2.64000010
   17.73416710   98.07080078    0.92000002    2.64000010
   17.73611069   95.37039948    0.92000002    2.64000010
   17.73944473   95.07779694    0.92000002    2.64000010
   17.74250031   96.23619843    0.89999998    2.61999989
   17.74583435   92.47180176    0.92000002    2.61999989
   17.74916649   92.19509888    0.89999998    2.61999989
   17.75222206   93.78610229    0.89999998    2.61999989
   17.75555611   96.25849915    0.89999998    2.64000010
   17.75888824   92.81739807    0.89999998    2.64000010
   17.76194382   90.98739624    0.89999998    2.61999989
   17.76805496   90.98739624    0.89999998    2.64000010
   17.77222252   90.70970154    0.94000000    2.61999989
   17.77527809   95.58439636    0.94000000    2.61999989
   17.77861023   92.51210022    0.92000002    2.61999989
   17.78166580  100.26999664    0.92000002    2.61999989
   17.78499985   94.53199768    0.95999998    2.61999989
   17.78833199   98.29399872    0.89999998    2.61999989
   17.79138756   88.45290375    0.88000000    2.61999989
   17.79472160   94.66380310    0.88000000    2.61999989
   17.79805565   95.86669922    0.89999998    2.64000010
   17.80083275   96.06529999    0.88000000    2.61999989
   17.80166626   94.30239868    0.88000000    2.61999989
   17.80499840   94.72319794    0.86000001    2.61999989
   17.81110954   94.72319794    0.81999999    2.64000010
   17.81499863   92.76049805    0.81999999    2.61999989
   17.81833458   94.71610260    0.81999999    2.61999989
   17.82166672   93.59459686    0.81999999    2.61999989
   17.82472229   95.29900360    0.81999999    2.61999989
   17.82805634   90.03639984    0.81999999    2.61999989
   17.83139038   96.31040192    0.83999997    2.61999989
   17.83416748   91.06999969    0.81999999    2.61999989
   17.83472252   96.68350220    0.81999999    2.61999989
   17.83805656   89.11039734    0.81999999    2.64000010
   17.84111214   93.91069794    0.83999997    2.61999989
   17.84444427   91.81390381    0.86000001    2.61999989
   17.84777832   90.18270111    0.86000001    2.61999989
   17.85361099   90.18270111    0.86000001    2.64000010
   17.85777855   92.42769623    0.88000000    2.61999989
   17.86111069   91.35099792    0.88000000    2.61999989
   17.86416626   93.99579620    0.88000000    2.64000010
   17.86750031   91.05180359    0.88000000    2.61999989
   17.86777878   93.14270020    0.88000000    2.61999989
   17.87111092   85.18270111    0.88000000    2.61999989
   17.87416649   87.58869934    0.89999998    2.64000010
   17.87750053   90.67890167    0.88000000    2.61999989
   17.88083267   89.22389984    0.88000000    2.61999989
   17.88416672   90.20680237    0.88000000    2.61999989
   17.88722229   88.87010193    0.88000000    2.64000010
   17.89055634   92.23870087    0.86000001    2.61999989
   17.89666748   92.23870087    0.88000000    2.61999989
   17.90083313   90.73380280    0.89999998    2.61999989
   17.90111160   92.99160004    0.89999998    2.61999989
   17.90444374   91.96269989    0.89999998    2.61999989
   17.90777779   92.82749939    0.92000002    2.64000010
   17.91083336   93.67330170    0.92000002    2.64000010
   17.91416550   94.62319946    0.94000000    2.64000010
   17.91749954   95.28009796    0.92000002    2.61999989
   17.92055511   97.68859863    0.92000002    2.61999989
   17.92388916   95.30509949    0.92000002    2.64000010
   17.92722130   93.00610352    0.92000002    2.64000010
   17.93027687   95.59100342    0.92000002    2.61999989
   17.93361092   92.07839966    0.92000002    2.61999989
   17.93416595   94.30509949    0.92000002    2.61999989
   17.93944359   94.30509949    0.89999998    2.61999989
   17.94361115   90.38300323    0.89999998    2.61999989
   17.94694328   94.13009644    0.89999998    2.61999989
   17.95000076   98.40570068    0.89999998    2.61999989
   17.95333481   93.44349670    0.89999998    2.61999989
   17.95639038   87.85659790    0.88000000    2.61999989
   17.95972252   98.75859833    0.88000000    2.61999989
   17.96305656   95.47039795    0.88000000    2.61999989
   17.96611214   91.87850189    0.86000001    2.61999989
   17.96750069   92.70120239    0.86000001    2.61999989
   17.96972275   98.49880219    0.81999999    2.61999989
   17.97305679   91.41929626    0.81999999    2.61999989
   17.97638893   94.76909637    0.76999998    2.61999989
   17.98222351   94.76909637    0.75000000    2.61999989
   17.98638916   95.36869812    0.76999998    2.61999989
   17.98944473   95.85980225    0.76999998    2.61999989
   17.99277878   92.68150330    0.75000000    2.61999989
   17.99611092   94.44349670    0.75000000    2.61999989
   17.99916649   95.14040375    0.75000000    2.61999989
   18.00083351  100.40100098    0.75000000    2.61999989
   18.00277710   95.55339813    0.75000000    2.61999989
   18.00611115   96.20480347    0.75000000    2.61999989
   18.00944519  100.00599670    0.75000000    2.61999989
   18.01250076   94.32879639    0.75000000    2.64000010
   18.01583290   96.39340210    0.75000000    2.61999989
   18.01888847  100.28399658    0.76999998    2.61999989
   18.02499962  100.28399658    0.76999998    2.61999989
   18.02916718   96.72550201    0.76999998    2.61999989
   18.03249931   96.24230194    0.79000002    2.61999989
   18.03416634   95.26080322    0.79000002    2.61999989
   18.03583336   97.21430206    0.76999998    2.61999989
   18.03916550   96.77079773    0.76999998    2.61999989
   18.04249954   91.43640137    0.76999998    2.61999989
   18.04555511   92.26589966    0.76999998    2.61999989
   18.04888916   95.96479797    0.76999998    2.61999989
   18.05194283   91.62850189    0.79000002    2.61999989
   18.05527687   98.52259827    0.80000001    2.61999989
   18.05861092   92.02230072    0.79000002    2.61999989
   18.06166649   95.61180115    0.79000002    2.61999989
   18.06805611   95.61180115    0.81999999    2.61999989
   18.07194519   91.92819977    0.81999999    2.61999989
   18.07527924   92.37110138    0.80000001    2.61999989
   18.07861137   94.99510193    0.80000001    2.61999989
   18.08166695   96.84010315    0.80000001    2.61999989
   18.08500099   92.34320068    0.80000001    2.61999989
   18.08833313   91.63240051    0.80000001    2.61999989
   18.09138870   95.28330231    0.80000001    2.61999989
   18.09472275   96.78880310    0.80000001    2.61999989
   18.09805679   94.49600220    0.80000001    2.61999989
   18.10083389   99.90830231    0.80000001    2.61999989
   18.10138893   97.38909912    0.80000001    2.61999989
   18.10472298   99.35140228    0.80000001    2.61999989
   18.11083412   99.35140228    0.79000002    2.61999989
   18.11499977   99.22239685    0.79000002    2.61999989
   18.11805534   90.75440216    0.79000002    2.61999989
   18.12138939   97.34349823    0.79000002    2.61999989
   18.12444496   89.71269989    0.73000002    2.59999990
   18.12777710   95.92729950    0.73000002    2.61999989
   18.13111115   98.86289978    0.73000002    2.61999989
   18.13416672   94.91739655    0.73000002    2.61999989
   18.13472176   94.32630157    0.75000000    2.61999989
   18.13805580   97.15499878    0.73000002    2.61999989
   18.14138794   95.68389893    0.73000002    2.61999989
   18.14444351   94.52950287    0.73000002    2.61999989
   18.14777756   92.66940308    0.73000002    2.61999989
   18.15361023   92.66940308    0.70999998    2.64000010
   18.15777779   95.23819733    0.69000000    2.61999989
   18.16110992   99.25820160    0.69000000    2.61999989
   18.16416550   99.89710236    0.69000000    2.61999989
   18.16749954   94.87529755    0.67000002    2.61999989
   18.16777802   93.90969849    0.67000002    2.61999989
   18.17111015   96.39050293    0.69000000    2.59999990
   18.17444420   99.62460327    0.69000000    2.61999989
   18.17749977   97.00820160    0.67000002    2.61999989
   18.18083191   99.72850037    0.69000000    2.61999989
   18.18388748   99.44560242    0.70999998    2.61999989
   18.18722153   95.79180145    0.70999998    2.61999989
   18.19055557   95.64289856    0.70999998    2.61999989
   18.19638824   95.64289856    0.73000002    2.61999989
   18.20055580   95.69539642    0.70999998    2.59999990
   18.20111275   95.60289764    0.70999998    2.59999990
   18.20444489   97.78959656    0.70999998    2.61999989
   18.20750046   95.19860077    0.73000002    2.61999989
   18.21083450   96.68969727    0.73000002    2.61999989
   18.21416664   97.98699951    0.73000002    2.61999989
   18.21722221   93.73780060    0.73000002    2.61999989
   18.22055626   97.30280304    0.73000002    2.61999989
   18.22361183   94.94120026    0.73000002    2.61999989
   18.22694588   94.44909668    0.70999998    2.61999989
   18.23027802   93.50720215    0.70999998    2.61999989
   18.23333359   97.23110199    0.70999998    2.61999989
   18.23444557   94.98220062    0.70999998    2.61999989
   18.23916626   94.98220062    0.70999998    2.61999989
   18.24333382   96.47689819    0.70999998    2.61999989
   18.24666786   94.56919861    0.69000000    2.61999989
   18.25000000   94.08650208    0.70999998    2.59999990
   18.25305557   99.81729889    0.70999998    2.59999990
   18.25638962   96.57340240    0.70999998    2.59999990
   18.25972176   95.81439972    0.70999998    2.59999990
   18.26277733   96.74079895    0.73000002    2.61999989
   18.26611137   92.22560120    0.73000002    2.61999989
   18.26777840   93.88680267    0.73000002    2.59999990
   18.27000046   96.40920258    0.73000002    2.59999990
   18.27305603   98.00810242    0.73000002    2.59999990
   18.27638817   94.44699860    0.70999998    2.59999990
   18.28222275   94.44699860    0.70999998    2.59999990
   18.28638840   98.44069672    0.70999998    2.59999990
   18.28944397   96.64409637    0.70999998    2.61999989
   18.29277802   97.98549652    0.69000000    2.61999989
   18.29583359   99.95829773    0.69000000    2.59999990
   18.29916573   97.78420258    0.67000002    2.59999990
   18.30111122   91.60430145    0.67000002    2.59999990
   18.30305481   97.71269989    0.67000002    2.61999989
   18.30611038   96.11340332    0.67000002    2.61999989
   18.30944443   98.70079803    0.67000002    2.61999989
   18.31277657   94.66739655    0.67000002    2.59999990
   18.31583214   96.15959930    0.69000000    2.61999989
   18.31916809   96.48049927    0.67000002    2.59999990
   18.32500076   96.48049927    0.69000000    2.61999989
   18.32916832   99.94029999    0.67000002    2.59999990
   18.33250046   93.86160278    0.64999998    2.59999990
   18.33444595   94.81349945    0.64999998    2.59999990
   18.33611107   97.68260193    0.64999998    2.59999990
   18.33916664   92.55120087    0.64999998    2.59999990
   18.34250069   93.96929932    0.64999998    2.61999989
   18.34583473   96.04779816    0.64999998    2.61999989
   18.34889030   92.55480194    0.64999998    2.59999990
   18.35222244   93.43640137    0.64999998    2.59999990
   18.35527802   97.18009949    0.64999998    2.59999990
   18.35861206   94.14489746    0.64999998    2.59999990
   18.36194420   98.85369873    0.63000000    2.59999990
   18.36777878   98.85369873    0.64999998    2.59999990
   18.37194443   96.84190369    0.63000000    2.59999990
   18.37527847   93.77439880    0.63000000    2.59999990
   18.37833405   93.04209900    0.63000000    2.59999990
   18.38166618   89.99880219    0.64999998    2.59999990
   18.38500023   92.63739777    0.64999998    2.59999990
   18.38805580   87.91780090    0.70999998    2.59999990
   18.39138794   90.38520050    0.75000000    2.59999990
   18.39444351   96.47440338    0.70999998    2.59999990
   18.39777756   95.80300140    0.70999998    2.59999990
   18.40111160   97.36219788    0.69000000    2.61999989
   18.40166664   92.35720062    0.69000000    2.61999989
   18.40472221   91.18170166    0.69000000    2.59999990
   18.41055489   91.18170166    0.69000000    2.59999990
   18.41472244   96.65950012    0.64999998    2.59999990
   18.41805458   93.69979858    0.64999998    2.61999989
   18.42138863   98.45079803    0.64999998    2.59999990
   18.42444420   95.26529694    0.67000002    2.59999990
   18.42777634   89.73719788    0.67000002    2.59999990
   18.43111038  101.17299652    0.64999998    2.59999990
   18.43416595   91.18750000    0.64999998    2.59999990
   18.43499947   94.25360107    0.64999998    2.59999990
   18.43777657   91.95999908    0.67000002    2.59999990
   18.44111061   98.04229736    0.67000002    2.59999990
   18.44444275   96.30770111    0.67000002    2.59999990
   18.44749832   93.63600159    0.67000002    2.57999992
   18.45361137   93.63600159    0.67000002    2.59999990
   18.45777893   91.29350281    0.64999998    2.59999990
   18.46083450   93.18579865    0.64999998    2.59999990
   18.46416664   93.65070343    0.64999998    2.59999990
   18.46750069   93.40290070    0.64999998    2.59999990
   18.46833420   92.13809967    0.64999998    2.59999990
   18.47111130   89.38220215    0.64999998    2.59999990
   18.47444534   93.38159943    0.64999998    2.59999990
   18.47777748   88.49729919    0.64999998    2.59999990
   18.48083305   88.28240204    0.64999998    2.57999992
   18.48416710   95.63770294    0.69000000    2.59999990
   18.48722267   87.98639679    0.79000002    2.59999990
   18.49083328   93.38909912    0.79000002    2.57999992
   18.49638939   93.38909912    0.80000001    2.59999990
   18.50055504   92.11750031    0.81999999    2.57999992
   18.50166702   90.18350220    0.81999999    2.57999992
   18.50416756   90.13099670    0.83999997    2.57999992
   18.50749969   91.36730194    0.83999997    2.59999990
   18.51083374   93.41339874    0.81999999    2.57999992
   18.51388931   93.42479706    0.76999998    2.59999990
   18.51722145   95.84780121    0.76999998    2.59999990
   18.52027702   93.03340149    0.79000002    2.59999990
   18.52361107   91.90570068    0.83999997    2.59999990
   18.52694511   89.98419952    0.89999998    2.59999990
   18.53000069   89.17359924    0.80000001    2.57999992
   18.53333282   92.39910126    0.80000001    2.57999992
   18.53499985   95.37370300    0.80000001    2.57999992
   18.53916550   95.37370300    0.80000001    2.59999990
   18.54333305   98.35119629    0.81999999    2.57999992
   18.54666710   91.28489685    0.81999999    2.57999992
   18.54972076   91.06179810    0.83999997    2.57999992
   18.55305481   95.76560211    0.86000001    2.57999992
   18.55638885   96.27290344    0.86000001    2.57999992
   18.55944443   92.39089966    0.86000001    2.57999992
   18.56277657   99.92929840    0.83999997    2.57999992
   18.56611061   95.76830292    0.83999997    2.57999992
   18.56833458   93.09519958    0.83999997    2.57999992
   18.56944466   91.91600037    0.86000001    2.57999992
   18.57277870   94.18260193    0.83999997    2.57999992
   18.57611275   87.92259979    0.83999997    2.57999992
   18.58194542   87.92259979    0.81999999    2.57999992
   18.58611107   90.89949799    0.81999999    2.57999992
   18.58944511   96.57599640    0.81999999    2.57999992
   18.59277916   91.77760315    0.81999999    2.57999992
   18.59583473   92.45390320    0.81999999    2.59999990
   18.59916687   90.57350159    0.80000001    2.57999992
   18.60166740   98.04730225    0.80000001    2.57999992
   18.60277748   95.35739899    0.80000001    2.59999990
   18.60611153   99.75810242    0.80000001    2.59999990
   18.60944557   94.82790375    0.80000001    2.57999992
   18.61250114  100.27600098    0.80000001    2.57999992
   18.61583328   92.39109802    0.81999999    2.57999992
   18.61888885   94.31050110    0.81999999    2.57999992
   18.62500000   94.31050110    0.80000001    2.57999992
   18.62916756   94.16239929    0.81999999    2.57999992
   18.63222313   95.05619812    0.83999997    2.57999992
   18.63500023   93.53630066    0.83999997    2.57999992
   18.63583374   93.62660217    0.83999997    2.57999992
   18.63916588   92.03610229    0.83999997    2.57999992
   18.64249992   93.59480286    0.83999997    2.57999992
   18.64555550   92.56150055    0.86000001    2.57999992
   18.64888954   96.92530060    0.83999997    2.57999992
   18.65194321   95.93710327    0.83999997    2.57999992
   18.65527725   92.78800201    0.86000001    2.57999992
   18.65861130   93.20709991    0.86000001    2.59999990
   18.66166687   89.82160187    0.81999999    2.57999992
   18.66777802   89.82160187    0.80000001    2.57999992
   18.68610954   93.97389984    0.89999998    2.57999992
   18.68944359   97.49479675    0.89999998    2.57999992
   18.69249916   90.83580017    0.88000000    2.55999994
   18.69583321   94.58619690    0.88000000    2.55999994
   18.69888878   94.24240112    0.88000000    2.57999992
   18.70222282   91.99839783    0.88000000    2.57999992
   18.70555687   96.24620056    0.88000000    2.57999992
   18.71111107   96.24620056    0.88000000    2.57999992
   18.71500015   94.65219879    0.86000001    2.55999994
   18.71833420   92.37449646    0.86000001    2.57999992
   18.71916771   95.35279846    0.86000001    2.57999992
   18.72194481   94.55950165    0.81999999    2.57999992
   18.72500038   90.38009644    0.81999999    2.57999992
   18.72833443   90.38400269    0.80000001    2.57999992
   18.73166656   98.57540131    0.80000001    2.57999992
   18.73472214   87.74430084    0.80000001    2.57999992
   18.73805618   92.75559998    0.80000001    2.57999992
   18.74111176   92.93299866    0.80000001    2.57999992
   18.74444389   97.07630157    0.79000002    2.55999994
   18.74777794   95.75900269    0.79000002    2.55999994
   18.75361061   95.75900269    0.76999998    2.57999992
   18.75777817   91.20069885    0.75000000    2.57999992
   18.76111031   88.36799622    0.75000000    2.57999992
   18.76444435   89.74919891    0.76999998    2.55999994
   18.76749992   92.07039642    0.80000001    2.55999994
   18.77083397   90.18569946    0.80000001    2.55999994
   18.77416611   89.28040314    0.80000001    2.55999994
   18.77722168   91.12699890    0.83999997    2.55999994
   18.78055573   89.30650330    0.83999997    2.57999992
   18.78388786   98.58370209    0.86000001    2.55999994
   18.78583336   92.85420227    0.86000001    2.55999994
   18.78750038   91.16169739    0.86000001    2.55999994
   18.79055595   91.99970245    0.86000001    2.55999994
   18.79638863   91.99970245    0.83999997    2.55999994
   18.80055428   90.65200043    0.83999997    2.55999994
   18.80388832   92.37840271    0.88000000    2.55999994
   18.80722237   98.02519989    0.86000001    2.55999994
   18.81027794   94.86190033    0.89999998    2.55999994
   18.81361008   92.54779816    0.89999998    2.55999994
   18.81666756   97.15229797    0.94000000    2.57999992
   18.81916809   95.80419922    0.94000000    2.57999992
   18.82055664   94.36910248    0.94000000    2.57999992
   18.82361221   90.18479919    0.94000000    2.55999994
   18.82694626   93.56880188    0.89999998    2.55999994
   18.83027840   91.16249847    0.94000000    2.57999992
   18.83333397   92.26869965    0.94000000    2.55999994
   18.83944511   92.26869965    0.92000002    2.55999994
   18.84361267   91.63569641    0.92000002    2.55999994
   18.84666824   89.17369843    0.92000002    2.55999994
   18.85000038   92.15429688    0.95999998    2.55999994
   18.85250092   87.56069946    0.94000000    2.55999994
   18.85361099   92.67549896    0.94000000    2.55999994
   18.85666656   92.10099792    0.92000002    2.55999994
   18.86027908   94.17980194    0.94000000    2.55999994
   18.86361122   91.70240021    0.94000000    2.53999996
   18.86666679   89.92929840    0.94000000    2.53999996
   18.87000084   94.67669678    0.95999998    2.55999994
   18.87361145   94.40049744    0.95999998    2.55999994
   18.87694550   93.46820068    0.95999998    2.55999994
   18.88222313   93.46820068    0.89999998    2.53999996
   18.88611031   91.03150177    0.92000002    2.55999994
   18.88944435   91.87989807    0.92000002    2.55999994
   18.89277840   94.87480164    0.89999998    2.55999994
   18.89583397   97.27140045    0.89999998    2.55999994
   18.89916611   94.07489777    0.88000000    2.55999994
   18.90250015   92.47019958    0.83999997    2.53999996
   18.90555573   96.96060181    0.86000001    2.53999996
   18.90888786   93.42700195    0.89999998    2.55999994
   18.91194344   94.53009796    0.88000000    2.53999996
   18.91527748   92.89129639    0.88000000    2.55999994
   18.91860962   93.51999664    0.88000000    2.55999994
   18.91916656   92.31510162    0.88000000    2.55999994
   18.92499924   92.31510162    0.89999998    2.55999994
   18.92916679   93.82060242    0.94000000    2.55999994
   18.93222237   93.54830170    0.94000000    2.53999996
   18.93555450   93.06590271    0.94000000    2.53999996
   18.93888855   94.93440247    0.94000000    2.53999996
   18.94222069   91.45860291    0.95999998    2.55999994
   18.94527626   96.06150055    0.95999998    2.53999996
   18.94861031   95.69640350    0.95999998    2.55999994
   18.95194435   95.35510254    0.92000002    2.55999994
   18.95250130   97.63140106    0.89999998    2.55999994
   18.95527840   97.32060242    0.89999998    2.55999994
   18.95861244   95.21499634    0.89999998    2.55999994
   18.96194458   95.30549622    0.89999998    2.55999994
   18.96805573   95.30549622    0.89999998    2.53999996
   18.97194481   93.43160248    0.88000000    2.53999996
   18.97527885   94.36190033    0.86000001    2.53999996
   18.97861099   90.33239746    0.88000000    2.53999996
   18.98166656   95.54799652    0.88000000    2.53999996
   18.98500061   94.21499634    0.86000001    2.53999996
   18.98583412   96.48220062    0.86000001    2.53999996
   18.98861122   94.25379944    0.86000001    2.53999996
   18.99166679   92.34719849    0.86000001    2.53999996
   18.99500084   86.84639740    0.86000001    2.53999996
   18.99833298   92.00189972    0.88000000    2.53999996
   19.00138855   89.81300354    0.88000000    2.53999996
   19.00472260   93.97910309    0.88000000    2.53999996
   19.01083374   93.97910309    0.89999998    2.53999996
   19.01499939   91.61579895    0.89999998    2.53999996
   19.01805496   93.16919708    0.94000000    2.53999996
   19.01916695   97.86689758    0.94000000    2.53999996
   19.02166557   94.56099701    0.94000000    2.53999996
   19.02499962   92.95929718    0.92000002    2.53999996
   19.02805519  103.33100128    0.92000002    2.53999996
   19.03138924   95.30449677    0.89999998    2.53999996
   19.03444481   97.82289886    0.89999998    2.53999996
   19.03777695   97.99359894    0.88000000    2.53999996
   19.04111099   91.62210083    0.88000000    2.53999996
   19.04416656   99.46219635    0.86000001    2.53999996
   19.04749870   95.41290283    0.86000001    2.53999996
   19.05360985   95.41290283    0.86000001    2.53999996
   19.05777740   94.55300140    0.86000001    2.53999996
   19.06083298   94.66709900    0.86000001    2.53999996
   19.06416512   90.18879700    0.86000001    2.53999996
   19.06750107   93.03469849    0.86000001    2.53999996
   19.07055664   94.07240295    0.86000001    2.51999998
   19.07389069   93.94270325    0.86000001    2.51999998
   19.07722282   92.15499878    0.88000000    2.53999996
   19.08027840   91.87490082    0.89999998    2.53999996
   19.08361244   90.95539856    0.89999998    2.53999996
   19.08583450   95.22949982    0.89999998    2.53999996
   19.08722305   93.51139832    0.89999998    2.53999996
   19.09027863   90.12599945    0.89999998    2.53999996
   19.09638977   90.12599945    0.92000002    2.53999996
   19.10055542   94.92240143    0.92000002    2.51999998
   19.10388947   90.28389740    0.92000002    2.53999996
   19.10694504   95.24440002    0.94000000    2.51999998
   19.11027908   96.57579803    0.94000000    2.51999998
   19.11361122   95.57649994    0.94000000    2.51999998
   19.11666679   93.31649780    0.94000000    2.51999998
   19.11916733   98.48200226    0.94000000    2.51999998
   19.12027740   92.44869995    0.94000000    2.51999998
   19.12333298   94.46279907    0.94000000    2.51999998
   19.12666702   95.55349731    0.94000000    2.53999996
   19.13000107   97.01270294    0.94000000    2.51999998
   19.13305473   99.41560364    0.94000000    2.53999996
   19.13916588   99.41560364    0.92000002    2.53999996
   19.14333344   96.19930267    0.92000002    2.51999998
   19.14666748   90.58799744    0.92000002    2.51999998
   19.14999962  102.49800110    0.88000000    2.51999998
   19.15250015   88.07250214    0.83999997    2.51999998
   19.15361023   99.42859650    0.83999997    2.51999998
   19.15694427   92.16320038    0.81999999    2.51999998
   19.15999985   96.48110199    0.81999999    2.51999998
   19.16333389   92.42819977    0.81999999    2.51999998
   19.16638756   93.83560181    0.83999997    2.51999998
   19.16972160   91.19950104    0.83999997    2.51999998
   19.17305565   89.80899811    0.83999997    2.51999998
   19.17611122   96.71250153    0.83999997    2.51999998
   19.18222237   96.71250153    0.83999997    2.51999998
   19.18610954   91.06900024    0.81999999    2.51999998
   19.18944359   99.65039825    0.81999999    2.51999998
   19.19277763   95.10350037    0.81999999    2.51999998
   19.19610977   98.75849915    0.83999997    2.51999998
   19.19916534   95.12300110    0.81999999    2.51999998
   19.20250130   94.77559662    0.83999997    2.51999998
   19.20555687   92.92530060    0.83999997    2.51999998
   19.20888901   91.34639740    0.83999997    2.51999998
   19.21222305   96.03649902    0.83999997    2.50000000
   19.21527863   95.51360321    0.83999997    2.51999998
   19.21861076   91.07230377    0.83999997    2.51999998
   19.21916771   94.18699646    0.83999997    2.51999998
   19.22500038   94.18699646    0.86000001    2.51999998
   19.22916794   90.02380371    0.88000000    2.51999998
   19.23222351   97.07510376    0.88000000    2.51999998
   19.23555565   92.07230377    0.88000000    2.51999998
   19.23888969   87.95610046    0.88000000    2.51999998
   19.24194527   97.08740234    0.86000001    2.51999998
   19.24527740  101.49600220    0.86000001    2.51999998
   19.24861145   94.90460205    0.86000001    2.50000000
   19.25166702   98.11129761    0.86000001    2.50000000
   19.25250053   90.47299957    0.86000001    2.50000000
   19.25527763   91.18229675    0.86000001    2.50000000
   19.25861168   96.54299927    0.86000001    2.50000000
   19.26166725   95.63300323    0.83999997    2.50000000
   19.26777840   95.63300323    0.86000001    2.51999998
   19.27194405   96.71970367    0.86000001    2.50000000
   19.27527809   94.97350311    0.86000001    2.51999998
   19.27833366   93.75270081    0.88000000    2.50000000
   19.28166580   95.96420288    0.88000000    2.50000000
   19.28499985   95.11930084    0.89999998    2.51999998
   19.28583336   98.77349854    0.89999998    2.50000000
   19.28861046   91.78610229    0.89999998    2.50000000
   19.29194450   93.49289703    0.92000002    2.50000000
   19.29500008   90.98439789    0.92000002    2.50000000
   19.29833221   94.41000366    0.89999998    2.50000000
   19.30166626   92.72350311    0.89999998    2.50000000
   19.30499840   99.37909698    0.89999998    2.50000000
   19.31055450   99.37909698    0.89999998    2.50000000
   19.31472206   96.92630005    0.92000002    2.50000000
   19.31805611   97.57450104    0.92000002    2.50000000
   19.31916809   99.90760040    0.92000002    2.50000000
   19.32166672   95.77300262    0.92000002    2.50000000
   19.32500076   93.78780365    0.92000002    2.50000000
   19.32805634   94.02860260    0.94000000    2.50000000
   19.33139038   92.63980103    0.95999998    2.50000000
   19.33444595   93.47149658    0.98000002    2.50000000
   19.33777809   94.99140167    0.95999998    2.50000000
   19.34111214   98.16329956    0.95999998    2.50000000
   19.34416771   92.56490326    0.95999998    2.50000000
   19.34749985   92.58679962    0.95999998    2.50000000
   19.35361099   92.58679962    0.94000000    2.50000000
   19.35777855   93.63130188    0.94000000    2.50000000
   19.36083412   87.26699829    0.94000000    2.50000000
   19.36416626   90.03500366    0.94000000    2.50000000
   19.36722183   91.75209808    0.94000000    2.50000000
   19.37055588   90.36489868    0.94000000    2.50000000
   19.37388992   89.49050140    0.92000002    2.50000000
   19.37694550   95.59329987    0.92000002    2.50000000
   19.38055611   92.06580353    0.89999998    2.50000000
   19.38361168   90.54299927    0.89999998    2.50000000
   19.38583374   97.09899902    0.89999998    2.48000002
   19.38722229   97.91480255    0.89999998    2.48000002
   19.39055634   90.38279724    0.92000002    2.48000002
   19.39638901   90.38279724    0.92000002    2.48000002
   19.40055466   90.91480255    0.92000002    2.48000002
   19.40361023   91.80269623    0.92000002    2.48000002
   19.40694427   99.96890259    0.92000002    2.48000002
   19.41027832   91.28189850    0.92000002    2.48000002
   19.41333389   92.16149902    0.92000002    2.48000002
   19.41666603   91.38079834    0.94000000    2.48000002
   19.41916656   93.72920227    0.92000002    2.48000002
   19.42027664  102.76599884    0.92000002    2.48000002
   19.42361069   92.61029816    0.94000000    2.48000002
   19.42666626   93.35140228    0.94000000    2.48000002
   19.43000031   93.20619965    0.98000002    2.48000002
   19.43305397   86.99639893    0.98000002    2.48000002
   19.43916512   86.99639893    0.98000002    2.48000002
   19.44333267   91.38510132    0.98000002    2.48000002
   19.44666672   89.74559784    0.98000002    2.48000002
   19.44972038   92.63909912    1.00000000    2.48000002
   19.45277786   90.00289917    1.03999996    2.48000002
   19.45333481   94.20939636    1.03999996    2.48000002
   19.45666695   91.99590302    1.03999996    2.48000002
   19.45972252   99.72850037    1.03999996    2.48000002
   19.46305656   95.95050049    1.03999996    2.48000002
   19.46638870   90.27140045    1.01999998    2.48000002
   19.46944427   93.79149628    1.01999998    2.48000002
   19.47277832   90.73539734    1.01999998    2.48000002
   19.47611237   87.70610046    1.01999998    2.48000002
   19.48194504   87.70610046    1.01999998    2.46000004
   19.48611069   95.71620178    0.98000002    2.48000002
   19.48944473   96.79180145    0.98000002    2.48000002
   19.49250031   94.27089691    0.95999998    2.46000004
   19.49583435   96.29329681    0.94000000    2.46000004
   19.49916649   95.81109619    0.94000000    2.48000002
   19.50222206   91.24160004    0.94000000    2.46000004
   19.50555611   89.36879730    0.94000000    2.46000004
   19.50888824   93.37930298    0.94000000    2.46000004
   19.51194382   95.29270172    0.94000000    2.48000002
   19.51527786   98.59529877    0.94000000    2.46000004
   19.51861000   93.15370178    0.92000002    2.46000004
   19.51916695   90.62500000    0.92000002    2.46000004
   19.52499962   90.62500000    0.92000002    2.48000002
   19.52888870   89.70230103    0.92000002    2.48000002
   19.53222275   90.91850281    0.92000002    2.48000002
   19.53555489   95.41130066    0.89999998    2.48000002
   19.53861046   90.66000366    0.89999998    2.46000004
   19.54194450   89.92780304    0.94000000    2.48000002
   19.54527664   87.34770203    0.95999998    2.48000002
   19.54833221   89.33820343    0.95999998    2.48000002
   19.55166626   88.36630249    0.98000002    2.46000004
   19.55249977   87.41590118    1.01999998    2.46000004
   19.55527687   91.48809814    1.01999998    2.46000004
   19.55861092   89.84339905    1.01999998    2.46000004
   19.56166649   93.89779663    1.05999994    2.46000004
   19.56777954   93.89779663    1.05999994    2.46000004
   19.57194519   90.90180206    1.00000000    2.46000004
   19.57500076   99.00810242    0.98000002    2.46000004
   19.57833481   95.88539886    1.00000000    2.46000004
   19.58166695   98.61309814    0.98000002    2.48000002
   19.58472252   92.77950287    1.00000000    2.46000004
   19.58611107   94.75830078    1.00000000    2.46000004
   19.58833313   96.74880219    0.98000002    2.46000004
   19.59166718  100.61299896    0.98000002    2.46000004
   19.59472275   96.56569672    0.98000002    2.46000004
   19.59805679   92.20480347    0.98000002    2.46000004
   19.60138893   95.60880280    0.95999998    2.46000004
   19.60444450   96.53720093    0.95999998    2.46000004
   19.61055565   96.53720093    0.95999998    2.46000004
   19.61472321   95.49710083    1.00000000    2.46000004
   19.61805534   98.44909668    1.00000000    2.46000004
   19.61944389   95.36129761    1.05999994    2.44000006
   19.62166595   96.47229767    1.05999994    2.44000006
   19.62500000   93.91989899    1.00000000    2.46000004
   19.62805557   92.68409729    1.00000000    2.46000004
   19.63138962   93.98819733    1.01999998    2.46000004
   19.63472176   97.97260284    1.03999996    2.46000004
   19.63777733   95.63590240    1.01999998    2.46000004
   19.64111137   94.40670013    1.01999998    2.46000004
   19.64444351   93.93820190    1.01999998    2.46000004
   19.64749908   96.33809662    1.00000000    2.44000006
   19.65333366   96.33809662    1.00000000    2.44000006
   19.65749931   96.24929810    1.00000000    2.44000006
   19.66083336   94.55850220    1.01999998    2.44000006
   19.66388893   96.51699829    1.03999996    2.46000004
   19.66722107   94.75569916    1.03999996    2.46000004
   19.67055511  115.23500061    1.05999994    2.44000006
   19.67361069  136.11599731    1.03999996    2.44000006
   19.67694473  154.43800354    1.03999996    2.44000006
   19.68027687  170.78100586    1.03999996    2.44000006
   19.68333244  198.49000549    1.03999996    2.44000006
   19.68610954  214.82099915    1.03999996    2.44000006
   19.71055603   -1.00000000    1.05999994    2.44000006
   19.71389008   -1.00000000    1.07000005    2.42000008
   19.71722221   -1.00000000    1.07000005    2.42000008
   19.72083473   -1.00000000    1.07000005    2.44000006
   19.72389030   -1.00000000    1.07000005    2.42000008
   19.72722244   -1.00000000    1.07000005    2.44000006
   19.73055649   -1.00000000    1.07000005    2.44000006
   19.73361206   -1.00000000    1.07000005    2.42000008
   19.73694420   -1.00000000    1.07000005    2.42000008
   19.74027824   -1.00000000    1.07000005    2.44000006
   19.74333382   -1.00000000    1.07000005    2.44000006
   19.75333405   -1.00000000    1.07000005    2.44000006
   19.75666618   -1.00000000    1.07000005    2.42000008
   19.75972176   -1.00000000    1.09000003    2.42000008
   19.76305580   -1.00000000    1.07000005    2.42000008
   19.76638794   -1.00000000    1.09000003    2.44000006
   19.76944351   -1.00000000    1.09000003    2.42000008
   19.77277756   -1.00000000    1.09000003    2.42000008
   19.77611160   -1.00000000    1.11000001    2.42000008
   19.77916718   -1.00000000    1.09000003    2.42000008
   19.78249931   -1.00000000    1.11000001    2.42000008
   19.78555489   -1.00000000    1.11000001    2.42000008
   19.79611015   -1.00000000    1.13000000    2.42000008
   19.79944420   -1.00000000    1.13000000    2.40000010
   19.80277634   -1.00000000    1.13000000    2.40000010
   19.80583191   -1.00000000    1.13000000    2.40000010
   19.80916595   -1.00000000    1.13000000    2.40000010
   19.81250000   -1.00000000    1.13000000    2.40000010
   19.81555557   -1.00000000    1.13000000    2.42000008
   19.81888962   -1.00000000    1.13000000    2.40000010
   19.82250023   -1.00000000    1.14999998    2.40000010
   19.82555580   -1.00000000    1.14999998    2.42000008
   19.82888985   -1.00000000    1.14999998    2.40000010
   19.83916664   -1.00000000    1.16999996    2.40000010
   19.84222221   -1.00000000    1.16999996    2.40000010
   19.84555626   -1.00000000    1.16999996    2.40000010
   19.84889030   -1.00000000    1.16999996    2.40000010
   19.85194397   -1.00000000    1.16999996    2.40000010
   19.85555649   -1.00000000    1.16999996    2.40000010
   19.85861206   -1.00000000    1.19000006    2.40000010
   19.86194420   -1.00000000    1.19000006    2.40000010
   19.86527824   -1.00000000    1.19000006    2.40000010
   19.86833382   -1.00000000    1.19000006    2.40000010
   19.87166595   -1.00000000    1.19000006    2.40000010
   19.88194466   -1.00000000    1.21000004    2.39000010
   19.88527679   -1.00000000    1.23000002    2.40000010
   19.88888931   -1.00000000    1.23000002    2.39000010
   19.89194489   -1.00000000    1.23000002    2.39000010
   19.89527702   -1.00000000    1.23000002    2.40000010
   19.89861107   -1.00000000    1.25000000    2.40000010
   19.90166664   -1.00000000    1.25000000    2.40000010
   19.90499878   -1.00000000    1.25000000    2.40000010
   19.90805435   -1.00000000    1.25000000    2.39000010
   19.91138840   -1.00000000    1.25000000    2.39000010
   19.91472244   -1.00000000    1.26999998    2.39000010
   19.92472076   -1.00000000    1.28999996    2.39000010
   19.92805481   -1.00000000    1.26999998    2.39000010
   19.93111038   -1.00000000    1.26999998    2.39000010
   19.93444443   -1.00000000    1.26999998    2.39000010
   19.93777657   -1.00000000    1.26999998    2.39000010
   19.94083214   -1.00000000    1.26999998    2.39000010
   19.94416618   -1.00000000    1.26999998    2.39000010
   19.94749832   -1.00000000    1.26999998    2.39000010
   19.95055580   -1.00000000    1.28999996    2.39000010
   19.95416832   -1.00000000    1.28999996    2.39000010
   19.95722389   -1.00000000    1.26999998    2.39000010
   19.96750069   -1.00000000    1.28999996    2.36999989
   19.97083473   -1.00000000    1.28999996    2.39000010
   19.97416687   -1.00000000    1.28999996    2.36999989
   19.97722244   -1.00000000    1.28999996    2.36999989
   19.98055649   -1.00000000    1.28999996    2.36999989
   19.98388863   -1.00000000    1.28999996    2.36999989
   19.98750114   -1.00000000    1.28999996    2.36999989
   19.99055672   -1.00000000    1.28999996    2.36999989
   19.99388885   -1.00000000    1.28999996    2.36999989
   19.99722290   -1.00000000    1.28999996    2.36999989
   20.00027847   -1.00000000    1.30999994    2.36999989
   20.01055527   -1.00000000    1.30999994    2.36999989
   20.01361084   -1.00000000    1.30999994    2.36999989
   20.01694489   -1.00000000    1.30999994    2.36999989
   20.02055550   -1.00000000    1.30999994    2.36999989
   20.02361107   -1.00000000    1.30999994    2.36999989
   20.02694511   -1.00000000    1.34000003    2.36999989
   20.03027725   -1.00000000    1.34000003    2.34999990
   20.03333282   -1.00000000    1.33000004    2.34999990
   20.03666687   -1.00000000    1.33000004    2.34999990
   20.03972244   -1.00000000    1.33000004    2.36999989
   20.04305458   -1.00000000    1.36000001    2.36999989
   20.05333328   -1.00000000    1.34000003    2.34999990
   20.05666542   -1.00000000    1.36000001    2.36999989
   20.05972099   -1.00000000    1.36000001    2.34999990
   20.06305504   -1.00000000    1.34000003    2.32999992
   20.06611061   -1.00000000    1.34000003    2.34999990
   20.06944466   -1.00000000    1.34000003    2.34999990
   20.07277870   -1.00000000    1.33000004    2.34999990
   20.07583427   -1.00000000    1.34000003    2.32999992
   20.07916832   -1.00000000    1.36000001    2.34999990
   20.08250046   -1.00000000    1.36000001    2.34999990
   20.08555603   -1.00000000    1.36000001    2.36999989
   20.09611130   -1.00000000    1.36000001    2.32999992
   20.09944534   -1.00000000    1.36000001    2.32999992
   20.10250092   -1.00000000    1.36000001    2.32999992
   20.10583305   -1.00000000    1.36000001    2.32999992
   20.10916710   -1.00000000    1.36000001    2.32999992
   20.11222267   -1.00000000    1.36000001    2.34999990
   20.11555672   -1.00000000    1.36000001    2.32999992
   20.11888885   -1.00000000    1.36000001    2.32999992
   20.12222290   -1.00000000    1.36000001    2.32999992
   20.12527847   -1.00000000    1.36000001    2.32999992
   20.12861061   -1.00000000    1.36000001    2.32999992
   20.13888931   -1.00000000    1.36000001    2.32999992
   20.14222145   -1.00000000    1.36000001    2.32999992
   20.14555550   -1.00000000    1.36000001    2.32999992
   20.14861107   -1.00000000    1.36000001    2.30999994
   20.15194321   -1.00000000    1.38000000    2.32999992
   20.15555573   -1.00000000    1.38000000    2.30999994
   20.15861130   -1.00000000    1.38000000    2.30999994
   20.16194344   -1.00000000    1.38000000    2.32999992
   20.16527748   -1.00000000    1.38000000    2.32999992
   20.16833305   -1.00000000    1.38000000    2.32999992
   20.17166519   -1.00000000    1.38000000    2.30999994
   20.18194389   -1.00000000    1.39999998    2.30999994
   20.18499947   -1.00000000    1.39999998    2.30999994
   20.18861008   -1.00000000    1.39999998    2.30999994
   20.19194412   -1.00000000    1.39999998    2.30999994
   20.19527626   -1.00000000    1.39999998    2.30999994
   20.19833183   -1.00000000    1.41999996    2.30999994
   20.20166779   -1.00000000    1.41999996    2.30999994
   20.20472336   -1.00000000    1.39999998    2.30999994
   20.20805550   -1.00000000    1.41999996    2.30999994
   20.21138954   -1.00000000    1.41999996    2.30999994
   20.21444511   -1.00000000    1.41999996    2.30999994
   20.22472191   -1.00000000    1.44000006    2.28999996
   20.22805595   -1.00000000    1.46000004    2.28999996
   20.23111153   -1.00000000    1.44000006    2.28999996
   20.23444557   -1.00000000    1.44000006    2.28999996
   20.23750114   -1.00000000    1.46000004    2.28999996
   20.24083328   -1.00000000    1.44000006    2.28999996
   20.24416733   -1.00000000    1.44000006    2.28999996
   20.24722290   -1.00000000    1.46000004    2.26999998
   20.25055504   -1.00000000    1.46000004    2.28999996
   20.25416756   -1.00000000    1.46000004    2.28999996
   20.25722313   -1.00000000    1.46000004    2.28999996
   20.26749992   -1.00000000    1.48000002    2.26999998
   20.27083397   -1.00000000    1.50000000    2.26999998
   20.27388954   -1.00000000    1.50000000    2.26999998
   20.27722168   -1.00000000    1.48000002    2.26999998
   20.28055573   -1.00000000    1.50000000    2.26999998
   20.28361130   -1.00000000    1.50000000    2.26999998
   20.28722191   -1.00000000    1.51999998    2.26999998
   20.29027748   -1.00000000    1.51999998    2.26999998
   20.29361153   -1.00000000    1.51999998    2.26999998
   20.29694366   -1.00000000    1.51999998    2.28999996
   20.29999924   -1.00000000    1.51999998    2.26999998
   20.31055450   -1.00000000    1.51999998    2.26999998
   20.31361008   -1.00000000    1.51999998    2.26999998
   20.31694603   -1.00000000    1.51999998    2.26999998
   20.32055664   -1.00000000    1.51999998    2.26999998
   20.32361221   -1.00000000    1.51999998    2.26999998
   20.32694626   -1.00000000    1.51999998    2.25000000
   20.33027840   -1.00000000    1.51999998    2.25000000
   20.33333397   -1.00000000    1.51999998    2.25000000
   20.33666801   -1.00000000    1.51999998    2.25000000
   20.34000015   -1.00000000    1.51999998    2.25000000
   20.34305573   -1.00000000    1.51999998    2.25000000
   20.35333443   -1.00000000    1.53999996    2.25000000
   20.35639000   -1.00000000    1.53999996    2.25000000
   20.35972214   -1.00000000    1.53999996    2.25000000
   20.36305618   -1.00000000    1.53999996    2.25000000
   20.36611176   -1.00000000    1.53999996    2.23000002
   20.36944389   -1.00000000    1.55999994    2.25000000
   20.37249947   -1.00000000    1.60000002    2.25000000
   20.37583351   -1.00000000    1.64999998    2.25000000
   20.37916756   -1.00000000    1.71000004    2.23000002
   20.38222313   -1.00000000    1.75000000    2.23000002
   20.38555527   -1.00000000    1.86000001    2.25000000
   20.39611053   -1.00000000    2.23000002    2.23000002
   20.39944458   -1.00000000    2.25000000    2.23000002
   20.40250015   -1.00000000    2.23000002    2.23000002
   20.40583229   -1.00000000    2.09999990    2.23000002
   20.40888786   -1.00000000    2.09999990    2.21000004
   20.41222191   -1.00000000    2.01999998    2.21000004
   20.41555595   -1.00000000    2.03999996    2.23000002
   20.41860962   -1.00000000    2.07999992    2.21000004
   20.42222214   -1.00000000    4.90999985    2.23000002
   20.42555428   -1.00000000    4.90999985    2.34999990
   20.42860985   -1.00000000    0.19000000    0.41999999
   20.43888855   -1.00000000    0.09000000    0.07000000
   20.44222069   -1.00000000    0.09000000    0.07000000
   20.44527626   -1.00000000    0.09000000    0.07000000
   20.44861031   -1.00000000    0.09000000    0.07000000
   20.45194435   -1.00000000    0.09000000    0.07000000
   20.45527840   -1.00000000    0.09000000    0.07000000
   20.45861244   -1.00000000    0.09000000    0.07000000
   20.46166801   -1.00000000    0.09000000    0.07000000
   20.46500015   -1.00000000    0.09000000    0.07000000
   20.46805573   -1.00000000    0.09000000    0.07000000
   20.47138977   -1.00000000    0.09000000    0.07000000
   20.48166656   -1.00000000    0.09000000    0.07000000
   20.48500061   -1.00000000    0.09000000    0.07000000
   20.48861122   -1.00000000    0.09000000    0.07000000
   20.49194527   -1.00000000    0.09000000    0.07000000
   20.49500084   -1.00000000    0.09000000    0.07000000
   20.49833298   -1.00000000    0.09000000    0.07000000
   20.50138855   -1.00000000    0.09000000    0.07000000
   20.50472260   -1.00000000    0.09000000    0.07000000
   20.50805473   -1.00000000    0.09000000    0.07000000
   20.51111031   -1.00000000    0.09000000    0.07000000
   20.51444435   -1.00000000    0.09000000    0.07000000
   20.52472115   -1.00000000    0.09000000    0.07000000
   20.52777672   -1.00000000    0.09000000    0.07000000
   20.53111076   -1.00000000    0.09000000    0.07000000
   20.53444481   -1.00000000    0.09000000    0.07000000
   20.53750038   -1.00000000    0.09000000    0.07000000
   20.54083252   -1.00000000    0.09000000    0.07000000
   20.54388809   -1.00000000    0.09000000    0.07000000
   20.54722214   -1.00000000    0.09000000    0.07000000
   20.55055428   -1.00000000    0.09000000    0.07000000
   20.55388832   -1.00000000    0.09000000    0.07000000
   20.55722237   -1.00000000    0.09000000    0.07000000
   20.56750107   -1.00000000    0.09000000    0.07000000
   20.57083511   -1.00000000    0.09000000    0.07000000
   20.57389069   -1.00000000    0.09000000    0.07000000
   20.57722282   -1.00000000    0.09000000    0.07000000
   20.58027840   -1.00000000    0.09000000    0.07000000
   20.58361244   -1.00000000    0.09000000    0.07000000
   20.58722305   -1.00000000    0.09000000    0.07000000
   20.59055710   -1.00000000    0.09000000    0.07000000
   20.59361267   -1.00000000    0.09000000    0.07000000
   20.59694481   -1.00000000    0.09000000    0.07000000
   20.60000038   -1.00000000    0.09000000    0.07000000
   20.61027908   -1.00000000    0.09000000    0.07000000
   20.61361122   -1.00000000    0.09000000    0.07000000
   20.61666679   -1.00000000    0.09000000    0.07000000
   20.62027740   -1.00000000    0.09000000    0.07000000
   20.62361145   -1.00000000    0.09000000    0.07000000
   20.62666702   -1.00000000    0.09000000    0.07000000
   20.63000107   -1.00000000    0.09000000    0.07000000
   20.63305473   -1.00000000    0.09000000    0.07000000
   20.63638878   -1.00000000    0.09000000    0.07000000
   20.63972282   -1.00000000    0.09000000    0.07000000
   20.64277840   -1.00000000    0.09000000    0.07000000
   20.65305519   -1.00000000    0.09000000    0.07000000
   20.65638924   -1.00000000    0.09000000    0.07000000
   20.65972137   -1.00000000    0.09000000    0.07000000
   20.66277695   -1.00000000    0.09000000    0.07000000
   20.66611099   -1.00000000    0.09000000    0.07000000
   20.66944313   -1.00000000    0.09000000    0.07000000
   20.67249870   -1.00000000    0.09000000    0.07000000
   20.67583275   -1.00000000    0.09000000    0.07000000
   20.67888832   -1.00000000    0.09000000    0.07000000
   20.68222237   -1.00000000    0.09000000    0.07000000
   20.68555450   -1.00000000    0.09000000    0.07000000
   20.69610977   -1.00000000    0.09000000    0.07000000
   20.69916534   -1.00000000    0.09000000    0.07000000
   20.70250130   -1.00000000    0.09000000    0.07000000
   20.72222328   -1.00000000    0.09000000    0.07000000
   20.72555542   -1.00000000    0.09000000    0.07000000
   20.72888947   -1.00000000    0.09000000    0.07000000
   20.73888969   -1.00000000    0.09000000    0.07000000
   20.74222183   -1.00000000    0.09000000    0.07000000
   20.74555588   -1.00000000    0.09000000    0.07000000
   20.74861145   -1.00000000    0.09000000    0.07000000
   20.75194359   -1.00000000    0.09000000    0.07000000
   20.75527763   -1.00000000    0.09000000    0.07000000
   20.75861168   -1.00000000    0.09000000    0.07000000
   20.76166725   -1.00000000    0.09000000    0.07000000
   20.76499939   -1.00000000    0.09000000    0.07000000
   20.76833344   -1.00000000    0.09000000    0.07000000
   20.77138901   -1.00000000    0.09000000    0.07000000
   20.78194427   -1.00000000    0.09000000    0.07000000
   20.78499985   -1.00000000    0.09000000    0.07000000
   20.78861046   -1.00000000    0.09000000    0.07000000
   20.79194450   -1.00000000    0.09000000    0.07000000
   20.79500008   -1.00000000    0.09000000    0.07000000
   20.79833221   -1.00000000    0.09000000    0.07000000
   20.80166626   -1.00000000    0.09000000    0.07000000
   20.80472183   -1.00000000    0.09000000    0.07000000
   20.80805397   -1.00000000    0.09000000    0.07000000
   20.81110954   -1.00000000    0.09000000    0.07000000
   20.81444359   -1.00000000    0.09000000    0.07000000
   20.82472229   -1.00000000    0.09000000    0.07000000
   20.82777786   -1.00000000    0.09000000    0.07000000
   20.83111191   -1.00000000    0.09000000    0.07000000
   20.83444595   -1.00000000    0.09000000    0.07000000
   20.83750153   -1.00000000    0.09000000    0.07000000
   20.84083366   -1.00000000    0.09000000    0.07000000
   20.84416771   -1.00000000    0.09000000    0.07000000
   20.84722328   -1.00000000    0.09000000    0.07000000
   20.85055542   -1.00000000    0.09000000    0.07000000
   20.85388947   -1.00000000    0.09000000    0.07000000
   20.85722351   -1.00000000    0.09000000    0.07000000
   20.86750031   -1.00000000    0.09000000    0.07000000
   20.87083435   -1.00000000    0.09000000    0.07000000
   20.87388992   -1.00000000    0.09000000    0.07000000
   20.87722206   -1.00000000    0.09000000    0.07000000
   20.88055611   -1.00000000    0.09000000    0.07000000
   20.88361168   -1.00000000    0.09000000    0.07000000
   20.88722229   -1.00000000    0.09000000    0.07000000
   20.89055634   -1.00000000    0.09000000    0.07000000
   20.89361191   -1.00000000    0.09000000    0.07000000
   20.89694405   -1.00000000    0.09000000    0.07000000
   20.90027809   -1.00000000    0.09000000    0.07000000
   20.91027832   -1.00000000    0.09000000    0.07000000
   20.91361046   -1.00000000    0.09000000    0.07000000
   20.91694450   -1.00000000    0.09000000    0.07000000
   20.92027664   -1.00000000    0.09000000    0.07000000
   20.92361069   -1.00000000    0.09000000    0.07000000
   20.92666626   -1.00000000    0.09000000    0.07000000
   20.93000031   -1.00000000    0.09000000    0.07000000
   20.93333244   -1.00000000    0.09000000    0.07000000
   20.93638802   -1.00000000    0.09000000    0.07000000
   20.93972206   -1.00000000    0.09000000    0.07000000
