    HOUR (UT)   FLARE FACTOR    SKY TESTER    SUN TESTER
   12.26444435   -1.00000000   -1.00000000   -1.00000000
   12.28333378  225.76499939    0.88000000    1.73000002
   12.28805637  199.31500244    0.88000000    1.75000000
   12.29222298  211.77900696    0.88000000    1.75000000
   12.29527855   -1.00000000    0.89999998    1.75000000
   12.29861164  163.28999329    0.89999998    1.75000000
   12.30194473  148.17700195    0.89999998    1.76999998
   12.30500031  148.77799988    0.89999998    1.76999998
   12.30833340  152.81399536    0.92000002    1.76999998
   12.31166649  162.07099915    0.92000002    1.76999998
   12.31611156  162.28100586    0.92000002    1.76999998
   12.31666660  158.42999268    0.92000002    1.76999998
   12.31972218  152.29400635    0.92000002    1.76999998
   12.32305527  143.67399597    0.92000002    1.78999996
   12.32638836  163.59300232    0.92000002    1.78999996
   12.32944393  137.67300415    0.92000002    1.76999998
   12.33277798  151.09800720    0.92000002    1.76999998
   12.33611107  155.86099243    0.92000002    1.78999996
   12.33916664  136.34199524    0.92000002    1.80999994
   12.34249973  144.31300354    0.94000000    1.78999996
   12.34555531  133.48699951    0.94000000    1.80999994
   12.34888840  142.88699341    0.92000002    1.80999994
   12.35000038  143.28399658    0.92000002    1.80999994
   12.35249996  133.70100403    0.92000002    1.80999994
   12.35583401  159.38400269    0.92000002    1.80999994
   12.35916710  147.50100708    0.94000000    1.80999994
   12.36222267  150.16900635    0.92000002    1.80999994
   12.36555576  154.11000061    0.92000002    1.83000004
   12.36861134  138.91299438    0.92000002    1.83000004
   12.37194443  136.58999634    0.92000002    1.83000004
   12.37527752  136.27200317    0.92000002    1.83000004
   12.37833309  141.92500305    0.92000002    1.83000004
   12.38166714  145.13200378    0.94000000    1.85000002
   12.38333321  140.83599854    0.94000000    1.85000002
   12.38527775  138.37699890    0.92000002    1.85000002
   12.38861084  150.60800171    0.92000002    1.85000002
   12.39194393  147.65800476    0.92000002    1.85000002
   12.39499950  149.84599304    0.92000002    1.85000002
   12.39833355  132.30900574    0.92000002    1.86000001
   12.40166664  150.04699707    0.92000002    1.85000002
   12.40472221  142.43800354    0.92000002    1.85000002
   12.40805531  151.07699585    0.89999998    1.86000001
   12.41111088  148.38800049    0.89999998    1.86000001
   12.41444397  148.71000671    0.89999998    1.86000001
   12.41666698  144.44999695    0.89999998    1.85000002
   12.41805553  137.14199829    0.89999998    1.85000002
   12.42138958  150.08999634    0.89999998    1.86000001
   12.42472267  130.84100342    0.89999998    1.86000001
   12.42777824  144.06500244    0.88000000    1.86000001
   12.43111134  146.31500244    0.88000000    1.86000001
   12.43416691  145.43299866    0.88000000    1.88000000
   12.43750000  153.25599670    0.88000000    1.88000000
   12.44083309  144.78900146    0.88000000    1.88000000
   12.44388866  134.25100708    0.88000000    1.88000000
   12.44722271  150.26199341    0.88000000    1.88000000
   12.44999981  130.03900146    0.88000000    1.89999998
   12.45083332  143.84500122    0.88000000    1.89999998
   12.45416641  140.99899292    0.86000001    1.89999998
   12.45749950  137.00300598    0.86000001    1.89999998
   12.46055508  131.75799561    0.86000001    1.89999998
   12.46388912  156.04200745    0.86000001    1.89999998
   12.46722221  132.46400452    0.83999997    1.89999998
   12.47027779  139.12300110    0.83999997    1.89999998
   12.47361088  140.16600037    0.83999997    1.89999998
   12.47666645  136.45700073    0.83999997    1.91999996
   12.47999954  130.72500610    0.83999997    1.91999996
   12.48333359  129.52099609    0.83999997    1.91999996
   12.48361111  128.12500000    0.83999997    1.91999996
   12.48694515  132.55400085    0.83999997    1.91999996
   12.49027824  134.95899963    0.81999999    1.91999996
   12.49361134  141.58099365    0.81999999    1.91999996
   12.49694443  140.69500732    0.81999999    1.91999996
   12.50000000  140.87899780    0.81999999    1.91999996
   12.50333309  129.77000427    0.81999999    1.91999996
   12.50638866  131.92100525    0.80000001    1.91999996
   12.50972176  133.59399414    0.81999999    1.94000006
   12.51305580  132.82899475    0.81999999    1.94000006
   12.51611137  138.41099548    0.80000001    1.94000006
   12.51666641  147.72599792    0.80000001    1.94000006
   12.51972198  145.93299866    0.80000001    1.94000006
   12.52305508  136.08299255    0.80000001    1.94000006
   12.52611065  139.99699402    0.80000001    1.96000004
   12.52944374  134.68600464    0.79000002    1.94000006
   12.53249931  133.81100464    0.79000002    1.96000004
   12.53583336  137.01499939    0.79000002    1.96000004
   12.53916740  140.02099609    0.79000002    1.96000004
   12.54222298  136.79100037    0.79000002    1.94000006
   12.54555607  136.00100708    0.79000002    1.96000004
   12.54888916  138.88200378    0.79000002    1.96000004
   12.55000019  120.41000366    0.79000002    1.96000004
   12.55249977  132.06100464    0.76999998    1.96000004
   12.55583382  141.05099487    0.76999998    1.96000004
   12.55888939  132.19599915    0.79000002    1.96000004
   12.56222248  139.74699402    0.76999998    1.96000004
   12.56527805  136.95300293    0.76999998    1.98000002
   12.56861115  130.10699463    0.76999998    1.98000002
   12.57194424  147.58799744    0.76999998    1.98000002
   12.57499981  151.11700439    0.76999998    1.98000002
   12.57833290  127.84500122    0.75000000    1.98000002
   12.58166695  144.42999268    0.76999998    1.98000002
   12.58333302  129.74800110    0.76999998    1.98000002
   12.58527756  138.26699829    0.75000000    2.00000000
   12.58861065  129.37300110    0.75000000    2.00000000
   12.59166622  141.75500488    0.75000000    2.00000000
   12.59499931  133.34800720    0.75000000    2.00000000
   12.59833336  156.80799866    0.75000000    2.00000000
   12.60138893  134.28999329    0.75000000    2.00000000
   12.60472298  143.96899414    0.75000000    2.00000000
   12.60777855  135.05700684    0.75000000    2.00000000
   12.61138916  150.34899902    0.73000002    2.01999998
   12.61444473  138.59399414    0.73000002    2.01999998
   12.61666679  147.75999451    0.73000002    2.01999998
   12.61833382  148.92500305    0.73000002    2.01999998
   12.62166691  141.66000366    0.73000002    2.01999998
   12.62472248  143.41200256    0.73000002    2.01999998
   12.62805557  140.82099915    0.73000002    2.01999998
   12.63111115  143.00300598    0.73000002    2.01999998
   12.63444424  138.31700134    0.73000002    2.01999998
   12.63777733  137.39399719    0.73000002    2.03999996
   12.64083290  153.02600098    0.73000002    2.03999996
   12.64416695  144.53300476    0.70999998    2.03999996
   12.64750004  152.04499817    0.70999998    2.03999996
   12.64999962  146.64300537    0.70999998    2.03999996
   12.65111065  152.71400452    0.70999998    2.03999996
   12.65444374  136.77200317    0.70999998    2.05999994
   12.65749931  135.04100037    0.70999998    2.03999996
   12.66083336  148.94799805    0.70999998    2.03999996
   12.66388893  144.82200623    0.70999998    2.03999996
   12.66722298  141.97900391    0.70999998    2.03999996
   12.67055607  149.18400574    0.73000002    2.05999994
   12.67361164  148.40499878    0.70999998    2.05999994
   12.67694473  142.11500549    0.69000000    2.05999994
   12.68027782  140.93800354    0.69000000    2.05999994
   12.68333340  141.14999390    0.69000000    2.05999994
   12.68388939  149.50199890    0.69000000    2.05999994
   12.68722248  148.45199585    0.69000000    2.05999994
   12.69027805  137.38200378    0.70999998    2.05999994
   12.69361115  149.11099243    0.69000000    2.05999994
   12.69666672  144.46299744    0.69000000    2.05999994
   12.69999981  145.05999756    0.69000000    2.05999994
   12.70333290  147.03700256    0.69000000    2.05999994
   12.70638847  151.64700317    0.69000000    2.07999992
   12.70972157  141.89900208    0.67000002    2.07999992
   12.71305561  147.71200562    0.69000000    2.07999992
   12.71611118  158.38600159    0.67000002    2.09999990
   12.71666622  149.18299866    0.67000002    2.07999992
   12.71972179  139.82600403    0.69000000    2.07999992
   12.72305489  140.40299988    0.69000000    2.07999992
   12.72611046  144.11599731    0.67000002    2.07999992
   12.72944355  146.66900635    0.67000002    2.07999992
   12.73249912  146.58999634    0.67000002    2.07999992
   12.73583317  145.77799988    0.67000002    2.09999990
   12.73916721  128.52999878    0.67000002    2.07999992
   12.74222279  134.82499695    0.64999998    2.07999992
   12.74555588  140.68899536    0.67000002    2.09999990
   12.74944496  136.01100159    0.64999998    2.09999990
   12.75000000  143.06100464    0.64999998    2.09999990
   12.75305557  140.50300598    0.64999998    2.09999990
   12.75638866  159.72300720    0.67000002    2.09999990
   12.75944424  169.01199341    0.64999998    2.09999990
   12.76277733  137.11000061    0.64999998    2.09999990
   12.76583290  148.70899963    0.64999998    2.09999990
   12.76916599  145.33099365    0.67000002    2.09999990
   12.77250004  147.70100403    0.64999998    2.09999990
   12.77555561  152.29499817    0.67000002    2.11999989
   12.77888870  154.60499573    0.64999998    2.11999989
   12.78222179  146.81300354    0.64999998    2.11999989
   12.78333378  132.95399475    0.64999998    2.11999989
   12.78583336  139.04400635    0.64999998    2.11999989
   12.78916740  144.49200439    0.64999998    2.11999989
   12.79222298  136.93400574    0.64999998    2.11999989
   12.79555607  151.67199707    0.64999998    2.11999989
   12.79888916  148.59899902    0.64999998    2.11999989
   12.80194473  144.26499939    0.64999998    2.11999989
   12.80527782  150.50999451    0.63000000    2.11999989
   12.80833340  143.80200195    0.63000000    2.11999989
   12.81166649  150.59800720    0.63000000    2.11999989
   12.81500053  141.24000549    0.63000000    2.13000011
   12.81666660  150.35400391    0.63000000    2.13000011
   12.81861115  139.81100464    0.63000000    2.13000011
   12.82194424  152.84599304    0.63000000    2.13000011
   12.82499981  146.64399719    0.63000000    2.13000011
   12.82833290  152.25199890    0.63000000    2.13000011
   12.83166695  134.02999878    0.63000000    2.13000011
   12.83472157  154.53799438    0.63000000    2.13000011
   12.83805561  139.91600037    0.63000000    2.13000011
   12.84111118  149.10000610    0.63000000    2.13000011
   12.84444427  151.35899353    0.63000000    2.13000011
   12.84777737  140.94999695    0.63000000    2.13000011
   12.85000038  147.92799377    0.63000000    2.13000011
   12.85138893  140.49299622    0.61000001    2.13000011
   12.85472298  150.12600708    0.61000001    2.13000011
   12.85777855  132.04800415    0.63000000    2.15000010
   12.86111164  150.89700317    0.61000001    2.15000010
   12.86444473  137.74400330    0.61000001    2.15000010
   12.86750031  154.64599609    0.61000001    2.15000010
   12.87083340  159.16200256    0.63000000    2.15000010
   12.87416649  148.19799805    0.63000000    2.15000010
   12.87750053  149.36500549    0.63000000    2.15000010
   12.88055611  154.79499817    0.61000001    2.15000010
   12.88333321  144.14599609    0.61000001    2.15000010
   12.88416672  147.77400208    0.61000001    2.15000010
   12.88749981  143.63099670    0.61000001    2.15000010
   12.89055538  134.59100342    0.61000001    2.15000010
   12.89388847  141.24000549    0.61000001    2.17000008
   12.89722252  146.08799744    0.61000001    2.17000008
   12.90027714  142.32000732    0.61000001    2.17000008
   12.90361118  143.89999390    0.61000001    2.17000008
   12.90694427  154.14300537    0.61000001    2.17000008
   12.90999985  142.71000671    0.61000001    2.17000008
   12.91333294  147.37899780    0.61000001    2.17000008
   12.91638851  148.33200073    0.61000001    2.17000008
   12.91694450  158.23500061    0.61000001    2.17000008
   12.92027855  141.14799500    0.58999997    2.17000008
   12.92361164  144.22999573    0.61000001    2.17000008
   12.92666721  142.85299683    0.61000001    2.17000008
   12.93000031  154.99400330    0.58999997    2.17000008
   12.93305588  142.18699646    0.61000001    2.19000006
   12.93638897  147.17700195    0.61000001    2.19000006
   12.93972206  138.60000610    0.58999997    2.19000006
   12.94277763  141.08599854    0.58999997    2.19000006
   12.94611073  156.16799927    0.61000001    2.19000006
   12.94944477  153.38200378    0.61000001    2.19000006
   12.95027733  143.03999329    0.61000001    2.19000006
   12.95305538  137.55099487    0.61000001    2.19000006
   12.95638847  140.18299866    0.58999997    2.19000006
   12.95972157  145.38800049    0.61000001    2.19000006
   12.96305561  154.00999451    0.61000001    2.19000006
   12.96611118  136.05499268    0.61000001    2.19000006
   12.96944427  148.43899536    0.61000001    2.19000006
   12.97249985  148.24200439    0.61000001    2.21000004
   12.97583294  153.61700439    0.61000001    2.19000006
   12.97916603  156.24600220    0.61000001    2.19000006
   12.98222160  145.61599731    0.61000001    2.21000004
   12.98361111  165.83799744    0.61000001    2.21000004
   12.98583317  154.01300049    0.61000001    2.19000006
   12.98916721  143.66400146    0.61000001    2.19000006
   12.99222279  161.85000610    0.61000001    2.21000004
   12.99555588  147.33299255    0.58999997    2.19000006
   12.99888897  145.35800171    0.58999997    2.21000004
   13.00194454  161.42300415    0.58999997    2.21000004
   13.00527763  143.85699463    0.61000001    2.21000004
   13.00833321  145.22200012    0.61000001    2.21000004
   13.01166630  147.58000183    0.58999997    2.21000004
   13.01500034  160.24099731    0.58999997    2.21000004
   13.01694393  152.68600464    0.58999997    2.21000004
   13.01861095  139.75900269    0.58999997    2.21000004
   13.02194405  152.86199951    0.56999999    2.21000004
   13.02499962  149.89399719    0.58999997    2.21000004
   13.02833271  146.25000000    0.56999999    2.21000004
   13.03138828  145.20599365    0.58999997    2.21000004
   13.03472233  150.33900452    0.56999999    2.21000004
   13.03805637  149.92799377    0.56999999    2.21000004
   13.04111195  143.71400452    0.56999999    2.23000002
   13.04444504  151.95399475    0.58999997    2.21000004
   13.04777813  165.24299622    0.56999999    2.23000002
   13.05027771  153.87100220    0.56999999    2.23000002
   13.05138874  153.67999268    0.56999999    2.23000002
   13.05472279  151.60499573    0.56999999    2.23000002
   13.05777836  158.81100464    0.56999999    2.23000002
   13.06111145  150.23899841    0.58999997    2.23000002
   13.06416702  148.22999573    0.58999997    2.23000002
   13.06750011  154.37699890    0.56999999    2.23000002
   13.07083321  162.83999634    0.56999999    2.25000000
   13.07388878  146.83299255    0.58999997    2.23000002
   13.07722187  141.95300293    0.58999997    2.23000002
   13.08055592  147.48699951    0.58999997    2.25000000
   13.08361053  144.77900696    0.58999997    2.25000000
   13.08416653  145.46099854    0.56999999    2.23000002
   13.08749962  152.93200684    0.56999999    2.23000002
   13.09055519  135.82499695    0.58999997    2.25000000
   13.09388828  154.20700073    0.58999997    2.23000002
   13.09694386  149.70899963    0.58999997    2.25000000
   13.10027790  145.47599792    0.58999997    2.25000000
   13.10361195  155.97700500    0.58999997    2.25000000
   13.10666752  149.75700378    0.58999997    2.25000000
   13.11000061  146.55200195    0.58999997    2.25000000
   13.11333370  146.46299744    0.58999997    2.25000000
   13.11638927  154.52299500    0.58999997    2.25000000
   13.11694431  155.97200012    0.58999997    2.25000000
   13.11999989  152.85299683    0.58999997    2.25000000
   13.12333393  152.29400635    0.58999997    2.25000000
   13.12638855  166.46699524    0.56999999    2.25000000
   13.12972260  160.80700684    0.56999999    2.25000000
   13.13305569  158.24600220    0.56999999    2.25000000
   13.13611126  148.00999451    0.56999999    2.25000000
   13.13944435  149.96299744    0.56999999    2.26999998
   13.14249992  159.68800354    0.56999999    2.26999998
   13.14583302  147.00500488    0.56999999    2.26999998
   13.14916611  150.04200745    0.56999999    2.26999998
   13.15027714  157.08999634    0.56999999    2.26999998
   13.15277767  148.39799500    0.55000001    2.26999998
   13.15611076  153.55799866    0.55000001    2.26999998
   13.15916634  151.85699463    0.55000001    2.26999998
   13.16249943  140.99699402    0.55000001    2.26999998
   13.16583252  141.24000549    0.55000001    2.26999998
   13.16888905  150.80499268    0.55000001    2.28999996
   13.17222214  153.69700623    0.55000001    2.26999998
   13.17527771  140.70500183    0.55000001    2.26999998
   13.17861176  137.86700439    0.55000001    2.26999998
   13.18194485  143.70100403    0.55000001    2.26999998
   13.18361092  146.96800232    0.55000001    2.26999998
   13.18555546  149.91999817    0.55000001    2.28999996
   13.18888855  159.48199463    0.55000001    2.26999998
   13.19194412  150.97900391    0.55000001    2.28999996
   13.19527817  156.97200012    0.55000001    2.28999996
   13.19861126  139.89100647    0.55000001    2.28999996
   13.20166683  144.11900330    0.55000001    2.28999996
   13.20499992  143.57200623    0.55000001    2.28999996
   13.20833302  162.20599365    0.55000001    2.28999996
   13.21138859  147.10400391    0.55000001    2.28999996
   13.21472168  147.33000183    0.55000001    2.28999996
   13.21694374  148.26699829    0.55000001    2.28999996
   13.21833324  149.25399780    0.55000001    2.28999996
   13.22166634  155.76800537    0.55000001    2.28999996
   13.22499943  155.82600403    0.55000001    2.28999996
   13.32638836   -1.00000000   -1.00000000   -1.00000000
   13.42833328   -1.00000000   -1.00000000   -1.00000000
   13.52805519   -1.00000000   -1.00000000   -1.00000000
   13.55361176   77.58290100    0.47999999    2.39000010
   13.55666733  143.16099548    0.47999999    2.39000010
   13.56000042  138.17399597    0.47999999    2.39000010
   13.56333351  139.91600037    0.47999999    2.39000010
   13.56638908  140.92399597    0.47999999    2.39000010
   13.56972218  148.61399841    0.47999999    2.39000010
   13.57388878  148.61399841    0.47999999    2.39000010
   13.57805538  139.32499695    0.47999999    2.39000010
   13.58111095  135.72399902    0.47999999    2.39000010
   13.58444405  138.60600281    0.47999999    2.39000010
   13.58666611  139.80999756    0.47999999    2.39000010
   13.58805561  142.20300293    0.47999999    2.39000010
   13.59138870  131.30799866    0.46000001    2.39000010
   13.59444427  138.55200195    0.46000001    2.39000010
   13.59777737  129.27499390    0.47999999    2.39000010
   13.60111141  138.58700562    0.47999999    2.39000010
   13.60416698  133.03999329    0.47999999    2.39000010
   13.60750008  136.21899414    0.46000001    2.39000010
   13.61055565  137.70399475    0.47999999    2.39000010
   13.61694431  137.70399475    0.47999999    2.39000010
   13.62111092  129.59199524    0.47999999    2.39000010
   13.62416649  132.81399536    0.47999999    2.40000010
   13.62750053  135.55000305    0.47999999    2.39000010
   13.63055611  128.61399841    0.47999999    2.40000010
   13.63388920  131.94099426    0.47999999    2.40000010
   13.63722229  136.75799561    0.47999999    2.40000010
   13.64027786  125.43499756    0.47999999    2.39000010
   13.64361095  125.43499756    0.47999999    2.39000010
   13.64694405  133.93400574    0.47999999    2.39000010
   13.64999962  135.47799683    0.47999999    2.39000010
   13.65333271  117.94999695    0.47999999    2.39000010
   13.65388870  126.48100281    0.47999999    2.39000010
   13.65944386  126.48100281    0.47999999    2.39000010
   13.66361046  131.99400330    0.47999999    2.39000010
   13.66694450  135.71600342    0.46000001    2.40000010
   13.67000008  135.18600464    0.46000001    2.40000010
   13.67333412  137.46899414    0.47999999    2.40000010
   13.67666721  129.56199646    0.47999999    2.42000008
   13.67972279  123.76399994    0.47999999    2.42000008
   13.68305588  131.34100342    0.47999999    2.40000010
   13.68638897  134.07200623    0.47999999    2.40000010
   13.68722248  135.27600098    0.47999999    2.40000010
   13.68972206  130.12699890    0.47999999    2.40000010
   13.69305515  131.01199341    0.47999999    2.40000010
   13.69638920  133.18899536    0.46000001    2.40000010
   13.70222187  133.18899536    0.46000001    2.40000010
   13.70638847  139.92500305    0.46000001    2.42000008
   13.70972157  133.44200134    0.46000001    2.42000008
   13.71305561  137.04600525    0.47999999    2.40000010
   13.71611118  120.02999878    0.47999999    2.40000010
   13.71944427  124.57700348    0.47999999    2.40000010
   13.72055531  134.50700378    0.47999999    2.40000010
   13.72277737  130.15100098    0.47999999    2.40000010
   13.72611046  119.88600159    0.47999999    2.42000008
   13.72944355  134.47999573    0.47999999    2.42000008
   13.73249912  129.41000366    0.47999999    2.42000008
   13.73583317  133.39500427    0.47999999    2.40000010
   13.73916721  137.97599792    0.47999999    2.40000010
   13.74527836  137.97599792    0.47999999    2.42000008
   13.74944496  133.69299316    0.47999999    2.42000008
   13.75249958  130.06500244    0.47999999    2.42000008
   13.75388908  127.81700134    0.47999999    2.42000008
   13.75611115  124.13300323    0.47999999    2.42000008
   13.75944424  132.53300476    0.47999999    2.42000008
   13.76277733  130.36300659    0.50000000    2.42000008
   13.76583290  133.63699341    0.47999999    2.42000008
   13.76916599  135.39199829    0.47999999    2.42000008
   13.77250004  130.88299561    0.47999999    2.42000008
   13.77555561  125.37799835    0.47999999    2.42000008
   13.77888870  127.07099915    0.47999999    2.42000008
   13.78222179  129.35200500    0.47999999    2.42000008
   13.78805637  129.35200500    0.47999999    2.42000008
   13.79222298  127.23899841    0.47999999    2.42000008
   13.79527855  121.52700043    0.47999999    2.44000006
   13.79861164  125.31500244    0.47999999    2.42000008
   13.80194473  132.11700439    0.47999999    2.42000008
   13.80500031  127.92900085    0.47999999    2.44000006
   13.80833340  123.09400177    0.47999999    2.42000008
   13.81166649  132.55099487    0.47999999    2.42000008
   13.81472206  129.83099365    0.47999999    2.44000006
   13.81805515  128.43200684    0.47999999    2.44000006
   13.82055569  123.61799622    0.47999999    2.44000006
   13.82194424  121.74600220    0.47999999    2.44000006
   13.82499981  132.57699585    0.47999999    2.44000006
   13.83083344  132.57699585    0.47999999    2.44000006
   13.83500004  124.25299835    0.47999999    2.44000006
   13.83833313  116.36299896    0.47999999    2.44000006
   13.84138870  124.69400024    0.47999999    2.44000006
   13.84472179  127.14199829    0.47999999    2.44000006
   13.84805489  115.17400360    0.47999999    2.44000006
   13.85111141  123.54399872    0.50000000    2.44000006
   13.85388947  129.07000732    0.47999999    2.46000004
   13.85500050  135.42300415    0.47999999    2.46000004
   13.85805607  132.30499268    0.47999999    2.46000004
   13.86138916  125.05799866    0.47999999    2.46000004
   13.86444473  120.79799652    0.47999999    2.42000008
   13.86777782  123.84300232    0.47999999    2.44000006
   13.87361145  123.84300232    0.50000000    2.44000006
   13.87777805  114.16300201    0.47999999    2.44000006
   13.88111115  122.70800018    0.47999999    2.44000006
   13.88444424  127.19100189    0.47999999    2.44000006
   13.88722229  121.59700012    0.47999999    2.44000006
   13.88777733  119.72699738    0.47999999    2.44000006
   13.89111137  111.15699768    0.46000001    2.44000006
   13.89444447  123.05599976    0.46000001    2.44000006
   13.89750004  118.74299622    0.44000000    2.44000006
   13.90083313  130.44099426    0.44000000    2.44000006
   13.90416622  129.23599243    0.44000000    2.44000006
   13.90722179  125.73699951    0.44000000    2.44000006
   13.91055489  129.51300049    0.44000000    2.46000004
   13.91666698  129.51300049    0.44000000    2.46000004
   13.92083359  129.50300598    0.44000000    2.46000004
   13.92388916  124.81199646    0.44000000    2.46000004
   13.92722225  126.59999847    0.44000000    2.46000004
   13.93027782  129.96400452    0.44000000    2.46000004
   13.93361092  126.16000366    0.44000000    2.46000004
   13.93694496  124.13700104    0.44000000    2.44000006
   13.94000053  137.19799805    0.44000000    2.46000004
   13.94333363  116.00299835    0.44000000    2.46000004
   13.94666672  125.05999756    0.44000000    2.46000004
   13.94972229  109.00800323    0.44000000    2.46000004
   13.95305538  119.93399811    0.44000000    2.46000004
   13.95388889  117.91699982    0.44000000    2.46000004
   13.95944405  117.91699982    0.44000000    2.46000004
   13.96361065  124.70200348    0.44000000    2.46000004
   13.96666622  124.11900330    0.44000000    2.46000004
   13.96999931  117.33899689    0.44000000    2.46000004
   13.97333336  126.19400024    0.41999999    2.48000002
   13.97666645  110.13500214    0.41999999    2.46000004
   13.97999954  117.61699677    0.44000000    2.46000004
   13.98305511  122.19699860    0.44000000    2.46000004
   13.98638916  131.59300232    0.41999999    2.46000004
   13.98722267  114.00199890    0.41999999    2.46000004
   13.99027824  127.73799896    0.44000000    2.46000004
   13.99333382  127.56500244    0.44000000    2.46000004
   13.99666691  116.41300201    0.41999999    2.46000004
   14.00222206  116.41300201    0.44000000    2.48000002
   14.00638866  118.85299683    0.41999999    2.46000004
   14.00972176  117.31400299    0.41999999    2.46000004
   14.01277733  118.09999847    0.44000000    2.46000004
   14.01611137  115.67800140    0.44000000    2.46000004
   14.01944447  118.48699951    0.41999999    2.46000004
   14.02055550  113.74700165    0.44000000    2.46000004
   14.02305508  133.45399475    0.44000000    2.46000004
   14.02611065  113.60299683    0.41999999    2.46000004
   14.02944374  114.63200378    0.41999999    2.46000004
   14.03277779  121.41600037    0.41999999    2.46000004
   14.03583336  122.66600037    0.41999999    2.46000004
   14.03916740  127.66400146    0.41999999    2.48000002
   14.04500008  127.66400146    0.41999999    2.46000004
   14.04916668  124.40200043    0.41999999    2.48000002
   14.05249977  124.08699799    0.41999999    2.46000004
   14.05388927  130.09300232    0.41999999    2.46000004
   14.05611134  115.83499908    0.41999999    2.46000004
   14.05916691  123.44799805    0.41999999    2.46000004
   14.06250000  130.56199646    0.41999999    2.46000004
   14.06555557  126.44200134    0.41999999    2.48000002
   14.06888866  118.55500031    0.40000001    2.48000002
   14.07222176  114.30300140    0.40000001    2.48000002
   14.07527733  122.73699951    0.40000001    2.48000002
   14.07861137  124.73200226    0.40000001    2.48000002
   14.08194447  117.15699768    0.40000001    2.48000002
   14.08805561  117.15699768    0.40000001    2.48000002
   14.09194374  116.13500214    0.40000001    2.48000002
   14.09527779  127.71600342    0.40000001    2.48000002
   14.09861088  122.04900360    0.40000001    2.48000002
   14.10166740  119.47799683    0.40000001    2.46000004
   14.10500050  110.78399658    0.40000001    2.48000002
   14.10833359  115.70999908    0.40000001    2.48000002
   14.11138916  121.19200134    0.40000001    2.48000002
   14.11472225  115.54900360    0.40000001    2.48000002
   14.11805534  117.79299927    0.40000001    2.48000002
   14.12055588  119.81099701    0.40000001    2.48000002
   14.12166691  118.63300323    0.40000001    2.48000002
   14.12472248  116.25599670    0.40000001    2.48000002
   14.13083363  116.25599670    0.40000001    2.48000002
   14.13500023  122.54199982    0.40000001    2.48000002
   14.13805580  117.68900299    0.40000001    2.48000002
   14.14138889  120.16699982    0.40000001    2.48000002
   14.14472198  124.74500275    0.40000001    2.48000002
   14.14777756  111.89700317    0.40000001    2.48000002
   14.15111065  117.02600098    0.40000001    2.48000002
   14.15388870  119.60099792    0.40000001    2.48000002
   14.15472221  111.83399963    0.40000001    2.48000002
   14.15777779  119.19999695    0.40000001    2.48000002
   14.16111088  117.86299896    0.40000001    2.48000002
   14.16416645  117.75099945    0.40000001    2.48000002
   14.16750050  108.04799652    0.41999999    2.48000002
   14.17361164  108.04799652    0.40000001    2.48000002
   14.17777824  116.09899902    0.40000001    2.48000002
   14.18111134  116.01499939    0.41999999    2.48000002
   14.18416691  126.89900208    0.41999999    2.48000002
   14.18722248  127.08000183    0.41999999    2.48000002
   14.18805599  121.31900024    0.44000000    2.48000002
   14.19111156  126.49099731    0.44000000    2.48000002
   14.19444466  120.07599640    0.44000000    2.48000002
   14.19750023  117.46900177    0.44000000    2.48000002
   14.20083332  122.84500122    0.44000000    2.48000002
   14.20416641  125.87699890    0.46000001    2.48000002
   14.20722198  127.05699921    0.46000001    2.48000002
   14.21055508  121.91799927    0.47999999    2.50000000
   14.21638870  121.91799927    0.46000001    2.48000002
   14.22055531  114.30699921    0.46000001    2.48000002
   14.22388840  119.51799774    0.47999999    2.48000002
   14.22722149  124.57700348    0.55000001    2.50000000
   14.23055553  128.27200317    0.61000001    2.48000002
   14.23361111  119.40499878    0.61000001    2.48000002
   14.23694515  114.15100098    0.63000000    2.48000002
   14.24027824  118.73999786    0.64999998    2.48000002
   14.24333382  107.02600098    0.64999998    2.48000002
   14.24666691  128.03999329    0.67000002    2.48000002
   14.24972248  117.56800079    0.67000002    2.50000000
   14.25305557  115.36100006    0.67000002    2.50000000
   14.25388908  113.90499878    0.67000002    2.50000000
   14.25944424  113.90499878    0.64999998    2.50000000
   14.26361084  119.14499664    0.70999998    2.50000000
   14.26666641  115.25399780    0.70999998    2.50000000
   14.26999950  113.95500183    0.70999998    2.50000000
   14.27333355  108.90799713    0.70999998    2.48000002
   14.27638817  125.24600220    0.70999998    2.50000000
   14.27972221  119.26699829    0.69000000    2.48000002
   14.28277779  113.97299957    0.69000000    2.48000002
   14.28611183  126.32299805    0.69000000    2.50000000
   14.28722286  119.53299713    0.67000002    2.50000000
   14.28972244  111.59999847    0.67000002    2.50000000
   14.29277802  122.86299896    0.64999998    2.50000000
   14.29611111  123.73999786    0.61000001    2.50000000
   14.30222225  123.73999786    0.61000001    2.50000000
   14.30638885  108.73300171    0.61000001    2.50000000
   14.30944443  123.88999939    0.61000001    2.50000000
   14.31277752  108.44000244    0.58999997    2.50000000
   14.31611156  115.70600128    0.58999997    2.50000000
   14.31916618  123.32299805    0.58999997    2.50000000
   14.32055569  110.47399902    0.58999997    2.50000000
   14.32305527  121.10500336    0.56999999    2.50000000
   14.32611084  112.49500275    0.56999999    2.50000000
   14.32944393  118.80999756    0.55000001    2.50000000
   14.33277798  123.29000092    0.56999999    2.50000000
   14.33583260  119.77799988    0.56999999    2.50000000
   14.33916664  111.81700134    0.56999999    2.50000000
   14.34499931  111.81700134    0.56999999    2.50000000
   14.34916592  121.81600189    0.56999999    2.50000000
   14.35249996  113.52799988    0.56999999    2.50000000
   14.35388947  112.81400299    0.56999999    2.50000000
   14.35611153  111.77899933    0.56999999    2.50000000
   14.35916710  109.25199890    0.52999997    2.50000000
   14.36250019  120.91699982    0.51999998    2.51999998
   14.36583328  129.62300110    0.51999998    2.50000000
   14.36888885  117.58999634    0.51999998    2.50000000
   14.37222195  113.76100159    0.51999998    2.51999998
   14.37555599  122.36299896    0.51999998    2.50000000
   14.37861156  119.98100281    0.51999998    2.50000000
   14.38194466  120.69599915    0.52999997    2.51999998
   14.38777733  120.69599915    0.55000001    2.51999998
   14.39194393  116.60600281    0.56999999    2.51999998
   14.39527798  114.15100098    0.63000000    2.51999998
   14.39833355  117.58100128    0.73000002    2.51999998
   14.40166664  114.10299683    0.73000002    2.51999998
   14.40499973  122.55100250    0.69000000    2.50000000
   14.40805531  125.19799805    0.70999998    2.51999998
   14.41138840  108.89600372    0.73000002    2.51999998
   14.41472149  117.99199677    0.70999998    2.51999998
   14.41777802  125.08999634    0.69000000    2.51999998
   14.42055607  121.75599670    0.69000000    2.51999998
   14.42166710  127.45400238    0.69000000    2.51999998
   14.42472267  122.32099915    0.70999998    2.50000000
   14.43083382  122.32099915    0.64999998    2.51999998
   14.43472195  115.11499786    0.55000001    2.50000000
   14.43805599  121.25599670    0.50000000    2.51999998
   14.44138908  124.89099884    0.46000001    2.51999998
   14.44444466  110.03600311    0.44000000    2.51999998
   14.44777775  119.77999878    0.44000000    2.51999998
   14.45138836  123.35900116    0.44000000    2.51999998
   14.45388889  113.71199799    0.44000000    2.51999998
   14.45499992  113.13700104    0.44000000    2.51999998
   14.45805550  119.19999695    0.44000000    2.50000000
   14.46138859  116.89299774    0.44000000    2.50000000
   14.46472168  117.14900208    0.41999999    2.51999998
   14.46777725  116.28500366    0.44000000    2.51999998
   14.47361088  116.28500366    0.41999999    2.51999998
   14.47777748  120.24900055    0.41999999    2.51999998
   14.48083305  121.80100250    0.41999999    2.51999998
   14.48416710  119.58200073    0.44000000    2.51999998
   14.48722267  122.00499725    0.44000000    2.51999998
   14.48777771  115.94100189    0.44000000    2.51999998
   14.49111176  110.96800232    0.41999999    2.51999998
   14.49416733  115.86499786    0.41999999    2.51999998
   14.49750042  124.63700104    0.41999999    2.51999998
   14.50083351  112.12899780    0.41999999    2.51999998
   14.50388908  108.97899628    0.40000001    2.51999998
   14.50722218  111.76599884    0.40000001    2.51999998
   14.51027775  112.22899628    0.40000001    2.53999996
   14.51638889  112.22899628    0.40000001    2.51999998
   14.52055550  112.76499939    0.40000001    2.53999996
   14.52111053  116.29399872    0.40000001    2.53999996
   14.52416611  102.94300079    0.40000001    2.51999998
   14.52750015  116.55699921    0.40000001    2.51999998
   14.53083324  110.90000153    0.40000001    2.51999998
   14.53388977  112.75000000    0.40000001    2.51999998
   14.53722286  117.49900055    0.40000001    2.51999998
   14.54027843  108.68599701    0.40000001    2.51999998
   14.54361153  116.00099945    0.40000001    2.51999998
   14.54694462  115.70800018    0.40000001    2.51999998
   14.55000019  105.24900055    0.40000001    2.51999998
   14.55333328  109.79000092    0.40000001    2.51999998
   14.55388927  111.58100128    0.40000001    2.51999998
   14.57444477  111.58100128    0.41999999    2.53999996
   14.57861137  113.11399841    0.40000001    2.53999996
   14.58194447  117.02899933    0.40000001    2.53999996
   14.58527756  115.59200287    0.40000001    2.51999998
   14.58722210  130.99200439    0.40000001    2.51999998
   14.58888817  118.75199890    0.40000001    2.53999996
   14.59222221  107.59500122    0.40000001    2.53999996
   14.59527779  117.91899872    0.40000001    2.53999996
   14.59861088  113.44499969    0.40000001    2.53999996
   14.60194492  107.98799896    0.40000001    2.51999998
   14.60500050  112.40799713    0.40000001    2.51999998
   14.60833359  111.04799652    0.40000001    2.53999996
   14.61138916  111.04000092    0.40000001    2.53999996
   14.61722279  111.04000092    0.40000001    2.53999996
   14.62138939  116.46499634    0.40000001    2.55999994
   14.62472248  110.50700378    0.40000001    2.53999996
   14.62805557  113.88400269    0.40000001    2.53999996
   14.63111115  112.40899658    0.40000001    2.53999996
   14.63444424  110.66500092    0.40000001    2.53999996
   14.63749981  110.87100220    0.40000001    2.53999996
   14.64083290  119.67700195    0.40000001    2.53999996
   14.64416695  109.12400055    0.40000001    2.53999996
   14.64722252  119.84100342    0.38000000    2.53999996
   14.65055561  107.55599976    0.38000000    2.53999996
   14.65388870  113.45099640    0.40000001    2.53999996
   14.65444374  113.95999908    0.40000001    2.53999996
   14.66027737  113.95999908    0.38000000    2.53999996
   14.66444397  106.00099945    0.38000000    2.53999996
   14.66750050  117.08899689    0.38000000    2.51999998
   14.67083359  119.25499725    0.38000000    2.51999998
   14.67388916  116.13800049    0.38000000    2.51999998
   14.67750072  110.77500153    0.38000000    2.53999996
   14.68083382  108.66400146    0.36000001    2.53999996
   14.68388939  112.92700195    0.36000001    2.53999996
   14.68722248  116.60299683    0.36000001    2.53999996
   14.68777752  108.19899750    0.36000001    2.53999996
   14.69083309  123.70999908    0.38000000    2.53999996
   14.69388866  111.31400299    0.38000000    2.53999996
   14.69722271  116.94200134    0.36000001    2.53999996
   14.70305538  116.94200134    0.38000000    2.53999996
   14.70722198  113.00099945    0.38000000    2.53999996
   14.71027756  114.20899963    0.36000001    2.55999994
   14.71361065  116.09500122    0.36000001    2.53999996
   14.71694374  113.43299866    0.38000000    2.53999996
   14.71999931  116.58799744    0.36000001    2.55999994
   14.72111034  109.97599792    0.36000001    2.55999994
   14.72388840  108.23200226    0.36000001    2.53999996
   14.72694397  111.51999664    0.36000001    2.53999996
   14.73027706  104.01300049    0.36000001    2.55999994
   14.73361111  105.93499756    0.36000001    2.53999996
   14.73666668  112.21499634    0.36000001    2.53999996
   14.74000072  108.06099701    0.36000001    2.53999996
   14.74583340  108.06099701    0.36000001    2.53999996
   14.75000000  107.88400269    0.36000001    2.53999996
   14.75333309  108.56500244    0.36000001    2.53999996
   14.75444412  109.21499634    0.36000001    2.53999996
   14.75694466  107.17400360    0.36000001    2.53999996
   14.76000023  108.48600006    0.36000001    2.53999996
   14.76333332  114.82399750    0.36000001    2.53999996
   14.76666641  105.38600159    0.34000000    2.53999996
   14.76972198  104.79299927    0.34000000    2.53999996
   14.77305508  109.81199646    0.34000000    2.53999996
   14.77611065  110.20300293    0.34000000    2.53999996
   14.77944374  112.48000336    0.34000000    2.53999996
   14.78277779  119.39299774    0.34000000    2.53999996
   14.78861141  119.39299774    0.34000000    2.53999996
   14.79277802  116.83499908    0.34000000    2.53999996
   14.79611111  117.32900238    0.34000000    2.55999994
   14.79916668  109.97899628    0.34000000    2.53999996
   14.80249977  106.93900299    0.34000000    2.53999996
   14.80583382  111.63700104    0.36000001    2.53999996
   14.80888939  116.88300323    0.34000000    2.53999996
   14.81222248  112.84600067    0.36000001    2.53999996
   14.81555557  107.28600311    0.34000000    2.53999996
   14.81861115  104.73600006    0.36000001    2.53999996
   14.82111073  113.52799988    0.36000001    2.53999996
   14.82250023  114.62699890    0.36000001    2.55999994
   14.82583332  108.77600098    0.36000001    2.55999994
   14.83166695  108.77600098    0.36000001    2.55999994
   14.83555508  113.26799774    0.36000001    2.55999994
   14.83888817  100.87999725    0.36000001    2.53999996
   14.84222221  113.56300354    0.36000001    2.53999996
   14.84527779  112.73000336    0.36000001    2.53999996
   14.84861088  113.81099701    0.34000000    2.53999996
   14.85194492  114.10299683    0.34000000    2.53999996
   14.85444450  114.11599731    0.36000001    2.53999996
   14.85555553  116.95600128    0.36000001    2.53999996
   14.85861111  107.93199921    0.36000001    2.53999996
   14.86194515  103.12500000    0.34000000    2.53999996
   14.86527824  105.74500275    0.34000000    2.53999996
   14.86833382  112.91600037    0.34000000    2.55999994
   14.87444496  112.91600037    0.34000000    2.55999994
   14.87861156  107.80300140    0.36000001    2.53999996
   14.88166714  111.91999817    0.36000001    2.53999996
   14.88500023  114.37300110    0.34000000    2.55999994
   14.88777733  112.43900299    0.34000000    2.55999994
   14.88861084  109.23100281    0.34000000    2.55999994
   14.89166641  118.32900238    0.34000000    2.55999994
   14.89499950  106.15299988    0.34000000    2.53999996
   14.89833355  105.50000000    0.36000001    2.55999994
   14.90138817  117.20300293    0.36000001    2.55999994
   14.90472221  114.87799835    0.36000001    2.55999994
   14.90777779  105.36100006    0.36000001    2.55999994
   14.91111088  118.21800232    0.36000001    2.55999994
   14.91722298  118.21800232    0.36000001    2.55999994
   14.92138958  111.73699951    0.36000001    2.55999994
   14.92472267  103.85800171    0.34000000    2.55999994
   14.92777824  105.40899658    0.34000000    2.55999994
   14.93111134  101.75199890    0.34000000    2.55999994
   14.93416691  104.29900360    0.36000001    2.55999994
   14.93750000  103.75000000    0.36000001    2.55999994
   14.94083309  104.37999725    0.34000000    2.55999994
   14.94388866  108.97399902    0.36000001    2.55999994
   14.94722271  100.53299713    0.36000001    2.55999994
   14.95055580  108.76200104    0.36000001    2.55999994
   14.95361137  105.67600250    0.36000001    2.55999994
   14.95444393  106.96099854    0.36000001    2.55999994
   14.96000004  106.96099854    0.40000001    2.55999994
   14.96416664  107.19100189    0.40000001    2.55999994
   14.96749973  105.17400360    0.41999999    2.55999994
   14.97055531  106.62599945    0.41999999    2.55999994
   14.97388840  119.17900085    0.40000001    2.55999994
   14.97722149  107.48799896    0.55000001    2.55999994
   14.98027706  103.82299805    0.55000001    2.55999994
   14.98361111  108.27999878    0.51999998    2.55999994
   14.98694515  104.74500275    0.55000001    2.55999994
   14.98777771  111.07700348    0.55000001    2.55999994
   14.99055576  102.38999939    0.52999997    2.55999994
   14.99361134  106.46499634    0.52999997    2.53999996
   14.99694443  104.12999725    0.51999998    2.55999994
   15.00305557  104.12999725    0.63000000    2.55999994
   15.00694466  114.03399658    0.63000000    2.55999994
   15.01027775  110.42400360    0.67000002    2.55999994
   15.01361084  113.03099823    0.69000000    2.55999994
   15.01666641  106.32399750    0.73000002    2.55999994
   15.01999950  106.80899811    0.67000002    2.55999994
   15.02111053  114.10500336    0.67000002    2.55999994
   15.02361107  106.19599915    0.58999997    2.55999994
   15.02666664   98.09369659    0.63000000    2.55999994
   15.02999973  110.25099945    0.67000002    2.55999994
   15.03333378  104.66699982    0.67000002    2.55999994
   15.03638935  102.65899658    0.69000000    2.55999994
   15.03972244  102.14499664    0.73000002    2.55999994
   15.04583359  102.14499664    0.79000002    2.53999996
   15.05000019   99.00399780    0.80000001    2.53999996
   15.05305576  100.92800140    0.75000000    2.55999994
   15.05444431  106.89299774    0.75000000    2.55999994
   15.05694485  102.24800110    0.67000002    2.55999994
   15.06000042   98.99130249    0.67000002    2.55999994
   15.06333351  101.59899902    0.61000001    2.55999994
   15.06666660  106.07599640    0.58999997    2.55999994
   15.06972218  106.11100006    0.55000001    2.53999996
   15.07305527  104.02200317    0.51999998    2.55999994
   15.07638836   99.02619934    0.55000001    2.57999992
   15.07944393  106.53600311    0.61000001    2.55999994
   15.08277798  106.96399689    0.61000001    2.55999994
   15.08861065  106.96399689    0.67000002    2.55999994
   15.09277725  107.62599945    0.81999999    2.55999994
   15.09611034   99.65899658    0.81999999    2.55999994
   15.09916592  104.34700012    0.86000001    2.55999994
   15.10249996  105.51499939    0.89999998    2.55999994
   15.10555553  107.37000275    0.89999998    2.55999994
   15.10888958  101.68399811    0.73000002    2.55999994
   15.11222267   98.45220184    0.58999997    2.57999992
   15.11527824  103.48500061    0.58999997    2.57999992
   15.11861134   98.26159668    0.63000000    2.55999994
   15.12111092  104.79599762    0.76999998    2.57999992
   15.12222195   98.22270203    0.76999998    2.57999992
   15.12527752  101.73999786    0.73000002    2.57999992
   15.13138866  101.73999786    0.67000002    2.55999994
   15.13555527  101.58599854    0.67000002    2.57999992
   15.13888836  106.89900208    0.70999998    2.57999992
   15.14194393  101.81300354    0.70999998    2.57999992
   15.14527798   98.47070313    0.69000000    2.55999994
   15.14861107  105.60600281    0.70999998    2.57999992
   15.15166664   99.99430084    0.75000000    2.57999992
   15.15444374  101.02200317    0.75000000    2.55999994
   15.15555477  106.15299988    0.75000000    2.55999994
   15.15888882  109.18800354    0.86000001    2.55999994
   15.16194439  103.33300018    0.89999998    2.55999994
   15.16527748  102.21399689    0.94000000    2.55999994
   15.16861153  103.44499969    0.98000002    2.55999994
   15.17416668  103.44499969    1.00000000    2.55999994
   15.17833328   97.06009674    1.03999996    2.55999994
   15.18166733  101.92299652    1.03999996    2.55999994
   15.18500042  104.86299896    1.01999998    2.55999994
   15.18777752   99.30529785    2.07999992    2.55999994
   15.18861103   99.33139801    2.07999992    2.55999994
   15.19166660  100.69300079    1.83000004    2.55999994
   15.19499969  106.34700012    1.41999996    2.55999994
   15.19833374  100.08699799    1.38000000    2.55999994
   15.20138836  104.93900299    1.38000000    2.55999994
   15.20472240  103.62400055    1.41999996    2.55999994
   15.20805550  104.72499847    1.33000004    2.55999994
   15.21111107  101.54699707    1.21000004    2.55999994
   15.21722221  101.54699707    1.16999996    2.57999992
   15.22138882  101.16200256    1.11000001    2.55999994
   15.22444439  100.64099884    1.21000004    2.55999994
   15.22777748   96.14610291    1.23000002    2.57999992
   15.23083305  101.58000183    0.98000002    2.55999994
   15.23416710  102.09200287    0.88000000    2.57999992
   15.23750019   96.66960144    0.89999998    2.57999992
   15.24055576   98.78720093    0.70999998    2.55999994
   15.24388885  101.37899780    0.69000000    2.55999994
   15.24722290  100.15000153    0.64999998    2.57999992
   15.25027752  104.84100342    0.67000002    2.55999994
   15.25361156  101.72499847    0.70999998    2.57999992
   15.25444412   97.88839722    0.70999998    2.57999992
   15.26000023   97.88839722    0.70999998    2.57999992
   15.26416683   99.34919739    0.76999998    2.55999994
   15.26722240  100.38500214    0.80000001    2.57999992
   15.27055550   99.85250092    0.80000001    2.57999992
   15.27388859  101.31900024    1.16999996    2.57999992
   15.27722168  101.37300110    1.00000000    2.55999994
   15.28027725  100.22399902    0.86000001    2.57999992
   15.28361130  101.40899658    0.64999998    2.57999992
   15.28666687  104.66100311    0.69000000    2.55999994
   15.28777790   98.62950134    0.69000000    2.55999994
   15.29055595  102.40699768    0.63000000    2.57999992
   15.29388905  105.00399780    0.58999997    2.57999992
   15.29694462  107.40599823    0.58999997    2.57999992
   15.30277824  107.40599823    0.55000001    2.57999992
   15.30694485  106.60399628    0.51999998    2.57999992
   15.31027794  102.69400024    0.52999997    2.59999990
   15.31333351   97.46080017    0.55000001    2.57999992
   15.31666660  102.71900177    0.51999998    2.57999992
   15.31999969  101.18000031    0.50000000    2.57999992
   15.32111073   99.08319855    0.50000000    2.57999992
   15.32361126  101.44200134    0.46000001    2.57999992
   15.32694435   96.68609619    0.46000001    2.57999992
   15.32999992  104.65699768    0.44000000    2.59999990
   15.33333302  103.81700134    0.41999999    2.57999992
   15.33638859  101.61599731    0.40000001    2.57999992
   15.33972168  101.78099823    0.41999999    2.59999990
   15.34555531  101.78099823    0.44000000    2.57999992
   15.34972191  100.10199738    0.40000001    2.57999992
   15.35305595   98.21170044    0.40000001    2.57999992
   15.35444450  106.23300171    0.46000001    2.57999992
   15.35666752  107.45500183    0.46000001    2.57999992
   15.36000061  100.13200378    0.56999999    2.57999992
   15.36305618  102.17400360    0.52999997    2.57999992
   15.36638927   95.88449860    0.51999998    2.57999992
   15.36972237  100.66600037    0.51999998    2.57999992
   15.37277794  102.09799957    0.52999997    2.59999990
   15.37611103   99.81719971    0.46000001    2.59999990
   15.37944412   97.81610107    0.46000001    2.59999990
   15.38249969  103.73400116    0.56999999    2.57999992
   15.38861084  103.73400116    0.40000001    2.57999992
   15.39277744  101.50900269    0.40000001    2.57999992
   15.39583302   99.19450378    0.38000000    2.59999990
   15.39916611  101.64299774    0.38000000    2.59999990
   15.40249920   99.98919678    0.34000000    2.57999992
   15.40555477   95.50129700    0.34000000    2.57999992
   15.40888882  104.78900146    0.31999999    2.57999992
   15.41222191  103.83300018    0.31999999    2.57999992
   15.41527748  100.30000305    0.31999999    2.57999992
   15.41861153  105.65599823    0.31999999    2.57999992
   15.42111111  103.30899811    0.31999999    2.59999990
   15.42222214  101.69300079    0.31999999    2.57999992
   15.42555618   97.36360168    0.34000000    2.59999990
   15.43138885   97.36360168    0.34000000    2.57999992
   15.43555546  101.03800201    0.34000000    2.59999990
   15.43861103   98.65080261    0.34000000    2.57999992
   15.44194412  106.06300354    0.38000000    2.57999992
   15.44527817  105.58699799    0.38000000    2.57999992
   15.44833374   98.97049713    0.38000000    2.57999992
   15.45166683  105.82700348    0.40000001    2.59999990
   15.45444393  101.51399994    0.38000000    2.59999990
   15.45527744  104.88899994    0.38000000    2.59999990
   15.45861053  102.93399811    0.40000001    2.57999992
   15.46166611  102.58899689    0.41999999    2.57999992
   15.46500015  100.62599945    0.41999999    2.57999992
   15.46833324  101.70099640    0.40000001    2.57999992
   15.47416592  101.70099640    0.40000001    2.57999992
   15.47833252  102.06999969    0.40000001    2.57999992
   15.48166656  101.12400055    0.38000000    2.59999990
   15.48472214  102.57599640    0.40000001    2.59999990
   15.48777771   97.10910034    0.40000001    2.59999990
   15.48833370   98.55059814    0.40000001    2.59999990
   15.49166679   96.36090088    0.41999999    2.57999992
   15.49472237   98.79470062    0.41999999    2.57999992
   15.49805546  100.86199951    0.44000000    2.57999992
   15.50111103   98.74389648    0.44000000    2.57999992
   15.50444412  102.36199951    0.41999999    2.59999990
   15.50777817   97.53299713    0.41999999    2.59999990
   15.51083374   97.98809814    0.41999999    2.59999990
   15.51694393   97.98809814    0.40000001    2.59999990
   15.52111053   99.81710052    0.38000000    2.59999990
   15.52444458  100.31199646    0.38000000    2.59999990
   15.52777767   95.88580322    0.38000000    2.59999990
   15.53083324   99.10279846    0.41999999    2.59999990
   15.53416729   98.37729645    0.44000000    2.57999992
   15.53722286   96.64099884    0.40000001    2.59999990
   15.54055595   98.48000336    0.41999999    2.57999992
   15.54388905   98.12799835    0.41999999    2.57999992
   15.54694462  102.34899902    0.41999999    2.57999992
   15.55027771   96.15699768    0.44000000    2.59999990
   15.55361176   94.80020142    0.44000000    2.59999990
   15.55444431   99.23310089    0.44000000    2.59999990
   15.56000042   99.23310089    0.47999999    2.59999990
   15.56416702  101.43900299    0.44000000    2.59999990
   15.56722260   99.81770325    0.38000000    2.59999990
   15.57055569   97.72579956    0.38000000    2.59999990
   15.58805561  100.94100189    0.40000001    2.59999990
   15.59055519   97.84690094    0.34000000    2.59999990
   15.59361076   97.86329651    0.31999999    2.59999990
   15.59694386   98.07039642    0.34000000    2.59999990
   15.60305595   98.07039642    0.31999999    2.59999990
   15.60722256   96.57209778    0.38000000    2.59999990
   15.61027813   97.79620361    0.34000000    2.59999990
   15.61361122   99.18479919    0.38000000    2.59999990
   15.61666679  102.22299957    0.40000001    2.59999990
   15.61999989   95.18370056    0.41999999    2.59999990
   15.62138939   95.44029999    0.41999999    2.59999990
   15.62388897   96.65409851    0.44000000    2.59999990
   15.62694454  102.51899719    0.44000000    2.59999990
   15.63027763   99.29779816    0.44000000    2.59999990
   15.63333321   98.64649963    0.50000000    2.59999990
   15.63666630  107.52700043    0.51999998    2.59999990
   15.64000034   95.79889679    0.52999997    2.59999990
   15.64583302   95.79889679    0.55000001    2.59999990
   15.64999962  100.22599792    0.51999998    2.59999990
   15.65305519  104.65000153    0.51999998    2.59999990
   15.65472221  100.80500031    0.50000000    2.59999990
   15.65666676  101.10700226    0.50000000    2.59999990
   15.65999985   94.65560150    0.41999999    2.59999990
   15.66333294  100.65499878    0.47999999    2.59999990
   15.66638851  101.03299713    0.51999998    2.59999990
   15.66972256   99.15390015    0.52999997    2.59999990
   15.67305565  102.09500122    0.47999999    2.59999990
   15.67611122   99.73040009    0.44000000    2.59999990
   15.67944431  100.10800171    0.44000000    2.59999990
   15.68249989  100.14900208    0.41999999    2.59999990
   15.68861103  100.14900208    0.41999999    2.59999990
   15.69277763  102.69599915    0.41999999    2.59999990
   15.69611073  102.20899963    0.44000000    2.59999990
   15.69916630  101.58599854    0.44000000    2.59999990
   15.70249939  100.63999939    0.47999999    2.59999990
   15.70583344   96.73629761    0.52999997    2.59999990
   15.70888901  102.95099640    0.47999999    2.59999990
   15.71222210   98.72550201    0.47999999    2.59999990
   15.71555519   91.34269714    0.47999999    2.59999990
   15.71861076   94.79219818    0.47999999    2.59999990
   15.72138882   98.45099640    0.46000001    2.59999990
   15.72222137   91.04730225    0.46000001    2.59999990
   15.72555542   98.30940247    0.46000001    2.59999990
   15.73138809   98.30940247    0.41999999    2.59999990
   15.73555565   93.18789673    0.38000000    2.59999990
   15.73888874   95.09619904    0.38000000    2.59999990
   15.74222279   98.19969940    0.36000001    2.59999990
   15.74527836   95.34320068    0.38000000    2.59999990
   15.74861145   92.29810333    0.36000001    2.59999990
   15.75166702   95.74500275    0.38000000    2.59999990
   15.75472260   99.33799744    0.38000000    2.61999989
   15.75527763   96.26370239    0.38000000    2.61999989
   15.75861073   99.99230194    0.36000001    2.59999990
   15.76194477  101.52100372    0.36000001    2.59999990
   15.76500034   98.61440277    0.40000001    2.61999989
   15.76833344   94.72409821    0.38000000    2.59999990
   15.77444458   94.72409821    0.46000001    2.59999990
   15.77833271  107.13500214    0.46000001    2.59999990
   15.78166676   94.93219757    0.40000001    2.59999990
   15.78500080   97.43990326    0.34000000    2.59999990
   15.78805637  102.37500000    0.34000000    2.59999990
   15.78833389  101.76699829    0.36000001    2.59999990
   15.79166698   99.25740051    0.36000001    2.59999990
   15.79500008   99.64880371    0.36000001    2.59999990
   15.79805565   92.03720093    0.38000000    2.61999989
   15.80138874   97.19229889    0.40000001    2.61999989
   15.80472279   93.34059906    0.40000001    2.59999990
   15.80777836  102.07599640    0.40000001    2.59999990
   15.81111145   96.57649994    0.41999999    2.61999989
   15.81722260   96.57649994    0.41999999    2.59999990
   15.82138920  101.76699829    0.40000001    2.61999989
   15.82444477   95.00710297    0.40000001    2.61999989
   15.82777786   99.67669678    0.40000001    2.61999989
   15.83111095   98.87779999    0.36000001    2.61999989
   15.83416653   95.77220154    0.40000001    2.59999990
   15.83749962  102.08799744    0.40000001    2.59999990
   15.84055519   96.68560028    0.41999999    2.59999990
   15.84388828   93.82099915    0.41999999    2.59999990
   15.84722233   95.11229706    0.40000001    2.59999990
   15.85027790  102.47899628    0.40000001    2.59999990
   15.85361195  102.83499908    0.41999999    2.59999990
   15.85472298  103.06900024    0.41999999    2.59999990
   15.86000061  103.06900024    0.41999999    2.59999990
   15.86416721   97.62349701    0.40000001    2.61999989
   15.86750031  100.01799774    0.41999999    2.61999989
   15.87055588  102.44200134    0.38000000    2.61999989
   15.87388897   98.15670013    0.38000000    2.59999990
   15.87694454   95.83480072    0.38000000    2.59999990
   15.88027763   95.00260162    0.40000001    2.59999990
   15.88361073  101.65399933    0.40000001    2.61999989
   15.88666630   97.11660004    0.40000001    2.59999990
   15.88805580  102.67500305    0.40000001    2.59999990
   15.89027786   95.00460052    0.44000000    2.59999990
   15.89361095   95.51419830    0.47999999    2.61999989
   15.89694405  100.79900360    0.44000000    2.59999990
   15.90277767  100.79900360    0.40000001    2.59999990
   15.90694427   97.49379730    0.41999999    2.59999990
   15.91027737   97.51210022    0.40000001    2.57999992
   15.91333294   98.21060181    0.41999999    2.59999990
   15.91666698  102.31600189    0.41999999    2.59999990
   15.92000008  100.79599762    0.41999999    2.59999990
   15.92138958   99.95339966    0.41999999    2.59999990
   15.92333412   97.79910278    0.41999999    2.59999990
   15.92666721  102.71299744    0.40000001    2.61999989
   15.93000031   97.15969849    0.40000001    2.61999989
   15.93333340   99.17019653    0.40000001    2.59999990
   15.93638897   99.35260010    0.38000000    2.59999990
   15.93972206   99.80940247    0.38000000    2.59999990
   15.94583321   99.80940247    0.36000001    2.59999990
   15.94972229   98.47119904    0.36000001    2.59999990
   15.95305538   98.73739624    0.36000001    2.61999989
   15.95472240   99.34799957    0.36000001    2.61999989
   15.95694447  101.88700104    0.36000001    2.59999990
   15.96000004  101.44100189    0.34000000    2.59999990
   15.96333313   99.30609894    0.36000001    2.59999990
   15.96666622   94.33390045    0.38000000    2.59999990
   15.96972179  102.43800354    0.38000000    2.59999990
   15.97305489   95.90599823    0.41999999    2.61999989
   15.97611046   98.16570282    0.46000001    2.59999990
   15.97944355   98.84490204    0.47999999    2.59999990
   15.98277760   91.92790222    0.47999999    2.59999990
   15.98861122   91.92790222    0.51999998    2.59999990
   15.99277782   95.53810120    0.58999997    2.59999990
   15.99583340   94.30120087    0.58999997    2.59999990
   15.99916649   97.21900177    0.69000000    2.59999990
   16.00250053  100.90699768    0.44000000    2.61999989
   16.00555611   96.33820343    0.40000001    2.59999990
   16.00888824   97.79260254    0.38000000    2.59999990
   16.01194382   99.65290070    0.40000001    2.59999990
   16.01527786   97.02490234    0.40000001    2.59999990
   16.01861000   91.63179779    0.40000001    2.61999989
   16.02138901   96.03040314    0.36000001    2.59999990
   16.02194405   96.18280029    0.36000001    2.59999990
   16.02527809  104.54299927    0.36000001    2.59999990
   16.03138924  104.54299927    0.40000001    2.59999990
   16.03555489   93.57920074    0.40000001    2.61999989
   16.03888893  106.03199768    0.41999999    2.61999989
   16.04194450   96.83460236    0.41999999    2.61999989
   16.04527664   95.93419647    0.46000001    2.59999990
   16.04861069   93.03900146    0.41999999    2.59999990
   16.05166626   92.89399719    0.41999999    2.59999990
   16.05472183   95.82920074    0.44000000    2.59999990
   16.05555534   97.43710327    0.44000000    2.59999990
   16.05861092   97.89459991    0.44000000    2.59999990
   16.06194305  100.01000214    0.46000001    2.59999990
   16.06527710   95.23259735    0.46000001    2.59999990
   16.06833458   97.27529907    0.46000001    2.59999990
   16.07416725   97.27529907    0.47999999    2.59999990
   16.07833481   97.91089630    0.50000000    2.59999990
   16.08166695   93.19090271    0.47999999    2.59999990
   16.08500099  104.68800354    0.47999999    2.59999990
   16.08805656   96.83499908    0.46000001    2.59999990
   16.08861160   96.98400116    0.46000001    2.59999990
   16.09166718   98.26770020    0.47999999    2.61999989
   16.09500122   96.23889923    0.47999999    2.61999989
   16.09833336   96.49620056    0.44000000    2.61999989
   16.10138893   95.94149780    0.44000000    2.61999989
   16.10472298  100.53800201    0.41999999    2.59999990
   16.10777855   93.62680054    0.41999999    2.59999990
   16.11111069  100.73500061    0.41999999    2.59999990
   16.11722183  100.73500061    0.46000001    2.61999989
   16.12111092   99.10070038    0.47999999    2.61999989
   16.12166595   98.69120026    0.47999999    2.61999989
   16.12500000   94.68959808    0.46000001    2.61999989
   16.12833405   92.00730133    0.46000001    2.61999989
   16.13138962   92.98500061    0.51999998    2.61999989
   16.13472176   95.42849731    0.51999998    2.61999989
   16.13805580   90.88020325    0.52999997    2.61999989
   16.14111137   91.14939880    0.51999998    2.61999989
   16.14444351   94.12400055    0.47999999    2.61999989
   16.14777756   94.14700317    0.46000001    2.59999990
   16.15111160  101.67199707    0.47999999    2.61999989
   16.15416718   94.91729736    0.47999999    2.61999989
   16.15527725   97.91100311    0.44000000    2.61999989
   16.15999985   97.91100311    0.40000001    2.61999989
   16.16416550   95.21450043    0.38000000    2.61999989
   16.16722107  102.33599854    0.38000000    2.61999989
   16.17055511   95.74520111    0.40000001    2.61999989
   16.17388916   95.47190094    0.40000001    2.61999989
   16.17694473   98.09380341    0.40000001    2.61999989
   16.18027687  101.04599762    0.40000001    2.61999989
   16.18333244   98.75620270    0.44000000    2.61999989
   16.18666649   96.77290344    0.44000000    2.61999989
   16.18833160   95.58249664    0.41999999    2.59999990
   16.19027710   93.62100220    0.41999999    2.59999990
   16.19361115   98.80570221    0.41999999    2.61999989
   16.19666672   95.34169769    0.41999999    2.59999990
   16.20277786   95.34169769    0.40000001    2.61999989
   16.20694542   94.17600250    0.41999999    2.59999990
   16.21027946   94.42459869    0.40000001    2.59999990
   16.21333504   99.46759796    0.40000001    2.59999990
   16.21666718   93.70529938    0.36000001    2.61999989
   16.21972275   92.78610229    0.38000000    2.61999989
   16.22166634   92.48739624    0.46000001    2.59999990
   16.22333336   99.04820251    0.46000001    2.59999990
   16.22666740   96.18540192    0.44000000    2.61999989
   16.22972298   92.32170105    0.44000000    2.61999989
   16.23305511   94.56459808    0.38000000    2.61999989
   16.23638916   96.85130310    0.34000000    2.59999990
   16.23944473  102.84600067    0.36000001    2.61999989
   16.24555588  102.84600067    0.36000001    2.59999990
   16.24972153   94.66680145    0.36000001    2.61999989
   16.25305557   93.21600342    0.36000001    2.59999990
   16.25499916   98.22180176    0.36000001    2.59999990
   16.25666618   97.83020020    0.36000001    2.59999990
   16.26000023   89.05120087    0.36000001    2.61999989
   16.26305580   94.00559998    0.34000000    2.61999989
   16.26638794   93.51930237    0.36000001    2.61999989
   16.26972198   92.58509827    0.40000001    2.61999989
   16.27277756   92.78910065    0.46000001    2.59999990
   16.27611160   93.79370117    0.46000001    2.61999989
   16.27944374   93.76490021    0.47999999    2.59999990
   16.28249931   92.62460327    0.50000000    2.61999989
   16.28861046   92.62460327    0.51999998    2.61999989
   16.29277802   93.35829926    0.47999999    2.59999990
   16.29583359   97.71260071    0.47999999    2.59999990
   16.29916573   93.06120300    0.50000000    2.59999990
   16.30222130   92.18939972    0.50000000    2.59999990
   16.30555534   94.11990356    0.50000000    2.61999989
   16.30888748   96.95999908    0.52999997    2.61999989
   16.31194305   94.35729980    0.46000001    2.61999989
   16.31527710   93.04959869    0.46000001    2.61999989
   16.31861115   99.28759766    0.41999999    2.61999989
   16.32166672   95.87699890    0.41999999    2.61999989
   16.32361221   97.27179718    0.38000000    2.61999989
   16.32555580   99.90540314    0.38000000    2.61999989
   16.33139038   99.90540314    0.40000001    2.61999989
   16.33555603   95.06459808    0.38000000    2.61999989
   16.33889008   98.02010345    0.38000000    2.61999989
   16.34222221   90.12899780    0.38000000    2.61999989
   16.34527779  100.87699890    0.38000000    2.61999989
   16.34861183   91.95549774    0.36000001    2.61999989
   16.35194397   94.13189697    0.36000001    2.61999989
   16.35499954   96.41750336    0.41999999    2.59999990
   16.35694504   94.27369690    0.41999999    2.59999990
   16.35888863   94.56109619    0.46000001    2.61999989
   16.36194420   92.26390076    0.44000000    2.59999990
   16.36527824   95.83959961    0.46000001    2.61999989
   16.36833382   92.85919952    0.46000001    2.61999989
   16.37416649   92.85919952    0.50000000    2.59999990
   16.37833405   89.99960327    0.51999998    2.61999989
   16.38166618   93.14869690    0.52999997    2.59999990
   16.38472176   98.01619720    0.56999999    2.59999990
   16.38805580  100.41100311    0.61000001    2.59999990
   16.39027786   92.72730255    0.61000001    2.59999990
   16.39166641   96.88009644    0.56999999    2.61999989
   16.39500046   97.12439728    0.56999999    2.61999989
   16.39805603   92.02519989    0.61000001    2.61999989
   16.40138817  100.44300079    0.80000001    2.61999989
   16.40472221   93.95709991    0.86000001    2.59999990
   16.40777779   93.70709991    0.88000000    2.59999990
   16.41110992   98.88379669    0.76999998    2.61999989
   16.41694450   98.88379669    0.70999998    2.59999990
   16.42111015   94.29759979    0.70999998    2.59999990
   16.42388916   94.05999756    0.69000000    2.59999990
   16.42472076  102.14900208    0.69000000    2.59999990
   16.42805481   95.68759918    1.01999998    2.59999990
   16.43111038   95.10420227    0.98000002    2.59999990
   16.43444443   95.64340210    0.86000001    2.59999990
   16.43777657   95.85949707    0.81999999    2.59999990
   16.44083214   96.97840118    0.75000000    2.59999990
   16.44416618   94.80919647    0.63000000    2.61999989
   16.44749832   91.71759796    0.58999997    2.61999989
   16.45055580   96.68720245    0.58999997    2.61999989
   16.45388985   94.15740204    0.61000001    2.61999989
   16.46000099   94.15740204    0.58999997    2.61999989
   16.46389008   98.20290375    0.61000001    2.61999989
   16.46722221  102.79399872    0.70999998    2.61999989
   16.47055626   99.98470306    0.75000000    2.59999990
   16.47361183   98.47339630    0.73000002    2.59999990
   16.47694588   90.92559814    0.61000001    2.61999989
   16.48027802  104.14299774    0.61000001    2.59999990
   16.48333359   94.94259644    0.73000002    2.59999990
   16.48666763   94.83460236    0.73000002    2.59999990
   16.48999977   98.19159698    0.76999998    2.61999989
   16.49083328   94.13279724    0.69000000    2.61999989
   16.49333382   94.31690216    0.69000000    2.61999989
   16.49666786   96.47730255    0.76999998    2.59999990
   16.50277710   96.47730255    0.61000001    2.59999990
   16.50694466   98.33999634    0.64999998    2.57999992
   16.51000023   93.08809662    0.70999998    2.59999990
   16.51333427   91.55529785    0.70999998    2.59999990
   16.51666641   90.79830170    0.76999998    2.59999990
   16.51972198   92.42859650    0.67000002    2.61999989
   16.52305603   95.66690063    0.67000002    2.61999989
   16.52416611   97.45909882    0.67000002    2.61999989
   16.52694511   92.00740051    0.69000000    2.61999989
   16.53000069  101.11699677    0.75000000    2.59999990
   16.53333282   92.45290375    0.75000000    2.59999990
   16.53638840   95.17780304    0.95999998    2.59999990
   16.53972244   94.88760376    0.95999998    2.59999990
   16.54555511   94.88760376    1.00000000    2.59999990
   16.54972076   95.02010345    0.98000002    2.59999990
   16.55305481   92.01550293    0.79000002    2.61999989
   16.55638885  102.29499817    0.76999998    2.61999989
   16.55749893   94.90940094    0.76999998    2.61999989
   16.55999947   93.74510193    0.70999998    2.59999990
   16.56333351   90.23310089    0.56999999    2.59999990
   16.56638718   99.05549622    0.61000001    2.59999990
   16.56972313   94.25279999    0.61000001    2.59999990
   16.57305717   93.73259735    0.58999997    2.59999990
   16.57611275   96.63870239    0.55000001    2.59999990
   16.57944489   92.98149872    0.50000000    2.61999989
   16.58250046   89.89450073    0.46000001    2.61999989
   16.58833313   89.89450073    0.47999999    2.59999990
   16.60666656   94.05979919    0.47999999    2.61999989
   16.61000061   90.54740143    0.47999999    2.61999989
   16.61333466   99.26010132    0.56999999    2.59999990
   16.61638832   99.49250031    0.55000001    2.61999989
   16.61972237   98.55529785    0.55000001    2.61999989
   16.62305641   95.90589905    0.61000001    2.61999989
   16.62611198   94.15000153    0.61000001    2.61999989
   16.63138962   94.15000153    0.63000000    2.61999989
   16.63555527   92.70099640    0.63000000    2.59999990
   16.63888931   95.54759979    0.64999998    2.59999990
   16.63972282   92.69879913    0.64999998    2.59999990
   16.64249992   96.03959656    0.63000000    2.59999990
   16.64583397   97.63069916    0.63000000    2.59999990
   16.64888954  100.71299744    0.63000000    2.59999990
   16.65222168   96.29930115    0.67000002    2.61999989
   16.65555573  105.35900116    0.61000001    2.61999989
   16.65861130   96.74160004    0.61000001    2.61999989
   16.66194344   93.46260071    0.64999998    2.59999990
   16.66527748   97.77870178    0.64999998    2.59999990
   16.66833305   91.13909912    0.67000002    2.61999989
   16.67444420   91.13909912    0.67000002    2.61999989
   16.67833328   93.72979736    0.56999999    2.61999989
   16.68166542   99.93949890    0.58999997    2.61999989
   16.68499947   92.49880219    0.56999999    2.59999990
   16.68805504   93.14520264    0.56999999    2.59999990
   16.69138718   97.08280182    0.55000001    2.61999989
   16.69472122   95.01290131    0.56999999    2.59999990
   16.69777679   93.13480377    0.58999997    2.59999990
   16.70111275   93.31739807    0.58999997    2.59999990
   16.70416832   95.17040253    0.56999999    2.61999989
   16.70639038   97.77549744    0.56999999    2.61999989
   16.70777893   93.38990021    0.56999999    2.59999990
   16.71111107   97.20749664    0.56999999    2.59999990
   16.71722221   97.20749664    0.55000001    2.59999990
   16.72138977   91.37920380    0.55000001    2.59999990
   16.72444534   96.11990356    0.55000001    2.61999989
   16.72777748   93.71759796    0.51999998    2.61999989
   16.73111153   95.81359863    0.55000001    2.59999990
   16.73416710   90.85949707    0.55000001    2.59999990
   16.73750114   98.53119659    0.67000002    2.59999990
   16.73972321   98.01399994    0.67000002    2.59999990
   16.74111176   90.27850342    0.76999998    2.59999990
   16.74444389   95.16079712    0.61000001    2.59999990
   16.74749947   97.04669952    0.61000001    2.59999990
   16.75083351   97.88339996    0.63000000    2.59999990
   16.75416756   88.24549866    0.80000001    2.59999990
   16.76000023   88.24549866    0.69000000    2.59999990
   16.76416588   91.42310333    0.76999998    2.59999990
   16.76749992   89.72329712    0.81999999    2.59999990
   16.77055550   95.18019867    0.81999999    2.59999990
   16.77333260   87.56069946    0.88000000    2.59999990
   16.77416611   84.41249847    0.88000000    2.59999990
   16.77750015   90.25679779    0.98000002    2.59999990
   16.78055573   94.51129913    0.76999998    2.59999990
   16.78388786   96.12560272    0.76999998    2.59999990
   16.78777695   94.27320099    0.55000001    2.59999990
   16.79111099   98.04660034    0.55000001    2.61999989
   16.79416656   92.96099854    0.56999999    2.61999989
   16.79749870   95.08999634    0.51999998    2.59999990
   16.80277634   95.08999634    0.50000000    2.61999989
   16.80694389   94.96900177    0.56999999    2.59999990
   16.81027794   93.68329620    0.63000000    2.59999990
   16.81361008   89.48930359    0.61000001    2.61999989
   16.81666756   94.62550354    0.56999999    2.59999990
   16.82000160   95.87840271    0.56999999    2.59999990
   16.82305717   91.05269623    0.56999999    2.59999990
   16.82638931   91.59860229    0.52999997    2.59999990
   16.82972336   90.86380005    0.55000001    2.61999989
   16.83277893   90.45610046    0.58999997    2.59999990
   16.83611107   88.10240173    0.58999997    2.59999990
   16.83944511   94.55570221    0.63000000    2.59999990
   16.84000015   94.34670258    0.63000000    2.59999990
   16.84583473   94.34670258    0.67000002    2.59999990
   16.85000038   96.44560242    0.64999998    2.59999990
   16.85305595   91.70649719    0.61000001    2.59999990
   16.85639000   95.00509644    0.61000001    2.61999989
   16.85944557   98.89710236    0.58999997    2.61999989
   16.86277771   95.98310089    0.58999997    2.61999989
   16.86611176   94.59970093    0.61000001    2.61999989
   16.86916733   91.94020081    0.56999999    2.61999989
   16.87249947   94.33300018    0.55000001    2.59999990
   16.87333298   96.34420013    0.55000001    2.59999990
   16.87611198   99.27700043    0.56999999    2.59999990
   16.87944412   98.43129730    0.56999999    2.59999990
   16.88277817   94.49590302    0.55000001    2.59999990
   16.88861084   94.49590302    0.56999999    2.61999989
   16.89277840   99.53589630    0.55000001    2.61999989
   16.89611053   98.67720032    0.52999997    2.61999989
   16.89916611   97.37020111    0.52999997    2.59999990
   16.90250015  104.09899902    0.51999998    2.59999990
   16.90555573  106.02100372    0.50000000    2.61999989
   16.90666580  100.92199707    0.50000000    2.61999989
   16.90944481  101.91699982    0.47999999    2.61999989
   16.91250038  100.16699982    0.47999999    2.61999989
   16.91583252   98.72650146    0.47999999    2.61999989
   16.91888809  100.83499908    0.50000000    2.59999990
   16.92222214  111.61399841    0.50000000    2.61999989
   16.92555428  107.89399719    0.55000001    2.61999989
   16.93138885  107.89399719    0.50000000    2.61999989
   16.93555450  100.03399658    0.52999997    2.59999990
   16.93888855  103.15299988    0.56999999    2.59999990
   16.93999863   99.11750031    0.56999999    2.59999990
   16.94222069  100.77899933    0.64999998    2.59999990
   16.94555473   95.65480042    0.55000001    2.61999989
   16.94888878   98.72440338    0.55000001    2.61999989
   16.95222282  100.52899933    0.52999997    2.61999989
   16.95527840  107.04599762    0.52999997    2.61999989
   16.95861244   97.23480225    0.51999998    2.59999990
   16.96194458   97.43250275    0.50000000    2.59999990
   16.96527863   97.89469910    0.52999997    2.59999990
   16.96861076  101.96800232    0.52999997    2.59999990
   16.97416687  101.96800232    0.56999999    2.59999990
   16.97833443   98.08480072    0.70999998    2.59999990
   16.98166656   96.36599731    0.79000002    2.59999990
   16.98500061   95.72859955    0.67000002    2.59999990
   16.98805618   96.36270142    0.69000000    2.59999990
   16.99138832   98.34049988    0.61000001    2.59999990
   16.99444389  102.51899719    0.61000001    2.59999990
   16.99777794  107.45999908    0.63000000    2.61999989
   17.00111198  102.76100159    0.56999999    2.59999990
   17.00416756  102.56099701    0.63000000    2.59999990
   17.00666618  103.65499878    0.63000000    2.59999990
   17.00777817  107.52600098    0.63000000    2.59999990
   17.01111031  103.59999847    0.61000001    2.59999990
   17.01722145  103.59999847    0.64999998    2.59999990
   17.02138901  100.48999786    0.61000001    2.59999990
   17.02444458   97.28520203    0.58999997    2.59999990
   17.02777672   98.75859833    0.64999998    2.59999990
   17.03083229   99.76280212    0.75000000    2.59999990
   17.03416634  102.14800262    0.75000000    2.59999990
   17.03750038   95.95269775    0.79000002    2.59999990
   17.03999901   91.42289734    0.79000002    2.59999990
   17.04083252  102.51699829    0.61000001    2.59999990
   17.04416656   92.62909698    0.61000001    2.59999990
   17.04749870   95.80629730    0.63000000    2.59999990
   17.05055428   99.82659912    0.73000002    2.59999990
   17.05388832   90.94229889    0.79000002    2.59999990
   17.05999947   90.94229889    0.56999999    2.59999990
   17.06416512   94.39730072    0.63000000    2.59999990
   17.06722260   88.07099915    0.63000000    2.59999990
   17.07055664   91.34619904    0.61000001    2.59999990
   17.07333374   91.15429688    0.61000001    2.59999990
   17.07416725   94.98880005    0.70999998    2.59999990
   17.07750130   94.03379822    0.56999999    2.59999990
   17.08083344   93.97450256    0.56999999    2.59999990
   17.08388901   93.75689697    0.52999997    2.59999990
   17.08722305   93.32530212    0.50000000    2.61999989
   17.09027863   92.19670105    0.47999999    2.61999989
   17.09361267   95.25009918    0.50000000    2.59999990
   17.09694481   96.09950256    0.52999997    2.61999989
   17.10277748   96.09950256    0.51999998    2.59999990
   17.10694504   91.54209900    0.55000001    2.59999990
   17.11027908   90.78510284    0.55000001    2.59999990
   17.11333466   89.34059906    0.55000001    2.59999990
   17.11666679   92.65350342    0.50000000    2.59999990
   17.11972237   91.16819763    0.51999998    2.59999990
   17.12305641   96.90429688    0.51999998    2.61999989
   17.12638855   93.31189728    0.47999999    2.61999989
   17.12944412   90.68759918    0.47999999    2.59999990
   17.13277817   95.17579651    0.50000000    2.61999989
   17.13611031   91.81420135    0.50000000    2.59999990
   17.13916588   92.63819885    0.50000000    2.59999990
   17.13999939   87.53919983    0.51999998    2.61999989
   17.14555550   87.53919983    0.51999998    2.59999990
   17.14972115   89.10189819    0.52999997    2.61999989
   17.15305519   94.87390137    0.52999997    2.59999990
   17.15638924   96.09269714    0.52999997    2.61999989
   17.15944481   96.68370056    0.52999997    2.59999990
   17.16277695   94.74870300    0.51999998    2.61999989
   17.16611099   96.27610016    0.51999998    2.61999989
   17.16916656   93.70079803    0.51999998    2.61999989
   17.17249870   95.75800323    0.50000000    2.61999989
   17.17333221   95.62259674    0.50000000    2.61999989
   17.17611122   97.58260345    0.47999999    2.59999990
   17.17944336   90.25289917    0.46000001    2.61999989
   17.18277740   95.15579987    0.44000000    2.61999989
   17.18861008   95.15579987    0.44000000    2.59999990
   17.19249916   91.80149841    0.44000000    2.61999989
   17.19583321   93.84739685    0.44000000    2.61999989
   17.19916534   92.33840179    0.46000001    2.61999989
   17.20222282   90.91529846    0.46000001    2.61999989
   17.20555687   91.93779755    0.47999999    2.59999990
   17.20666695   89.46589661    0.47999999    2.59999990
   17.20916748   90.05899811    0.47999999    2.59999990
   17.21250153   89.21399689    0.50000000    2.59999990
   17.21583366   95.10900116    0.51999998    2.61999989
   17.21916771   90.28990173    0.55000001    2.59999990
   17.22249985   91.48860168    0.55000001    2.59999990
   17.22555542   96.66840363    0.55000001    2.59999990
   17.23139000   96.66840363    0.50000000    2.59999990
   17.23555565   96.05249786    0.51999998    2.61999989
   17.23861122   90.38330078    0.56999999    2.61999989
   17.23999977   89.14769745    0.56999999    2.61999989
   17.24222183   91.07389832    0.58999997    2.59999990
   17.24555588   94.46410370    0.52999997    2.59999990
   17.24888992   95.28710175    0.52999997    2.59999990
   17.25222206   96.27660370    0.47999999    2.59999990
   17.25527763   91.34860229    0.50000000    2.61999989
   17.25861168   95.73139954    0.44000000    2.61999989
   17.26166725   95.03099823    0.41999999    2.59999990
   17.26499939   93.81819916    0.41999999    2.59999990
   17.26833344   92.96130371    0.40000001    2.61999989
   17.27416611   92.96130371    0.38000000    2.61999989
   17.27833366   93.62079620    0.38000000    2.59999990
   17.28166580   93.95929718    0.38000000    2.61999989
   17.28472137   95.62390137    0.38000000    2.61999989
   17.28805542   90.69789886    0.40000001    2.59999990
   17.29138756   90.49900055    0.40000001    2.59999990
   17.29444313   90.14420319    0.40000001    2.59999990
   17.29777718   91.52179718    0.44000000    2.59999990
   17.30083275   96.08999634    0.46000001    2.61999989
   17.30416679   90.87670135    0.46000001    2.59999990
   17.30666542   89.35720062    0.47999999    2.59999990
   17.30777740   89.55159760    0.47999999    2.59999990
   17.31110954   94.48590088    0.55000001    2.59999990
   17.31694603   94.48590088    0.63000000    2.59999990
   17.32111168   88.29479980    0.69000000    2.59999990
   17.32444572   92.74009705    0.67000002    2.59999990
   17.32750130   88.68659973    0.58999997    2.59999990
   17.33083344   96.88860321    0.61000001    2.59999990
   17.33416748   94.01840210    0.58999997    2.59999990
   17.33722305   88.47799683    0.58999997    2.59999990
   17.34000015   95.53880310    0.58999997    2.59999990
   17.34083366   94.87100220    0.50000000    2.59999990
   17.34416771   94.00679779    0.41999999    2.59999990
   17.34749985   93.72480011    0.41999999    2.59999990
   17.35055542   90.41809845    0.41999999    2.59999990
   17.35388947   94.89260101    0.41999999    2.59999990
   17.36000061   94.89260101    0.41999999    2.59999990
   17.36388969   92.77420044    0.51999998    2.59999990
   17.36722183   94.21679688    0.50000000    2.59999990
   17.37055588   94.27310181    0.46000001    2.59999990
   17.37333298   94.20880127    0.46000001    2.59999990
   17.37388992   97.27510071    0.46000001    2.59999990
   17.37722206   97.22350311    0.51999998    2.59999990
   17.38055611   92.63629913    0.50000000    2.59999990
   17.38361168   96.06880188    0.50000000    2.59999990
   17.38694382   90.35030365    0.55000001    2.59999990
   17.39027786   93.02780151    0.67000002    2.59999990
   17.39333344   91.34300232    0.81999999    2.59999990
   17.39666748   92.87609863    0.89999998    2.59999990
   17.40277672   92.87609863    0.79000002    2.57999992
   17.40694427   92.07430267    0.75000000    2.59999990
   17.40999985   87.88220215    0.70999998    2.59999990
   17.41333389   91.38240051    0.73000002    2.59999990
   17.41666603   93.37319946    0.73000002    2.61999989
   17.41972160   91.60140228    0.67000002    2.57999992
   17.42305565   91.31040192    0.70999998    2.59999990
   17.42638779   87.49089813    0.70999998    2.59999990
   17.42944336   92.75949860    0.70999998    2.59999990
   17.43277740   87.11170197    0.61000001    2.59999990
   17.43583298   93.29750061    0.61000001    2.59999990
   17.43916512   90.94210052    0.61000001    2.59999990
   17.43999863   92.74479675    0.61000001    2.59999990
   17.44555473   92.74479675    0.56999999    2.61999989
   17.44972038   93.43640137    0.58999997    2.59999990
   17.45305634   91.70610046    0.52999997    2.59999990
   17.45611191   92.88420105    0.50000000    2.59999990
   17.45944595   87.96810150    0.50000000    2.59999990
   17.46250153   90.16259766    0.52999997    2.59999990
   17.46583366   91.31780243    0.55000001    2.59999990
   17.46916771   92.46320343    0.55000001    2.59999990
   17.47222328   94.15609741    0.50000000    2.59999990
   17.47333336   95.76180267    0.50000000    2.59999990
   17.47583389   96.00170135    0.50000000    2.61999989
   17.47916794   94.51010132    0.50000000    2.59999990
   17.48250008   97.86519623    0.50000000    2.59999990
   17.48833275   97.86519623    0.47999999    2.57999992
   17.49250031   92.49629974    0.47999999    2.59999990
   17.49583435   94.56990051    0.47999999    2.59999990
   17.49916649   90.13009644    0.46000001    2.59999990
   17.50222206   97.10839844    0.47999999    2.59999990
   17.50555611   97.04170227    0.46000001    2.57999992
   17.50666618   93.10690308    0.46000001    2.57999992
   17.50916672   93.13189697    0.46000001    2.57999992
   17.51222229   90.81109619    0.46000001    2.59999990
   17.51555634   86.65219879    0.44000000    2.59999990
   17.51861000   95.01429749    0.44000000    2.59999990
   17.52194405   88.74250031    0.46000001    2.59999990
   17.52527809   90.97229767    0.46000001    2.59999990
   17.53138924   90.97229767    0.46000001    2.59999990
   17.53527641   98.97730255    0.47999999    2.59999990
   17.53861046   95.38999939    0.47999999    2.59999990
   17.53999901   90.72480011    0.46000001    2.57999992
   17.54249954   93.87100220    0.46000001    2.59999990
   17.54555511   99.70420074    0.46000001    2.59999990
   17.54888916   97.46959686    0.47999999    2.59999990
   17.55194283   94.03099823    0.50000000    2.57999992
   17.55527687   92.16000366    0.50000000    2.59999990
   17.55861092   91.38780212    0.50000000    2.59999990
   17.56194305   98.00050354    0.50000000    2.59999990
   17.56527710   95.85060120    0.50000000    2.59999990
   17.56833458   95.74469757    0.52999997    2.59999990
   17.57416725   95.74469757    0.56999999    2.59999990
   17.57833481   90.11509705    0.52999997    2.59999990
   17.58139038   92.95310211    0.64999998    2.59999990
   17.58472252   99.85369873    0.70999998    2.57999992
   17.58777809   98.00530243    0.67000002    2.59999990
   17.59111214   98.64109802    0.51999998    2.59999990
   17.59444427   97.43070221    0.50000000    2.59999990
   17.59749985   96.17720032    0.47999999    2.57999992
   17.60083389   91.15760040    0.47999999    2.57999992
   17.60416794   94.38860321    0.51999998    2.59999990
   17.60666656   92.79060364    0.47999999    2.59999990
   17.62722206   92.79060364    0.51999998    2.57999992
   17.63138962   97.98889923    0.67000002    2.59999990
   17.63472176   97.89949799    0.67000002    2.59999990
   17.63777733   92.72250366    0.67000002    2.57999992
   17.63999939   94.10189819    0.67000002    2.57999992
   17.64166641   92.86080170    0.67000002    2.59999990
   17.64472198   89.30439758    0.67000002    2.59999990
   17.64805603   94.51640320    0.75000000    2.57999992
   17.65111160   95.06960297    0.73000002    2.59999990
   17.65444374   91.77480316    0.80000001    2.59999990
   17.65777779   92.31230164    0.92000002    2.57999992
   17.66083336   90.18620300    1.03999996    2.57999992
   17.66416550   94.33740234    1.01999998    2.57999992
   17.67000008   94.33740234    1.01999998    2.57999992
   17.67416573   90.99330139    1.03999996    2.57999992
   17.67749977   91.93000031    0.94000000    2.57999992
   17.68055534   91.29949951    0.89999998    2.57999992
   17.68388748   96.61759949    0.89999998    2.59999990
   17.68694305   93.34159851    0.88000000    2.59999990
   17.69027710   93.31819916    0.88000000    2.59999990
   17.69361115  101.91500092    0.81999999    2.59999990
   17.69666672   95.19110107    0.73000002    2.57999992
   17.70000076   98.33499908    0.63000000    2.59999990
   17.70333481   92.19750214    0.63000000    2.59999990
   17.70639038   92.36710358    0.63000000    2.57999992
   17.70694542   94.94930267    0.63000000    2.57999992
   17.71277809   94.94930267    0.61000001    2.57999992
   17.71694565   98.17479706    0.63000000    2.57999992
   17.72027779   92.10559845    0.61000001    2.59999990
   17.72333336   92.51899719    0.61000001    2.59999990
   17.72666740   94.53269958    0.70999998    2.59999990
   17.73000145   90.76309967    0.69000000    2.57999992
   17.73305511   96.48770142    0.81999999    2.57999992
   17.73638916   95.17109680    0.81999999    2.57999992
   17.73972321  100.86799622    0.86000001    2.59999990
   17.74027824   88.86990356    0.86000001    2.59999990
   17.74333382   92.75610352    0.88000000    2.59999990
   17.74638939   95.73079681    0.89999998    2.57999992
   17.74972153   95.41010284    0.86000001    2.59999990
   17.75583267   95.41010284    0.81999999    2.57999992
   17.75972176   91.48840332    0.76999998    2.57999992
   17.76305580   92.56259918    0.75000000    2.59999990
   17.76638794   93.26930237    0.75000000    2.57999992
   17.76944351   89.09649658    0.79000002    2.57999992
   17.77277756   92.21800232    0.92000002    2.57999992
   17.77361107   94.87889862    0.92000002    2.57999992
   17.77638817   95.37449646    0.94000000    2.57999992
   17.77972221   94.79630280    0.94000000    2.57999992
   17.78277779   98.70559692    0.89999998    2.57999992
   17.78610992  102.18499756    1.00000000    2.57999992
   17.78916550   94.76349640    0.89999998    2.59999990
   17.79249954   92.98079681    0.76999998    2.57999992
   17.79861069   92.98079681    0.81999999    2.57999992
   17.80277634   96.70690155    0.83999997    2.57999992
   17.80583191   90.27149963    0.88000000    2.57999992
   17.80694389   93.48999786    0.88000000    2.57999992
   17.80972099   96.74199677    1.03999996    2.57999992
   17.81277657   96.19370270    1.00000000    2.57999992
   17.81611061   93.75039673    0.89999998    2.57999992
   17.81944466   88.04930115    0.81999999    2.57999992
   17.82250023   95.40910339    0.81999999    2.57999992
   17.82583427   97.47370148    0.80000001    2.59999990
   17.82916832   93.25830078    0.80000001    2.57999992
   17.83222389   92.68789673    0.81999999    2.57999992
   17.83555603   89.43859863    0.80000001    2.57999992
   17.84138870   89.43859863    0.92000002    2.57999992
   17.84555626   91.90380096    0.81999999    2.57999992
   17.84889030   92.06120300    0.58999997    2.59999990
   17.85194397   97.74549866    0.58999997    2.57999992
   17.85527802   96.92099762    0.58999997    2.59999990
   17.85833359   95.65489960    0.56999999    2.57999992
   17.86166763   97.85800171    0.63000000    2.57999992
   17.86499977   93.09380341    0.63000000    2.57999992
   17.86805534   91.18599701    0.69000000    2.57999992
   17.87138939   99.32869720    0.69000000    2.57999992
   17.87361145   93.56410217    0.63000000    2.57999992
   17.87500000   92.44059753    0.63000000    2.57999992
   17.87805557   93.13240051    0.58999997    2.57999992
   17.88416672   93.13240051    0.56999999    2.57999992
   17.88833237  101.68199921    0.55000001    2.57999992
   17.89166641   94.45890045    0.52999997    2.57999992
   17.89472198   93.54920197    0.55000001    2.57999992
   17.89805603  101.16100311    0.55000001    2.57999992
   17.90138817   96.85030365    0.55000001    2.57999992
   17.90444374   96.47409821    0.52999997    2.57999992
   17.90694427   97.40160370    0.52999997    2.57999992
   17.90833282   92.97450256    0.52999997    2.57999992
   17.91138840   93.35839844    0.51999998    2.55999994
   17.91472244   98.06990051    0.51999998    2.55999994
   17.91805458  105.83599854    0.51999998    2.57999992
   17.92111015  100.25099945    0.50000000    2.57999992
   17.92722130  100.25099945    0.44000000    2.57999992
   17.93111038   99.58300018    0.44000000    2.59999990
   17.93444443   95.90579987    0.44000000    2.59999990
   17.93777657   97.23179626    0.44000000    2.57999992
   17.94027710   94.17179871    0.44000000    2.57999992
   17.94138718   92.59069824    0.41999999    2.57999992
   17.94444275   96.03359985    0.41999999    2.57999992
   17.94777679   94.42389679    0.46000001    2.57999992
   17.95111275   93.92130280    0.46000001    2.57999992
   17.95416832   93.58219910    0.46000001    2.57999992
   17.95750046   94.76360321    0.50000000    2.57999992
   17.96083450   94.21289825    0.50000000    2.57999992
   17.96389008   94.74089813    0.51999998    2.57999992
   17.97000122   94.74089813    0.51999998    2.59999990
   17.97416687   95.07209778    0.51999998    2.57999992
   17.97722244   95.67040253    0.51999998    2.57999992
   17.98055649   98.21569824    0.52999997    2.57999992
   17.98388863   93.88849640    0.52999997    2.57999992
   17.98694420   97.28199768    0.52999997    2.57999992
   17.99027824   99.93589783    0.55000001    2.57999992
   17.99333382   95.89959717    0.51999998    2.57999992
   17.99666786   97.01760101    0.51999998    2.57999992
   18.00000000   96.28029633    0.51999998    2.57999992
   18.00305557  101.65399933    0.50000000    2.57999992
   18.00638962   97.43560028    0.47999999    2.57999992
   18.00694466   98.28230286    0.47999999    2.57999992
   18.01277733   98.28230286    0.44000000    2.57999992
   18.01694489  100.99900055    0.44000000    2.57999992
   18.02027702   92.57630157    0.44000000    2.57999992
   18.02333260   99.19200134    0.44000000    2.57999992
   18.02666664   92.52439880    0.44000000    2.57999992
   18.03000069   93.22109985    0.46000001    2.57999992
   18.03305435   96.59169769    0.46000001    2.57999992
   18.03638840   92.01580048    0.44000000    2.57999992
   18.03944397   97.90080261    0.46000001    2.57999992
   18.04027748   93.79440308    0.46000001    2.57999992
   18.04333305   93.34249878    0.46000001    2.57999992
   18.04666710   95.18659973    0.58999997    2.57999992
   18.04972076   94.08560181    0.58999997    2.57999992
   18.05555534   94.08560181    0.55000001    2.57999992
   18.05972099   94.52480316    0.56999999    2.57999992
   18.06305504   94.67539978    0.58999997    2.57999992
   18.06611061   94.65029907    0.58999997    2.57999992
   18.06944466   96.02880096    0.63000000    2.57999992
   18.07277870   93.53350067    0.69000000    2.57999992
   18.07361221   93.18689728    0.69000000    2.57999992
   18.07638931   96.45059967    0.67000002    2.57999992
   18.07972336   93.22820282    0.70999998    2.57999992
   18.08277893   96.46700287    0.70999998    2.57999992
   18.08611107   93.05290222    0.75000000    2.55999994
   18.08916664   90.97309875    0.80000001    2.55999994
   18.09250069   89.19020081    0.88000000    2.55999994
   18.09833336   89.19020081    0.83999997    2.55999994
   18.10250092   90.82810211    0.76999998    2.57999992
   18.10583305   97.24420166    0.79000002    2.55999994
   18.10694504   92.51599884    0.79000002    2.55999994
   18.10944557   97.81009674    0.79000002    2.55999994
   18.11277771   89.48049927    0.70999998    2.55999994
   18.11583328   92.95410156    0.69000000    2.57999992
   18.11916733   92.23609924    0.69000000    2.57999992
   18.12249947   93.89389801    0.63000000    2.55999994
   18.12555504   87.76360321    0.56999999    2.55999994
   18.12888908   99.18150330    0.56999999    2.55999994
   18.13222313   98.83950043    0.51999998    2.57999992
   18.13527679   95.43250275    0.51999998    2.55999994
   18.14138794   95.43250275    0.51999998    2.57999992
   18.14555550   97.89510345    0.55000001    2.57999992
   18.14861107   93.11239624    0.51999998    2.55999994
   18.15194321   98.98069763    0.51999998    2.55999994
   18.15499878   91.23429871    0.51999998    2.55999994
   18.15833282   94.10810089    0.50000000    2.57999992
   18.16166687   95.35459900    0.50000000    2.55999994
   18.16472244   91.34619904    0.52999997    2.57999992
   18.16805458   97.84410095    0.52999997    2.57999992
   18.17138863   92.53510284    0.52999997    2.57999992
   18.17361069   96.74680328    0.55000001    2.55999994
   18.17499924   91.77369690    0.55000001    2.55999994
   18.17833328   94.63510132    0.58999997    2.57999992
   18.18416595   94.63510132    0.69000000    2.55999994
   18.18833160   96.79650116    0.76999998    2.57999992
   18.19138718   90.06839752    0.80000001    2.55999994
   18.19472122  100.57499695    0.94000000    2.57999992
   18.19805527   95.33689880    1.11000001    2.55999994
   18.20111275   93.68430328    1.07000005    2.55999994
   18.20444489   95.99690247    1.07000005    2.55999994
   18.20694542   92.82340240    1.07000005    2.55999994
   18.20805550   91.46499634    1.07000005    2.55999994
   18.21138954   98.31790161    1.07000005    2.55999994
   18.21444511   96.27110291    1.07000005    2.55999994
   18.21777916   96.71730042    0.98000002    2.55999994
   18.22083473   89.06999969    0.92000002    2.55999994
   18.22694588   89.06999969    0.83999997    2.55999994
   18.23111153   99.54900360    0.70999998    2.55999994
   18.23444557   99.03710175    0.67000002    2.55999994
   18.23750114   97.98049927    0.67000002    2.55999994
   18.24027824   98.84359741    0.67000002    2.55999994
   18.24111176  100.19400024    0.67000002    2.55999994
   18.24444389   97.58270264    0.67000002    2.55999994
   18.24749947   97.78589630    0.69000000    2.55999994
   18.25083351  100.53199768    0.67000002    2.55999994
   18.25388908  100.08599854    0.75000000    2.55999994
   18.25722313   99.24160004    0.70999998    2.55999994
   18.26055527   98.68080139    0.70999998    2.55999994
   18.26361084   95.39040375    0.79000002    2.55999994
   18.27000046   95.39040375    0.81999999    2.55999994
   18.27416611   96.52970123    0.81999999    2.55999994
   18.27722168   99.71479797    0.81999999    2.55999994
   18.28055573   99.11720276    0.86000001    2.55999994
   18.28361130   92.59970093    0.86000001    2.55999994
   18.28694344   93.28720093    0.81999999    2.55999994
   18.29027748   91.94400024    0.92000002    2.55999994
   18.29333305   90.21630096    0.81999999    2.55999994
   18.29666710   89.89270020    0.81999999    2.55999994
   18.29999924   91.92530060    0.81999999    2.55999994
   18.30305481   95.54209900    0.76999998    2.55999994
   18.30638885   93.24739838    0.70999998    2.55999994
   18.30722237   95.18070221    0.70999998    2.55999994
   18.31277657   95.18070221    0.70999998    2.55999994
   18.31694603   98.67900085    0.79000002    2.55999994
   18.32000160   97.98419952    0.86000001    2.53999996
   18.32333374   95.52339935    0.95999998    2.55999994
   18.32666779   92.99420166    1.00000000    2.55999994
   18.32972336   96.88480377    1.01999998    2.55999994
   18.33305550  101.25599670    1.13000000    2.55999994
   18.33611107   95.68139648    1.13000000    2.55999994
   18.33944511   97.90630341    1.11000001    2.53999996
   18.34027863   98.59179688    1.11000001    2.53999996
   18.34305573   90.57170105    0.95999998    2.53999996
   18.34638977   88.30760193    0.79000002    2.55999994
   18.34944534   93.00009918    0.69000000    2.55999994
   18.35555649   93.00009918    0.64999998    2.53999996
   18.35972214   99.76779938    0.64999998    2.55999994
   18.36277771   99.17669678    0.64999998    2.55999994
   18.36611176   93.80989838    0.63000000    2.55999994
   18.36944389   95.56680298    0.63000000    2.55999994
   18.37249947   94.35859680    0.64999998    2.53999996
   18.37361145   94.97399902    0.64999998    2.53999996
   18.37611198  101.69300079    0.64999998    2.55999994
   18.37944412   98.29650116    0.64999998    2.55999994
   18.38249969   95.99520111    0.67000002    2.53999996
   18.38583374   94.02570343    0.67000002    2.53999996
   18.38916588  102.43499756    0.69000000    2.55999994
   18.39222145   96.31590271    0.67000002    2.53999996
   18.39833260   96.31590271    0.64999998    2.55999994
   18.40250015   95.23970032    0.67000002    2.55999994
   18.40583229   96.57820129    0.67000002    2.53999996
   18.40694427   95.30120087    0.67000002    2.53999996
   18.40944481   86.11550140    0.61000001    2.55999994
   18.41277695   89.51180267    0.61000001    2.55999994
   18.41583252  100.05699921    0.58999997    2.55999994
   18.41916656   95.44149780    0.58999997    2.55999994
   18.42249870   97.95089722    0.58999997    2.55999994
   18.42555428   97.78970337    0.61000001    2.55999994
   18.42888832   99.82610321    0.63000000    2.55999994
   18.43194389   94.23380280    0.61000001    2.55999994
   18.43527603   95.57230377    0.61000001    2.53999996
   18.44111061   95.57230377    0.58999997    2.53999996
   18.44527626   97.17230225    0.58999997    2.55999994
   18.44861031   94.74140167    0.64999998    2.55999994
   18.45194435   97.25129700    0.69000000    2.55999994
   18.45499992   97.30349731    0.69000000    2.55999994
   18.45833397   97.27850342    0.69000000    2.55999994
   18.46138954   95.85269928    0.64999998    2.55999994
   18.46472359   95.38330078    0.64999998    2.55999994
   18.46805573   96.28060150    0.64999998    2.55999994
   18.47111130   99.50569916    0.67000002    2.53999996
   18.47389030   95.37169647    0.67000002    2.53999996
   18.47472191   97.68879700    0.67000002    2.53999996
   18.47805595  102.63400269    0.64999998    2.55999994
   18.48416710  102.63400269    0.67000002    2.55999994
   18.48833275   92.64610291    0.67000002    2.55999994
   18.49138832   97.10119629    0.67000002    2.53999996
   18.49472237   91.44589996    0.63000000    2.53999996
   18.49805641   95.09359741    0.63000000    2.53999996
   18.50111198   96.82540131    0.61000001    2.55999994
   18.50444412   95.13230133    0.64999998    2.53999996
   18.50694466   94.97280121    0.69000000    2.55999994
   18.50805473  101.33999634    0.70999998    2.55999994
   18.51138878  103.51399994    0.75000000    2.55999994
   18.51444435   97.93430328    0.69000000    2.53999996
   18.51777840  103.71700287    0.73000002    2.53999996
   18.52111053   95.12590027    0.67000002    2.55999994
   18.52694511   95.12590027    0.67000002    2.55999994
   18.53111076  102.28399658    0.67000002    2.53999996
   18.53416634  100.93599701    0.63000000    2.53999996
   18.53750038  102.65200043    0.61000001    2.53999996
   18.54027748   96.53710175    0.58999997    2.53999996
   18.54111099   99.17169952    0.58999997    2.53999996
   18.54444313   98.82730103    0.58999997    2.53999996
   18.54749870   94.37280273    0.51999998    2.53999996
   18.55083275   95.49079895    0.50000000    2.53999996
   18.55416679   97.86930084    0.50000000    2.53999996
   18.55722237  103.07499695    0.51999998    2.53999996
   18.56055450   99.70249939    0.44000000    2.53999996
   18.56388855  101.18900299    0.44000000    2.53999996
   18.56972313  101.18900299    0.44000000    2.55999994
   18.57389069  111.02100372    0.44000000    2.53999996
   18.57722282  102.97799683    0.46000001    2.53999996
   18.58027840  101.61299896    0.46000001    2.53999996
   18.58361244  100.21600342    0.46000001    2.53999996
   18.58694458  100.37599945    0.46000001    2.53999996
   18.59000015  101.40100098    0.47999999    2.53999996
   18.59333420  104.25900269    0.50000000    2.53999996
   18.59666824   98.91999817    0.50000000    2.53999996
   18.59972191  103.41400146    0.51999998    2.53999996
   18.60305595  101.15399933    0.56999999    2.53999996
   18.60611153   96.96820068    0.63000000    2.53999996
   18.60722351   98.04460144    0.63000000    2.53999996
   18.61250114   98.04460144    0.69000000    2.53999996
   18.61666679   97.59349823    0.67000002    2.53999996
   18.62000084  105.78800201    0.67000002    2.53999996
   18.62333298   99.99400330    0.69000000    2.53999996
   18.64083290  101.30500031    0.70999998    2.51999998
   18.64333344  101.35900116    0.75000000    2.53999996
   18.64666748  102.35399628    0.75000000    2.53999996
   18.64972115  105.89099884    0.86000001    2.53999996
   18.65555573  105.89099884    0.80000001    2.53999996
   18.65972137   98.29799652    0.73000002    2.51999998
   18.66305542   97.63490295    0.75000000    2.53999996
   18.66638756   99.73400116    0.75000000    2.53999996
   18.66944313  104.50000000    0.67000002    2.53999996
   18.67277718  105.61399841    0.58999997    2.53999996
   18.67416573   98.46869659    0.58999997    2.53999996
   18.67638779  101.23200226    0.58999997    2.51999998
   18.67972183   96.06140137    0.58999997    2.51999998
   18.68305397   99.78320313    0.58999997    2.53999996
   18.68610954   96.06980133    0.61000001    2.53999996
   18.68944359   98.47669983    0.67000002    2.53999996
   18.69249916   98.03140259    0.70999998    2.51999998
   18.69861031   98.03140259    0.76999998    2.51999998
   18.70277786  100.91200256    0.79000002    2.53999996
   18.70583344   99.59940338    0.80000001    2.53999996
   18.70750046   98.51830292    0.80000001    2.53999996
   18.70944595   93.40889740    0.75000000    2.51999998
   18.71277809   95.73629761    0.70999998    2.51999998
   18.71611214  102.97899628    0.73000002    2.51999998
   18.71916771  100.48300171    0.75000000    2.51999998
   18.72249985  103.53800201    0.75000000    2.51999998
   18.72583389   96.22239685    0.76999998    2.51999998
   18.72888947   98.75900269    0.76999998    2.51999998
   18.73222351  106.20500183    0.76999998    2.53999996
   18.73555565  104.17299652    0.75000000    2.51999998
   18.74138832  104.17299652    0.76999998    2.51999998
   18.74555588  100.01899719    0.76999998    2.53999996
   18.74861145  101.69200134    0.80000001    2.51999998
   18.75194359   97.05269623    0.80000001    2.51999998
   18.75527763   98.51170349    0.83999997    2.51999998
   18.75861168  101.20400238    0.86000001    2.51999998
   18.76166725   95.04290009    0.86000001    2.51999998
   18.76499939   98.83470154    0.86000001    2.51999998
   18.76833344   93.48349762    0.81999999    2.51999998
   18.77138901   94.69730377    0.73000002    2.51999998
   18.77416611  103.33000183    0.73000002    2.51999998
   18.77527809   99.16369629    0.73000002    2.51999998
   18.77861023  101.61199951    0.67000002    2.51999998
   18.78416634  101.61199951    0.67000002    2.51999998
   18.78833199   94.60489655    0.67000002    2.51999998
   18.79166603   95.29640198    0.70999998    2.51999998
   18.79472160  103.94499969    0.75000000    2.51999998
   18.79805565  100.98200226    0.75000000    2.51999998
   18.80138779  101.67700195    1.14999998    2.51999998
   18.80444336  102.89600372    1.05999994    2.50000000
   18.80749893  100.23300171    1.07000005    2.51999998
   18.80805397   95.65689850    1.07000005    2.51999998
   18.81138802   97.82599640    0.98000002    2.51999998
   18.81444359  102.37100220    0.98000002    2.51999998
   18.81777954  101.24900055    0.86000001    2.51999998
   18.82111168  107.05400085    1.00000000    2.51999998
   18.82694626  107.05400085    0.98000002    2.51999998
   18.83111191  101.59700012    0.94000000    2.51999998
   18.83444595   97.96820068    0.92000002    2.51999998
   18.83777809   99.62110138    0.94000000    2.51999998
   18.84083366  101.03800201    0.94000000    2.51999998
   18.84138870  104.19000244    0.94000000    2.51999998
   18.84472275   95.92549896    1.03999996    2.51999998
   18.84805679   98.96029663    1.14999998    2.51999998
   18.85111237   96.42849731    1.14999998    2.51999998
   18.85444450   94.27799988    1.19000006    2.50000000
   18.85777855  107.13300323    1.21000004    2.51999998
   18.86083412   97.00959778    1.21000004    2.50000000
   18.86416626   97.96070099    1.13000000    2.51999998
   18.87000084   97.96070099    1.05999994    2.50000000
   18.87388992  104.75800323    0.92000002    2.51999998
   18.87444496  105.09100342    0.92000002    2.51999998
   18.87777710   96.39160156    0.86000001    2.50000000
   18.88111115  101.31099701    0.86000001    2.50000000
   18.88416672  100.12599945    0.79000002    2.50000000
   18.88750076   96.50540161    0.76999998    2.50000000
   18.89083290  100.12999725    0.76999998    2.50000000
   18.89388847  101.50000000    0.73000002    2.51999998
   18.89722252  100.02100372    0.75000000    2.51999998
   18.90055466  104.74800110    0.75000000    2.51999998
   18.90361023  101.10500336    0.79000002    2.50000000
   18.90694427  104.39800262    0.73000002    2.50000000
   18.90777779  103.67099762    0.73000002    2.50000000
   18.91277695  103.67099762    0.69000000    2.51999998
   18.91694450   98.70099640    0.64999998    2.50000000
   18.92027664   99.36630249    0.58999997    2.51999998
   18.92361069  101.59899902    0.58999997    2.51999998
   18.92666626  102.01100159    0.55000001    2.51999998
   18.93000031  100.94400024    0.56999999    2.51999998
   18.93333244   97.17040253    0.63000000    2.50000000
   18.93638802   97.03209686    0.69000000    2.50000000
   18.93972206   96.88839722    0.67000002    2.50000000
   18.94111061  103.69100189    0.67000002    2.50000000
   18.94333267  100.76499939    0.70999998    2.50000000
   18.94666672   98.55809784    0.75000000    2.50000000
   18.94972038   98.66310120    0.75000000    2.50000000
   18.95555687   98.66310120    0.89999998    2.50000000
   18.95972252  102.62599945    0.88000000    2.50000000
   18.96305656  107.69999695    0.88000000    2.50000000
   18.96611214  104.19699860    0.81999999    2.50000000
   18.96944427   98.50099945    0.80000001    2.50000000
   18.97249985  103.97699738    0.75000000    2.50000000
   18.97444534  102.55000305    0.75000000    2.50000000
   18.97638893  107.55100250    0.76999998    2.50000000
   18.97972298   99.18019867    0.88000000    2.50000000
   18.98277855  106.77899933    0.89999998    2.48000002
   18.98611069  104.29100037    0.86000001    2.50000000
   18.98944473  110.78700256    0.81999999    2.50000000
   18.99250031  105.82299805    0.83999997    2.50000000
   18.99833298  105.82299805    0.73000002    2.50000000
   19.00250053   94.13629913    0.63000000    2.50000000
   19.00583267   96.86479950    0.63000000    2.50000000
   19.00777817  103.26799774    0.63000000    2.50000000
   19.00944519  105.93000031    0.63000000    2.50000000
   19.01277733  102.38800049    0.63000000    2.50000000
   19.01583290  101.30899811    0.58999997    2.48000002
   19.01916695  105.17400360    0.61000001    2.50000000
   19.02249908  107.30300140    0.61000001    2.50000000
   19.02555466   98.88009644    0.61000001    2.50000000
   19.02888870  103.46600342    0.64999998    2.50000000
   19.03194427  102.37400055    0.64999998    2.50000000
   19.03527641  101.30200195    0.67000002    2.50000000
   19.04138756  101.30200195    0.79000002    2.50000000
   19.04555511  102.40299988    0.76999998    2.48000002
   19.04861069   98.29650116    0.76999998    2.50000000
   19.05194283   93.11450195    0.76999998    2.50000000
   19.05499840  102.40899658    0.83999997    2.48000002
   19.05833244   88.87550354    0.92000002    2.48000002
   19.06166649   99.80960083    0.94000000    2.48000002
   19.06472206   98.09149933    0.92000002    2.48000002
   19.06805611  105.09500122    0.95999998    2.48000002
   19.07139015  103.58699799    0.92000002    2.50000000
   19.07472229  104.70999908    0.92000002    2.50000000
   19.07500076   97.01090240    0.92000002    2.50000000
   19.07833481   93.36380005    0.88000000    2.48000002
   19.08416748   93.36380005    0.79000002    2.50000000
   19.08833313   99.76480103    0.80000001    2.48000002
   19.09138870   99.34680176    0.89999998    2.48000002
   19.09472275  107.68399811    0.92000002    2.48000002
   19.09805679   96.48120117    0.89999998    2.48000002
   19.10111237   99.26200104    0.89999998    2.48000002
   19.10444450  105.31900024    0.88000000    2.48000002
   19.10777855   95.27549744    0.81999999    2.48000002
   19.10805511   95.57319641    0.81999999    2.48000002
   19.11138916   98.90280151    0.80000001    2.48000002
   19.11472321   96.87840271    0.80000001    2.48000002
   19.11777878   98.95960236    0.79000002    2.48000002
   19.12111092   98.74810028    0.76999998    2.48000002
   19.12694550   98.74810028    0.73000002    2.48000002
   19.13111115   95.49269867    0.73000002    2.48000002
   19.13444519   97.26480103    0.81999999    2.48000002
   19.13750076   89.42970276    0.81999999    2.48000002
   19.14083290  102.50399780    0.75000000    2.48000002
   19.14138794   99.47989655    0.75000000    2.48000002
   19.14444351   95.17299652    0.69000000    2.48000002
   19.14777756  101.35600281    0.67000002    2.50000000
   19.15083313  101.22000122    0.61000001    2.48000002
   19.15416718   97.19930267    0.63000000    2.48000002
   19.15749931   93.81739807    0.69000000    2.48000002
   19.16055489  103.49299622    0.69000000    2.48000002
   19.16388893   99.95089722    0.70999998    2.48000002
   19.16972160   99.95089722    0.76999998    2.48000002
   19.17388916   98.51830292    0.76999998    2.48000002
   19.17472076  102.82499695    0.76999998    2.48000002
   19.17749977  100.71700287    0.83999997    2.48000002
   19.18083191   97.25340271    0.86000001    2.48000002
   19.18388748   99.39240265    0.83999997    2.48000002
   19.18722153   98.40650177    0.83999997    2.48000002
   19.19055557  105.77200317    0.89999998    2.48000002
   19.19361115   98.44000244    0.80000001    2.48000002
   19.19694328   97.10220337    0.75000000    2.48000002
   19.20027924  103.84500122    0.73000002    2.48000002
   19.20333481  100.40200043    0.69000000    2.48000002
   19.20666695   96.80249786    0.70999998    2.48000002
   19.20805550   97.70929718    0.70999998    2.48000002
   19.21277809   97.70929718    0.67000002    2.48000002
   19.21666718   99.56430054    0.67000002    2.48000002
   19.22000122   99.88420105    0.73000002    2.48000002
   19.22333336   92.50700378    0.75000000    2.48000002
   19.22638893   93.84089661    0.75000000    2.46000004
   19.22972298   96.86260223    0.75000000    2.48000002
   19.23305511   97.04100037    0.70999998    2.46000004
   19.23611069   98.07109833    0.70999998    2.46000004
   19.23944473   96.92790222    0.70999998    2.46000004
   19.24166679  100.26300049    0.73000002    2.48000002
   19.24305534   95.16320038    0.73000002    2.48000002
   19.24638939   98.94149780    0.69000000    2.48000002
   19.24944496   98.28230286    0.69000000    2.48000002
   19.25555611   98.28230286    0.64999998    2.48000002
   19.25972176   95.34929657    0.63000000    2.46000004
   19.26277733   97.80039978    0.61000001    2.48000002
   19.26611137  100.42900085    0.61000001    2.46000004
   19.26944351   96.88649750    0.61000001    2.48000002
   19.27249908   99.45980072    0.61000001    2.48000002
   19.27499962  100.31800079    0.61000001    2.48000002
   19.27611160   99.16359711    0.61000001    2.48000002
   19.27944374  105.76899719    0.56999999    2.46000004
   19.28249931  103.74099731    0.55000001    2.48000002
   19.28583336   96.55760193    0.55000001    2.48000002
   19.28916550   94.81819916    0.55000001    2.46000004
   19.29249954   97.06060028    0.52999997    2.46000004
   19.29833221   97.06060028    0.55000001    2.46000004
   19.30249977   96.17559814    0.56999999    2.46000004
   19.30583191  100.70300293    0.56999999    2.46000004
   19.30833244   99.26920319    0.61000001    2.46000004
   19.30916595   96.33689880    0.61000001    2.46000004
   19.31250000   99.09459686    0.63000000    2.46000004
   19.31583214   96.54789734    0.64999998    2.46000004
   19.31888962   98.77279663    0.64999998    2.48000002
   19.32222366  103.61900330    0.63000000    2.46000004
   19.32527924  102.00199890    0.64999998    2.46000004
   19.32861137   99.49620056    0.64999998    2.46000004
   19.33194542  101.35800171    0.64999998    2.46000004
   19.33500099  102.00700378    0.63000000    2.46000004
   19.34111214  102.00700378    0.61000001    2.46000004
   19.34527779  100.62400055    0.61000001    2.46000004
   19.34861183  104.83699799    0.58999997    2.46000004
   19.35166740   97.56670380    0.56999999    2.46000004
   19.35499954  105.72200012    0.56999999    2.46000004
   19.35833359   96.93800354    0.58999997    2.46000004
   19.36138916  102.71900177    0.58999997    2.46000004
   19.36472321  101.68599701    0.58999997    2.46000004
   19.36805534   98.24040222    0.58999997    2.46000004
   19.37111092  102.91999817    0.58999997    2.46000004
   19.37444496  105.94899750    0.58999997    2.46000004
   19.37611198  102.08699799    0.58999997    2.46000004
   19.37805557  100.67299652    0.61000001    2.46000004
   19.38416672  100.67299652    0.67000002    2.46000004
   19.38805580  101.08999634    0.64999998    2.44000006
   19.39138794  100.83799744    0.64999998    2.44000006
   19.39472198  106.82900238    0.63000000    2.46000004
   19.39777756  106.58100128    0.58999997    2.44000006
   19.40111160  102.78299713    0.56999999    2.46000004
   19.40444374  107.74099731    0.56999999    2.46000004
   19.40749931  104.01599884    0.56999999    2.44000006
   19.40972137   99.66680145    0.56999999    2.44000006
   19.41110992  102.16600037    0.56999999    2.44000006
   19.41444397  104.63099670    0.55000001    2.44000006
   19.41777802  102.67600250    0.55000001    2.46000004
   19.42083359  100.84100342    0.55000001    2.46000004
   19.42694473  100.84100342    0.55000001    2.46000004
   19.43111038   99.02940369    0.56999999    2.44000006
   19.43416595  102.23100281    0.55000001    2.46000004
   19.43750000  102.57399750    0.56999999    2.44000006
   19.44083214   99.56140137    0.55000001    2.46000004
   19.44305420  101.22899628    0.56999999    2.44000006
   19.44444275  101.51000214    0.56999999    2.44000006
   19.44777679   99.27369690    0.56999999    2.44000006
   19.45083427  100.71499634    0.56999999    2.44000006
   19.45416832  102.01000214    0.56999999    2.44000006
   19.45722389  103.09400177    0.56999999    2.44000006
   19.46055603   98.72409821    0.56999999    2.44000006
   19.46389008  101.42400360    0.58999997    2.44000006
   19.46972275  101.42400360    0.58999997    2.44000006
   19.47389030  103.88999939    0.58999997    2.42000008
   19.47638893  106.80799866    0.58999997    2.42000008
   19.47750092  100.69999695    0.56999999    2.44000006
   19.48055649  100.23400116    0.56999999    2.44000006
   19.48388863  100.97699738    0.56999999    2.44000006
   19.48722267  106.88200378    0.56999999    2.44000006
   19.49027824  103.72299957    0.56999999    2.44000006
   19.49361229   99.52559662    0.52999997    2.44000006
   19.49694443  104.99400330    0.55000001    2.44000006
   19.50027847  101.91799927    0.55000001    2.44000006
   19.50333405  107.78299713    0.55000001    2.44000006
   19.50666618  101.16600037    0.55000001    2.44000006
   19.51277733  101.16600037    0.55000001    2.42000008
   19.51694489   98.86319733    0.56999999    2.42000008
   19.52000046   97.93260193    0.61000001    2.44000006
   19.52333260   93.59030151    0.61000001    2.42000008
   19.52666664   97.18190002    0.61000001    2.44000006
   19.52972221   99.21869659    0.61000001    2.44000006
   19.53305435  103.18299866    0.58999997    2.42000008
   19.53610992   98.93840027    0.56999999    2.42000008
   19.53944397  101.26699829    0.55000001    2.42000008
   19.54277802  101.85099792    0.52999997    2.42000008
   19.54333305  100.79299927    0.52999997    2.42000008
   19.54638863  104.18099976    0.51999998    2.42000008
   19.54972076   97.43000031    0.50000000    2.42000008
   19.55527687   97.43000031    0.47999999    2.42000008
   19.55944443  102.34100342    0.50000000    2.42000008
   19.56277657  100.99299622    0.50000000    2.42000008
   19.56611061  102.65000153    0.52999997    2.42000008
   19.56916809   94.40260315    0.52999997    2.42000008
   19.57250023  100.27700043    0.52999997    2.42000008
   19.57555580   99.09999847    0.55000001    2.42000008
   19.57666779   96.92859650    0.55000001    2.42000008
   19.57944489  101.27700043    0.56999999    2.42000008
   19.58277893  105.99199677    0.55000001    2.42000008
   19.58583450  101.91600037    0.55000001    2.42000008
   19.58916664  104.76999664    0.55000001    2.42000008
   19.59222221   96.32119751    0.56999999    2.42000008
   19.59833336   96.32119751    0.56999999    2.40000010
   19.60222244  101.51899719    0.56999999    2.42000008
   19.60555649   98.83820343    0.55000001    2.40000010
   19.60916710  103.53600311    0.55000001    2.42000008
   19.61027908  104.08699799    0.55000001    2.42000008
   19.61277771  101.68699646    0.56999999    2.42000008
   19.61583328  102.08200073    0.58999997    2.40000010
   19.61916733   97.03199768    0.58999997    2.40000010
   19.62249947  100.32399750    0.58999997    2.42000008
   19.62555504  103.12300110    0.61000001    2.42000008
   19.62888908  106.31099701    0.61000001    2.40000010
   19.63222313  105.06900024    0.61000001    2.40000010
   19.63527679  102.70899963    0.61000001    2.40000010
   19.64111137  102.70899963    0.64999998    2.40000010
   19.65944481   89.78279877    0.67000002    2.40000010
   19.66277695   99.00700378    0.79000002    2.40000010
   19.66583252   97.36579895    0.79000002    2.40000010
   19.66916656  102.59100342    0.76999998    2.40000010
   19.67249870  121.83100128    0.69000000    2.40000010
   19.67555428  188.44999695    0.64999998    2.40000010
   19.67888832   -1.00000000    0.64999998    2.40000010
   19.68833160   -1.00000000    0.64999998    2.39000010
   19.69138718   -1.00000000    0.63000000    2.40000010
   19.69499969   -1.00000000    0.63000000    2.40000010
   19.69833183   -1.00000000    0.64999998    2.40000010
   19.70166779   -1.00000000    0.64999998    2.40000010
   19.70472336   -1.00000000    0.64999998    2.39000010
   19.70805550   -1.00000000    0.67000002    2.40000010
   19.71138954   -1.00000000    0.70999998    2.39000010
   19.71444511   -1.00000000    0.70999998    2.40000010
   19.71777916   -1.00000000    0.70999998    2.39000010
   19.72083473   -1.00000000    0.75000000    2.39000010
   19.73111153   -1.00000000    0.76999998    2.40000010
   19.73444557   -1.00000000    0.76999998    2.40000010
   19.73750114   -1.00000000    0.79000002    2.40000010
   19.74083328   -1.00000000    0.79000002    2.39000010
   19.74388885   -1.00000000    0.79000002    2.39000010
   19.74722290   -1.00000000    0.80000001    2.39000010
   19.75055504   -1.00000000    0.80000001    2.39000010
   19.75361061   -1.00000000    0.80000001    2.39000010
   19.75694466   -1.00000000    0.81999999    2.36999989
   19.76055527   -1.00000000    0.81999999    2.39000010
   19.76388931   -1.00000000    0.80000001    2.39000010
   19.77388954   -1.00000000    0.79000002    2.36999989
   19.77722168   -1.00000000    0.79000002    2.36999989
   19.78027725   -1.00000000    0.79000002    2.36999989
   19.78361130   -1.00000000    0.79000002    2.39000010
   19.78694344   -1.00000000    0.76999998    2.39000010
   19.78999901   -1.00000000    0.79000002    2.39000010
   19.79333305   -1.00000000    0.79000002    2.36999989
   19.79666710   -1.00000000    0.79000002    2.36999989
   19.79999924   -1.00000000    0.79000002    2.36999989
   19.80305481   -1.00000000    0.79000002    2.39000010
   19.80638885   -1.00000000    0.79000002    2.39000010
   19.81666756   -1.00000000    0.79000002    2.39000010
   19.82000160   -1.00000000    0.79000002    2.36999989
   19.82333374   -1.00000000    0.76999998    2.39000010
   19.82694626   -1.00000000    0.76999998    2.36999989
   19.83000183   -1.00000000    0.75000000    2.36999989
   19.83333397   -1.00000000    0.76999998    2.39000010
   19.83638954   -1.00000000    0.79000002    2.36999989
   19.83972359   -1.00000000    0.79000002    2.36999989
   19.84305573   -1.00000000    0.79000002    2.36999989
   19.84611130   -1.00000000    0.80000001    2.36999989
   19.84944534   -1.00000000    0.79000002    2.36999989
   19.85972214   -1.00000000    0.76999998    2.34999990
   19.86277771   -1.00000000    0.75000000    2.36999989
   19.86611176   -1.00000000    0.75000000    2.36999989
   19.86944389   -1.00000000    0.75000000    2.36999989
   19.87249947   -1.00000000    0.75000000    2.34999990
   19.87583351   -1.00000000    0.76999998    2.36999989
   19.87888908   -1.00000000    0.79000002    2.34999990
   19.88222313   -1.00000000    0.79000002    2.34999990
   19.88555527   -1.00000000    0.76999998    2.36999989
   19.88861084   -1.00000000    0.76999998    2.34999990
   19.89194489   -1.00000000    0.76999998    2.34999990
   19.90250015   -1.00000000    0.75000000    2.34999990
   19.90583229   -1.00000000    0.75000000    2.34999990
   19.90888786   -1.00000000    0.75000000    2.34999990
   19.91222191   -1.00000000    0.75000000    2.36999989
   19.91527748   -1.00000000    0.79000002    2.34999990
   19.91888809   -1.00000000    0.83999997    2.34999990
   19.92194366   -1.00000000    0.81999999    2.34999990
   19.92527771   -1.00000000    0.81999999    2.34999990
   19.92888832   -1.00000000    0.83999997    2.34999990
   19.93222237   -1.00000000    0.83999997    2.34999990
   19.93527603   -1.00000000    0.86000001    2.34999990
   19.94527626   -1.00000000    0.86000001    2.32999992
   19.94861031   -1.00000000    1.03999996    2.32999992
   19.95166779   -1.00000000    1.01999998    2.32999992
   19.95499992   -1.00000000    0.98000002    2.32999992
   19.95833397   -1.00000000    0.92000002    2.32999992
   19.96222305   -1.00000000    0.83999997    2.32999992
   19.96527863   -1.00000000    0.80000001    2.34999990
   19.96861076   -1.00000000    0.80000001    2.34999990
   19.97194481   -1.00000000    0.76999998    2.32999992
   19.97500038   -1.00000000    0.75000000    2.32999992
   19.97833443   -1.00000000    0.75000000    2.32999992
   19.98833275   -1.00000000    0.75000000    2.32999992
   19.99166679   -1.00000000    0.75000000    2.32999992
   19.99527740   -1.00000000    0.76999998    2.32999992
   19.99833298   -1.00000000    0.75000000    2.32999992
   20.00166702   -1.00000000    0.75000000    2.32999992
   20.00472260   -1.00000000    0.76999998    2.32999992
   20.00805473   -1.00000000    0.80000001    2.32999992
   20.01138878   -1.00000000    0.80000001    2.32999992
   20.01444435   -1.00000000    0.80000001    2.30999994
   20.01777840   -1.00000000    0.80000001    2.30999994
   20.02111053   -1.00000000    0.80000001    2.30999994
   20.03111076   -1.00000000    0.86000001    2.30999994
   20.03416634   -1.00000000    0.86000001    2.30999994
   20.03750038   -1.00000000    0.83999997    2.30999994
   20.04083252   -1.00000000    0.83999997    2.30999994
   20.04388809   -1.00000000    0.79000002    2.30999994
   20.04722214   -1.00000000    0.79000002    2.30999994
   20.05027771   -1.00000000    0.79000002    2.30999994
   20.05360985   -1.00000000    0.79000002    2.30999994
   20.05694389   -1.00000000    0.76999998    2.30999994
   20.06055450   -1.00000000    0.79000002    2.30999994
   20.06361008   -1.00000000    0.79000002    2.30999994
   20.07389069   -1.00000000    0.83999997    2.30999994
   20.07722282   -1.00000000    0.83999997    2.30999994
   20.08027840   -1.00000000    0.80000001    2.28999996
   20.08361244   -1.00000000    0.80000001    2.30999994
   20.08666801   -1.00000000    0.79000002    2.30999994
   20.09000015   -1.00000000    0.76999998    2.28999996
   20.09361267   -1.00000000    0.79000002    2.28999996
   20.09666824   -1.00000000    0.83999997    2.28999996
   20.10000038   -1.00000000    0.83999997    2.28999996
   20.10305595   -1.00000000    0.89999998    2.28999996
   20.10639000   -1.00000000    0.94000000    2.28999996
   20.11666679   -1.00000000    0.95999998    2.28999996
   20.12000084   -1.00000000    0.92000002    2.28999996
   20.12333298   -1.00000000    0.92000002    2.26999998
   20.12694550   -1.00000000    0.94000000    2.28999996
   20.13000107   -1.00000000    0.94000000    2.28999996
   20.13333321   -1.00000000    0.98000002    2.28999996
   20.13638878   -1.00000000    0.95999998    2.28999996
   20.13972282   -1.00000000    0.95999998    2.28999996
   20.14305496   -1.00000000    0.92000002    2.28999996
   20.14611053   -1.00000000    0.89999998    2.26999998
   20.14944458   -1.00000000    0.89999998    2.26999998
   20.15999985   -1.00000000    0.86000001    2.26999998
   20.16305542   -1.00000000    0.86000001    2.26999998
   20.16638756   -1.00000000    0.88000000    2.26999998
   20.16944313   -1.00000000    0.88000000    2.26999998
   20.17277718   -1.00000000    0.86000001    2.26999998
   20.17611122   -1.00000000    0.86000001    2.26999998
   20.17944336   -1.00000000    0.86000001    2.26999998
   20.18249893   -1.00000000    0.86000001    2.26999998
   20.18583298   -1.00000000    0.88000000    2.25000000
   20.18916512   -1.00000000    0.88000000    2.26999998
   20.19222069   -1.00000000    0.92000002    2.26999998
   20.20250130   -1.00000000    0.92000002    2.26999998
   20.20555687   -1.00000000    0.89999998    2.25000000
   20.20888901   -1.00000000    0.92000002    2.25000000
   20.21222305   -1.00000000    0.94000000    2.25000000
   20.21527863   -1.00000000    0.94000000    2.25000000
   20.21861076   -1.00000000    0.98000002    2.25000000
   20.22166634   -1.00000000    0.98000002    2.25000000
   20.22500038   -1.00000000    0.95999998    2.25000000
   20.22861099   -1.00000000    0.95999998    2.25000000
   20.23166656   -1.00000000    0.95999998    2.25000000
   20.23500061   -1.00000000    0.95999998    2.23000002
   20.24527740   -1.00000000    1.07000005    2.25000000
   20.24861145   -1.00000000    1.09000003    2.25000000
   20.25166702   -1.00000000    1.11000001    2.23000002
   20.25499916   -1.00000000    1.11000001    2.23000002
   20.25805473   -1.00000000    1.11000001    2.23000002
   20.26194382   -1.00000000    1.07000005    2.23000002
   20.26499939   -1.00000000    1.01999998    2.23000002
   20.26833344   -1.00000000    0.98000002    2.23000002
   20.27138901   -1.00000000    1.00000000    2.23000002
   20.27472115   -1.00000000    0.98000002    2.23000002
   20.27805519   -1.00000000    1.00000000    2.23000002
   20.28805542   -1.00000000    0.95999998    2.21000004
   20.29138756   -1.00000000    0.92000002    2.23000002
   20.29500008   -1.00000000    0.89999998    2.21000004
   20.29805565   -1.00000000    0.88000000    2.21000004
   20.30138779   -1.00000000    0.88000000    2.23000002
   20.30444336   -1.00000000    0.89999998    2.21000004
   20.30777740   -1.00000000    0.88000000    2.23000002
   20.31110954   -1.00000000    0.89999998    2.21000004
   20.31416512   -1.00000000    0.89999998    2.21000004
   20.31750107   -1.00000000    0.89999998    2.21000004
   20.32083511   -1.00000000    0.89999998    2.21000004
   20.33083344   -1.00000000    1.03999996    2.19000006
   20.33416748   -1.00000000    1.01999998    2.21000004
   20.33750153   -1.00000000    1.00000000    2.19000006
   20.34055710   -1.00000000    1.00000000    2.21000004
   20.34388924   -1.00000000    0.98000002    2.19000006
   20.34722328   -1.00000000    1.00000000    2.19000006
   20.35027885   -1.00000000    1.00000000    2.21000004
   20.35361099   -1.00000000    1.00000000    2.21000004
   20.35666656   -1.00000000    0.98000002    2.21000004
   20.36055565   -1.00000000    0.95999998    2.19000006
   20.36361122   -1.00000000    0.95999998    2.19000006
   20.37388992   -1.00000000    1.00000000    2.19000006
   20.37694550   -1.00000000    1.01999998    2.17000008
   20.38027763   -1.00000000    1.01999998    2.19000006
   20.38333321   -1.00000000    1.03999996    2.19000006
   20.38666725   -1.00000000    1.03999996    2.17000008
   20.38999939   -1.00000000    1.01999998    2.19000006
   20.39361191   -1.00000000    1.03999996    2.17000008
   20.39666748   -1.00000000    1.03999996    2.17000008
   20.39999962   -1.00000000    1.01999998    2.17000008
   20.40305519   -1.00000000    1.01999998    2.17000008
   20.40638924   -1.00000000    0.09000000    0.36000001
   20.41666603   -1.00000000    0.07000000    0.19000000
   20.41972160   -1.00000000    0.07000000    0.19000000
   20.42305565   -1.00000000    0.07000000    0.19000000
   20.42666626   -1.00000000    0.07000000    0.19000000
   20.43000031   -1.00000000    0.07000000    0.19000000
   20.43305397   -1.00000000    0.07000000    0.19000000
   20.43638802   -1.00000000    0.07000000    0.19000000
   20.43972206   -1.00000000    0.07000000    0.19000000
   20.44277763   -1.00000000    0.07000000    0.19000000
   20.44610977   -1.00000000    0.07000000    0.19000000
   20.44916534   -1.00000000    0.07000000    0.19000000
   20.46000099   -1.00000000    0.07000000    0.19000000
   20.46305656   -1.00000000    0.07000000    0.19000000
   20.46638870   -1.00000000    0.07000000    0.19000000
   20.46944427   -1.00000000    0.07000000    0.19000000
   20.47277832   -1.00000000    0.07000000    0.19000000
   20.47611237   -1.00000000    0.07000000    0.19000000
   20.47916794   -1.00000000    0.07000000    0.19000000
   20.48250008   -1.00000000    0.07000000    0.19000000
   20.48583412   -1.00000000    0.07000000    0.19000000
   20.48888969   -1.00000000    0.07000000    0.19000000
   20.49222183   -1.00000000    0.07000000    0.19000000
   20.50222206   -1.00000000    0.07000000    0.19000000
   20.50555611   -1.00000000    0.07000000    0.19000000
   20.50888824   -1.00000000    0.07000000    0.19000000
   20.51194382   -1.00000000    0.07000000    0.19000000
   20.51527786   -1.00000000    0.07000000    0.19000000
   20.51861000   -1.00000000    0.07000000    0.19000000
   20.52166557   -1.00000000    0.07000000    0.19000000
   20.52499962   -1.00000000    0.07000000    0.19000000
   20.52861023   -1.00000000    0.07000000    0.19000000
   20.53166580   -1.00000000    0.07000000    0.19000000
   20.53499985   -1.00000000    0.07000000    0.19000000
   20.54527664   -1.00000000    0.07000000    0.19000000
   20.54833221   -1.00000000    0.07000000    0.19000000
   20.55166626   -1.00000000    0.07000000    0.19000000
   20.55499840   -1.00000000    0.07000000    0.19000000
   20.55805397   -1.00000000    0.07000000    0.19000000
   20.56166649   -1.00000000    0.07000000    0.19000000
   20.56472206   -1.00000000    0.07000000    0.19000000
   20.56805611   -1.00000000    0.07000000    0.19000000
   20.57139015   -1.00000000    0.07000000    0.19000000
   20.57444572   -1.00000000    0.07000000    0.19000000
   20.57777786   -1.00000000    0.07000000    0.19000000
   20.58805656   -1.00000000    0.07000000    0.19000000
   20.59138870   -1.00000000    0.07000000    0.19000000
   20.59500122   -1.00000000    0.07000000    0.19000000
   20.59805679   -1.00000000    0.07000000    0.19000000
   20.60138893   -1.00000000    0.07000000    0.19000000
   20.60472298   -1.00000000    0.07000000    0.19000000
   20.60777855   -1.00000000    0.07000000    0.19000000
   20.61111069   -1.00000000    0.07000000    0.19000000
   20.61416626   -1.00000000    0.07000000    0.19000000
   20.61750031   -1.00000000    0.07000000    0.19000000
   20.62083435   -1.00000000    0.07000000    0.19000000
   20.63083267   -1.00000000    0.07000000    0.19000000
   20.63416672   -1.00000000    0.07000000    0.19000000
   20.63722229   -1.00000000    0.07000000    0.19000000
   20.64055634   -1.00000000    0.07000000    0.19000000
   20.64388847   -1.00000000    0.07000000    0.19000000
   20.64694405   -1.00000000    0.07000000    0.19000000
   20.65027809   -1.00000000    0.07000000    0.19000000
   20.65361023   -1.00000000    0.07000000    0.19000000
   20.65666580   -1.00000000    0.07000000    0.19000000
   20.68416595   -1.00000000    0.07000000    0.19000000
   20.68750000   -1.00000000    0.07000000    0.19000000
   20.69055557   -1.00000000    0.07000000    0.19000000
   20.69416618   -1.00000000    0.07000000    0.19000000
   20.69722176   -1.00000000    0.07000000    0.19000000
   20.70055580   -1.00000000    0.07000000    0.19000000
   20.70388985   -1.00000000    0.07000000    0.19000000
   20.70694542   -1.00000000    0.07000000    0.19000000
   20.71027946   -1.00000000    0.07000000    0.19000000
   20.71333504   -1.00000000    0.07000000    0.19000000
   20.71666718   -1.00000000    0.07000000    0.19000000
   20.72694588   -1.00000000    0.07000000    0.19000000
   20.73027802   -1.00000000    0.07000000    0.19000000
   20.73333359   -1.00000000    0.07000000    0.19000000
   20.73666763   -1.00000000    0.07000000    0.19000000
   20.73972321   -1.00000000    0.07000000    0.19000000
   20.74305534   -1.00000000    0.07000000    0.19000000
   20.74638939   -1.00000000    0.07000000    0.19000000
   20.74944496   -1.00000000    0.07000000    0.19000000
   20.75277710   -1.00000000    0.07000000    0.19000000
   20.75611115   -1.00000000    0.07000000    0.19000000
   20.75916672   -1.00000000    0.07000000    0.19000000
   20.76972198   -1.00000000    0.07000000    0.19000000
   20.77305603   -1.00000000    0.07000000    0.19000000
   20.77611160   -1.00000000    0.07000000    0.19000000
   20.77944374   -1.00000000    0.07000000    0.19000000
   20.78277779   -1.00000000    0.07000000    0.19000000
   20.78583336   -1.00000000    0.07000000    0.19000000
   20.78916550   -1.00000000    0.07000000    0.19000000
   20.79249954   -1.00000000    0.07000000    0.19000000
   20.79583359   -1.00000000    0.07000000    0.19000000
   20.79916573   -1.00000000    0.07000000    0.19000000
   20.80249977   -1.00000000    0.07000000    0.19000000
   20.81250000   -1.00000000    0.07000000    0.19000000
   20.81583214   -1.00000000    0.07000000    0.19000000
   20.81916809   -1.00000000    0.07000000    0.19000000
   20.82222366   -1.00000000    0.07000000    0.19000000
   20.82555580   -1.00000000    0.07000000    0.19000000
   20.82888985   -1.00000000    0.07000000    0.19000000
   20.83222389   -1.00000000    0.07000000    0.19000000
   20.83555603   -1.00000000    0.07000000    0.19000000
   20.83861160   -1.00000000    0.07000000    0.19000000
   20.84194565   -1.00000000    0.07000000    0.19000000
   20.84527779   -1.00000000    0.07000000    0.19000000
   20.85555649   -1.00000000    0.07000000    0.19000000
   20.85861206   -1.00000000    0.07000000    0.19000000
   20.86222267   -1.00000000    0.07000000    0.19000000
   20.86555672   -1.00000000    0.07000000    0.19000000
   20.86888885   -1.00000000    0.07000000    0.19000000
   20.87194443   -1.00000000    0.07000000    0.19000000
   20.87527847   -1.00000000    0.07000000    0.19000000
   20.87861061   -1.00000000    0.07000000    0.19000000
   20.88166618   -1.00000000    0.07000000    0.19000000
   20.88500023   -1.00000000    0.07000000    0.19000000
   20.88805580   -1.00000000    0.07000000    0.19000000
   20.89833260   -1.00000000    0.07000000    0.19000000
   20.90166664   -1.00000000    0.07000000    0.19000000
   20.90472221   -1.00000000    0.07000000    0.19000000
   20.90805435   -1.00000000    0.07000000    0.19000000
   20.91110992   -1.00000000    0.07000000    0.19000000
   20.91444397   -1.00000000    0.07000000    0.19000000
   20.91777802   -1.00000000    0.07000000    0.19000000
   20.92083359   -1.00000000    0.07000000    0.19000000
   20.92416573   -1.00000000    0.07000000    0.19000000
   20.92749977   -1.00000000    0.07000000    0.19000000
   20.93083191   -1.00000000    0.07000000    0.19000000
   20.94111061   -1.00000000    0.07000000    0.19000000
   20.94444275   -1.00000000    0.07000000    0.19000000
   20.94749832   -1.00000000    0.07000000    0.19000000
   20.95083427   -1.00000000    0.07000000    0.19000000
   20.95416832   -1.00000000    0.07000000    0.19000000
   20.95722389   -1.00000000    0.07000000    0.19000000
   20.96111107   -1.00000000    0.07000000    0.19000000
   20.96416664   -1.00000000    0.07000000    0.19000000
   20.96750069   -1.00000000    0.07000000    0.19000000
   20.97055626   -1.00000000    0.07000000    0.19000000
   20.97389030   -1.00000000    0.07000000    0.19000000
   20.98388863   -1.00000000    0.07000000    0.19000000
   20.98722267   -1.00000000    0.07000000    0.19000000
   20.99055672   -1.00000000    0.07000000    0.19000000
   20.99388885   -1.00000000    0.07000000    0.19000000
   20.99722290   -1.00000000    0.07000000    0.19000000
   21.00055504   -1.00000000    0.07000000    0.19000000
   21.00361061   -1.00000000    0.07000000    0.19000000
   21.00722313   -1.00000000    0.07000000    0.19000000
   21.01055527   -1.00000000    0.07000000    0.19000000
   21.01361084   -1.00000000    0.07000000    0.19000000
   21.01694489   -1.00000000    0.07000000    0.19000000
   21.02694511   -1.00000000    0.07000000    0.19000000
   21.03000069   -1.00000000    0.07000000    0.19000000
   21.03333282   -1.00000000    0.07000000    0.19000000
   21.03666687   -1.00000000    0.07000000    0.19000000
   21.03972244   -1.00000000    0.07000000    0.19000000
   21.04305458   -1.00000000    0.07000000    0.19000000
   21.04611015   -1.00000000    0.07000000    0.19000000
   21.04944420   -1.00000000    0.07000000    0.19000000
   21.05277634   -1.00000000    0.07000000    0.19000000
   21.05583191   -1.00000000    0.07000000    0.19000000
   21.05916595   -1.00000000    0.07000000    0.19000000
   21.06972313   -1.00000000    0.07000000    0.19000000
   21.07277870   -1.00000000    0.07000000    0.19000000
   21.07611275   -1.00000000    0.07000000    0.19000000
   21.07944489   -1.00000000    0.07000000    0.19000000
   21.08250046   -1.00000000    0.07000000    0.19000000
   21.08583450   -1.00000000    0.07000000    0.19000000
   21.08916664   -1.00000000    0.07000000    0.19000000
   21.09222221   -1.00000000    0.07000000    0.19000000
   21.09583473   -1.00000000    0.07000000    0.19000000
   21.09889030   -1.00000000    0.07000000    0.19000000
   21.10222244   -1.00000000    0.07000000    0.19000000
   21.11250114   -1.00000000    0.07000000    0.19000000
   21.11583328   -1.00000000    0.07000000    0.19000000
   21.11888885   -1.00000000    0.07000000    0.19000000
   21.12222290   -1.00000000    0.07000000    0.19000000
   21.12555504   -1.00000000    0.07000000    0.19000000
   21.12916756   -1.00000000    0.07000000    0.19000000
   21.13222313   -1.00000000    0.07000000    0.19000000
   21.13555527   -1.00000000    0.07000000    0.19000000
   21.13861084   -1.00000000    0.07000000    0.19000000
   21.14194489   -1.00000000    0.07000000    0.19000000
   21.14527702   -1.00000000    0.07000000    0.19000000
   21.15527725   -1.00000000    0.07000000    0.19000000
   21.15861130   -1.00000000    0.07000000    0.19000000
   21.16222191   -1.00000000    0.07000000    0.19000000
   21.16527748   -1.00000000    0.07000000    0.19000000
   21.16860962   -1.00000000    0.07000000    0.19000000
   21.17166519   -1.00000000    0.07000000    0.19000000
   21.17499924   -1.00000000    0.07000000    0.19000000
   21.17833328   -1.00000000    0.07000000    0.19000000
   21.18138885   -1.00000000    0.07000000    0.19000000
   21.18472099   -1.00000000    0.07000000    0.19000000
   21.18805504   -1.00000000    0.07000000    0.19000000
   21.19833183   -1.00000000    0.07000000    0.19000000
   21.20138931   -1.00000000    0.07000000    0.19000000
   21.20472336   -1.00000000    0.07000000    0.19000000
   21.20805550   -1.00000000    0.07000000    0.19000000
   21.21111107   -1.00000000    0.07000000    0.19000000
   21.21444511   -1.00000000    0.07000000    0.19000000
   21.21750069   -1.00000000    0.07000000    0.19000000
   21.22083473   -1.00000000    0.07000000    0.19000000
   21.22416687   -1.00000000    0.07000000    0.19000000
   21.22777748   -1.00000000    0.07000000    0.19000000
   21.23083305   -1.00000000    0.07000000    0.19000000
   21.24111176   -1.00000000    0.07000000    0.19000000
   21.24444389   -1.00000000    0.07000000    0.19000000
   21.24749947   -1.00000000    0.07000000    0.19000000
   21.25083351   -1.00000000    0.07000000    0.19000000
   21.25388908   -1.00000000    0.07000000    0.19000000
   21.25722313   -1.00000000    0.07000000    0.19000000
   21.26083374   -1.00000000    0.07000000    0.19000000
   21.26388931   -1.00000000    0.07000000    0.19000000
   21.26722145   -1.00000000    0.07000000    0.19000000
   21.27027702   -1.00000000    0.07000000    0.19000000
   21.27361107   -1.00000000    0.07000000    0.19000000
   21.28388786   -1.00000000    0.07000000    0.19000000
   21.28722191   -1.00000000    0.07000000    0.19000000
   21.29027748   -1.00000000    0.07000000    0.19000000
   21.29416656   -1.00000000    0.07000000    0.19000000
   21.29722214   -1.00000000    0.07000000    0.19000000
   21.30055428   -1.00000000    0.07000000    0.19000000
   21.30360985   -1.00000000    0.07000000    0.19000000
   21.30694389   -1.00000000    0.07000000    0.19000000
   21.31027794   -1.00000000    0.07000000    0.19000000
   21.31333351   -1.00000000    0.07000000    0.19000000
   21.31666756   -1.00000000    0.07000000    0.19000000
   21.32666779   -1.00000000    0.07000000    0.19000000
   21.33000183   -1.00000000    0.07000000    0.19000000
   21.33333397   -1.00000000    0.07000000    0.19000000
   21.33638954   -1.00000000    0.07000000    0.19000000
   21.33972359   -1.00000000    0.07000000    0.19000000
   21.34305573   -1.00000000    0.07000000    0.19000000
   21.34611130   -1.00000000    0.07000000    0.19000000
   21.34944534   -1.00000000    0.07000000    0.19000000
   21.35250092   -1.00000000    0.07000000    0.19000000
   21.35583305   -1.00000000    0.07000000    0.19000000
   21.35916710   -1.00000000    0.07000000    0.19000000
   21.36972237   -1.00000000    0.07000000    0.19000000
   21.37277794   -1.00000000    0.07000000    0.19000000
   21.37611198   -1.00000000    0.07000000    0.19000000
   21.37944412   -1.00000000    0.07000000    0.19000000
   21.38249969   -1.00000000    0.07000000    0.19000000
   21.38583374   -1.00000000    0.07000000    0.19000000
   21.38888931   -1.00000000    0.07000000    0.19000000
   21.39222145   -1.00000000    0.07000000    0.19000000
   21.39583397   -1.00000000    0.07000000    0.19000000
   21.39888954   -1.00000000    0.07000000    0.19000000
   21.40222168   -1.00000000    0.07000000    0.19000000
   21.41250038   -1.00000000    0.07000000    0.19000000
   21.41583252   -1.00000000    0.07000000    0.19000000
   21.41888809   -1.00000000    0.07000000    0.19000000
   21.42222214   -1.00000000    0.07000000    0.19000000
   21.42527771   -1.00000000    0.07000000    0.19000000
   21.42888832   -1.00000000    0.07000000    0.19000000
   21.43194389   -1.00000000    0.07000000    0.19000000
   21.43527603   -1.00000000    0.07000000    0.19000000
   21.43861008   -1.00000000    0.07000000    0.19000000
   21.44166565   -1.00000000    0.07000000    0.19000000
   21.44499969   -1.00000000    0.07000000    0.19000000
   21.45527840   -1.00000000    0.07000000    0.19000000
   21.45861244   -1.00000000    0.07000000    0.19000000
   21.46222305   -1.00000000    0.07000000    0.19000000
   21.46527863   -1.00000000    0.07000000    0.19000000
   21.46861076   -1.00000000    0.07000000    0.19000000
   21.47194481   -1.00000000    0.07000000    0.19000000
   21.47500038   -1.00000000    0.07000000    0.19000000
   21.47833443   -1.00000000    0.07000000    0.19000000
   21.48166656   -1.00000000    0.07000000    0.19000000
   21.48472214   -1.00000000    0.07000000    0.19000000
   21.48805618   -1.00000000    0.07000000    0.19000000
   21.49805641   -1.00000000    0.07000000    0.19000000
   21.50138855   -1.00000000    0.07000000    0.19000000
   21.50472260   -1.00000000    0.07000000    0.19000000
   21.50777817   -1.00000000    0.07000000    0.19000000
   21.51111031   -1.00000000    0.07000000    0.19000000
   21.51444435   -1.00000000    0.07000000    0.19000000
   21.51749992   -1.00000000    0.07000000    0.19000000
   21.52083397   -1.00000000    0.07000000    0.19000000
   21.52388954   -1.00000000    0.07000000    0.19000000
   21.52750015   -1.00000000    0.07000000    0.19000000
   21.53055573   -1.00000000    0.07000000    0.19000000
   21.54111099   -1.00000000    0.07000000    0.19000000
   21.54416656   -1.00000000    0.07000000    0.19000000
   21.54749870   -1.00000000    0.07000000    0.19000000
   21.55083275   -1.00000000    0.07000000    0.19000000
   21.55388832   -1.00000000    0.07000000    0.19000000
   21.55722237   -1.00000000    0.07000000    0.19000000
   21.56083298   -1.00000000    0.07000000    0.19000000
   21.56388855   -1.00000000    0.07000000    0.19000000
   21.56722260   -1.00000000    0.07000000    0.19000000
   21.57055664   -1.00000000    0.07000000    0.19000000
   21.57361221   -1.00000000    0.07000000    0.19000000
   21.58388901   -1.00000000    0.07000000    0.19000000
   21.58722305   -1.00000000    0.07000000    0.19000000
   21.59027863   -1.00000000    0.07000000    0.19000000
   21.59388924   -1.00000000    0.07000000    0.19000000
   21.59694481   -1.00000000    0.07000000    0.19000000
   21.60027885   -1.00000000    0.07000000    0.19000000
   21.60361099   -1.00000000    0.07000000    0.19000000
   21.60666656   -1.00000000    0.07000000    0.19000000
   21.61000061   -1.00000000    0.07000000    0.19000000
   21.61305618   -1.00000000    0.07000000    0.19000000
   21.61638832   -1.00000000    0.07000000    0.19000000
   21.62666702   -1.00000000    0.07000000    0.19000000
   21.63000107   -1.00000000    0.07000000    0.19000000
   21.63305473   -1.00000000    0.07000000    0.19000000
   21.63638878   -1.00000000    0.07000000    0.19000000
   21.63972282   -1.00000000    0.07000000    0.19000000
   21.64277840   -1.00000000    0.07000000    0.19000000
   21.64611053   -1.00000000    0.07000000    0.19000000
   21.64944458   -1.00000000    0.07000000    0.19000000
   21.65250015   -1.00000000    0.07000000    0.19000000
   21.65583229   -1.00000000    0.07000000    0.19000000
   21.65888786   -1.00000000    0.07000000    0.19000000
   21.66944313   -1.00000000    0.07000000    0.19000000
   21.67277718   -1.00000000    0.07000000    0.19000000
   21.67611122   -1.00000000    0.07000000    0.19000000
   21.69583321   -1.00000000    0.07000000    0.19000000
   21.69916534   -1.00000000    0.07000000    0.19000000
   21.70222282   -1.00000000    0.07000000    0.19000000
   21.71250153   -1.00000000    0.07000000    0.19000000
   21.71583366   -1.00000000    0.07000000    0.19000000
   21.71888924   -1.00000000    0.07000000    0.19000000
   21.72222328   -1.00000000    0.07000000    0.19000000
   21.72555542   -1.00000000    0.07000000    0.19000000
   21.72888947   -1.00000000    0.07000000    0.19000000
   21.73194504   -1.00000000    0.07000000    0.19000000
   21.73527718   -1.00000000    0.07000000    0.19000000
   21.73861122   -1.00000000    0.07000000    0.19000000
   21.74166679   -1.00000000    0.07000000    0.19000000
   21.74500084   -1.00000000    0.07000000    0.19000000
   21.75527763   -1.00000000    0.07000000    0.19000000
   21.75861168   -1.00000000    0.07000000    0.19000000
   21.76222229   -1.00000000    0.07000000    0.19000000
   21.76527786   -1.00000000    0.07000000    0.19000000
   21.76861000   -1.00000000    0.07000000    0.19000000
   21.77194405   -1.00000000    0.07000000    0.19000000
   21.77499962   -1.00000000    0.07000000    0.19000000
   21.77833366   -1.00000000    0.07000000    0.19000000
   21.78166580   -1.00000000    0.07000000    0.19000000
   21.78472137   -1.00000000    0.07000000    0.19000000
   21.78805542   -1.00000000    0.07000000    0.19000000
   21.79833221   -1.00000000    0.07000000    0.19000000
   21.80138779   -1.00000000    0.07000000    0.19000000
   21.80472183   -1.00000000    0.07000000    0.19000000
   21.80777740   -1.00000000    0.07000000    0.19000000
   21.81110954   -1.00000000    0.07000000    0.19000000
   21.81444359   -1.00000000    0.07000000    0.19000000
   21.81750107   -1.00000000    0.07000000    0.19000000
   21.82083511   -1.00000000    0.07000000    0.19000000
   21.82416725   -1.00000000    0.07000000    0.19000000
   21.82750130   -1.00000000    0.07000000    0.19000000
   21.83055687   -1.00000000    0.07000000    0.19000000
   21.84111214   -1.00000000    0.07000000    0.19000000
   21.84416771   -1.00000000    0.07000000    0.19000000
   21.84749985   -1.00000000    0.07000000    0.19000000
   21.85083389   -1.00000000    0.07000000    0.19000000
   21.85388947   -1.00000000    0.07000000    0.19000000
   21.85722351   -1.00000000    0.07000000    0.19000000
   21.86083412   -1.00000000    0.07000000    0.19000000
   21.86388969   -1.00000000    0.07000000    0.19000000
   21.86722183   -1.00000000    0.07000000    0.19000000
   21.87055588   -1.00000000    0.07000000    0.19000000
   21.87361145   -1.00000000    0.07000000    0.19000000
   21.88388824   -1.00000000    0.07000000    0.19000000
   21.88722229   -1.00000000    0.07000000    0.19000000
   21.89027786   -1.00000000    0.07000000    0.19000000
   21.89388847   -1.00000000    0.07000000    0.19000000
   21.89694405   -1.00000000    0.07000000    0.19000000
   21.90027809   -1.00000000    0.07000000    0.19000000
   21.90361023   -1.00000000    0.07000000    0.19000000
   21.90666580   -1.00000000    0.07000000    0.19000000
   21.90999985   -1.00000000    0.07000000    0.19000000
   21.91333389   -1.00000000    0.07000000    0.19000000
   21.91638756   -1.00000000    0.07000000    0.19000000
   21.92722130   -1.00000000    0.07000000    0.19000000
   21.93027687   -1.00000000    0.07000000    0.19000000
   21.93361092   -1.00000000    0.07000000    0.19000000
   21.93694305   -1.00000000    0.07000000    0.19000000
   21.93999863   -1.00000000    0.07000000    0.19000000
   21.94333267   -1.00000000    0.07000000    0.19000000
   21.94666672   -1.00000000    0.07000000    0.19000000
   21.94972038   -1.00000000    0.07000000    0.19000000
   21.95305634   -1.00000000    0.07000000    0.19000000
   21.95611191   -1.00000000    0.07000000    0.19000000
   21.95944595   -1.00000000    0.07000000    0.19000000
   21.96972275   -1.00000000    0.07000000    0.19000000
   21.97277832   -1.00000000    0.07000000    0.19000000
   21.97611237   -1.00000000    0.07000000    0.19000000
