    HOUR (UT)   FLARE FACTOR    SKY TESTER    SUN TESTER
   11.55583382   -1.00000000   -1.00000000   -1.00000000
   11.61166668  177.81700134    0.00000000    0.00000000
   11.61472225  179.69799805    0.00000000    0.00000000
   11.61805534  191.26499939    0.00000000    0.00000000
   11.62138939  181.72900391    0.00000000    0.00000000
   11.62444496  180.38200378    0.00000000    0.00000000
   11.62777805  188.01499939    0.00000000    0.00000000
   11.63194466  188.01499939    0.00000000    0.00000000
   11.63611126  169.46699524    0.00000000    0.00000000
   11.63916683  178.04299927    0.00000000    0.00000000
   11.64249992  172.90499878    0.00000000    0.00000000
   11.64472198  183.33200073    0.00000000    0.00000000
   11.64611053  172.44099426    0.00000000    0.00000000
   11.64944458  156.37699890    0.00000000    0.00000000
   11.65277767  180.52499390    0.00000000    0.00000000
   11.65583324  177.83000183    0.00000000    0.00000000
   11.65916634  182.41700745    0.00000000    0.00000000
   11.66222191  173.58900452    0.00000000    0.00000000
   11.66555500  171.08000183    0.00000000    0.00000000
   11.66888905  161.23500061    0.00000000    0.00000000
   11.67472267  161.23500061    0.00000000    0.00000000
   11.67888927  172.78399658    0.00000000    0.00000000
   11.68222237  171.27299500    0.00000000    0.00000000
   11.68527794  175.64799500    0.00000000    0.00000000
   11.68861103  162.12899780    0.00000000    0.00000000
   11.69166660  176.53700256    0.00000000    0.00000000
   11.69499969  173.82899475    0.00000000    0.00000000
   11.69833374  169.03100586    0.00000000    0.00000000
   11.70138836  177.36099243    0.00000000    0.00000000
   11.70472240  171.26699829    0.00000000    0.00000000
   11.70805550  163.94599915    0.00000000    0.00000000
   11.71111107  174.51699829    0.00000000    0.00000000
   11.71166611  158.70399475    0.00000000    0.00000000
   11.71749973  158.70399475    0.00000000    0.00000000
   11.72166634  178.70100403    0.00000000    0.00000000
   11.72499943  160.20899963    0.00000000    0.00000000
   11.72805500  178.69500732    0.00000000    0.00000000
   11.73138809  173.89799500    0.00000000    0.00000000
   11.73472214  207.06399536    0.00000000    0.00000000
   11.73777771  213.51400757    0.00000000    0.00000000
   11.74111176  187.69299316    0.00000000    0.00000000
   11.74444485  212.24600220    0.00000000    0.00000000
   11.74499989  204.24800110    0.00000000    0.00000000
   11.74805546  188.86900330    0.00000000    0.00000000
   11.75111103  223.25300598    0.00000000    0.00000000
   11.75444412  242.51300049    0.00000000    0.00000000
   11.76055527  242.51300049    0.00000000    0.00000000
   11.76444435  186.19799805    0.00000000    0.00000000
   11.76777744  175.90899658    0.00000000    0.00000000
   11.77111053  189.29400635    0.00000000    0.00000000
   11.77416611  190.30799866    0.00000000    0.00000000
   11.77750015  199.54800415    0.86000001    1.96000004
   11.77833271  186.68200684    0.86000001    1.96000004
   11.78111076  222.07099915    0.86000001    1.96000004
   11.78416729  184.61399841    0.86000001    1.96000004
   11.78750038  194.65400696    0.86000001    1.96000004
   11.79083347  186.49499512    0.86000001    1.96000004
   11.79388905  179.77999878    0.86000001    1.96000004
   11.79722309  184.50399780    0.86000001    1.96000004
   11.80333328  184.50399780    0.86000001    1.96000004
   11.80749989  188.80400085    0.86000001    1.96000004
   11.81055546  171.13000488    0.86000001    1.96000004
   11.81166649  177.85200500    0.86000001    1.96000004
   11.81444454  190.45300293    0.86000001    1.96000004
   11.81750011  175.86000061    0.86000001    1.96000004
   11.82083321  175.64799500    0.86000001    1.96000004
   11.82472229  177.81199646    0.00000000    0.00000000
   11.82861137  175.80299377    0.00000000    0.00000000
   11.83249950  168.33500671    0.00000000    0.00000000
   11.83638859  173.27499390    0.00000000    0.00000000
   11.84000015  173.27099609    0.00000000    0.00000000
   11.84666634  173.27099609    0.00000000    0.00000000
   11.85138893  172.28599548    0.00000000    0.00000000
   11.85472298  176.63900757    0.86000001    2.00000000
   11.85888958  170.56799316    0.86000001    2.00000000
   11.86222267  172.14300537    0.86000001    2.00000000
   11.86527824  167.94000244    0.86000001    2.00000000
   11.86861134  170.16900635    0.86000001    2.00000000
   11.87194443  163.63600159    0.86000001    2.00000000
   11.87500000  169.38299561    0.86000001    2.00000000
   11.87833309  165.74400330    0.86000001    2.00000000
   11.87888908  175.05499268    0.80000001    2.05999994
   11.88194466  169.90199280    0.80000001    2.05999994
   11.88888836  169.90199280    0.80000001    2.05999994
   11.89305496  179.28399658    0.80000001    2.05999994
   11.89638901  175.97799683    0.80000001    2.05999994
   11.89944458  172.70799255    0.80000001    2.07999992
   11.90277767  173.41499329    0.80000001    2.05999994
   11.90611076  163.52799988    0.79000002    2.07999992
   11.90916634  177.87699890    0.79000002    2.07999992
   11.91222191  170.87899780    0.80000001    2.07999992
   11.91277695  175.45799255    0.80000001    2.07999992
   11.91611099  179.84899902    0.79000002    2.07999992
   11.91944504  163.59100342    0.79000002    2.07999992
   11.92250061  175.24800110    0.79000002    2.09999990
   11.92583370  177.09500122    0.79000002    2.09999990
   11.93194485  177.09500122    0.79000002    2.09999990
   11.93583298  167.95899963    0.79000002    2.09999990
   11.93916702  177.90899658    0.79000002    2.09999990
   11.94250011  182.85099792    0.79000002    2.09999990
   11.94555569  189.16999817    0.79000002    2.09999990
   11.94583321  176.55400085    0.79000002    2.09999990
   11.94916630  183.23199463    0.76999998    2.09999990
   11.95249939  167.78999329    0.76999998    2.11999989
   11.95555496  173.41799927    0.76999998    2.11999989
   11.95888901  169.34700012    0.76999998    2.11999989
   11.96194458  178.59899902    0.79000002    2.11999989
   11.96527767  167.56399536    0.76999998    2.11999989
   11.96861076  172.18400574    0.76999998    2.11999989
   11.97472191  172.18400574    0.76999998    2.11999989
   11.97888851  169.16900635    0.76999998    2.11999989
   11.98194408  174.68899536    0.76999998    2.11999989
   11.98527813  171.50700378    0.76999998    2.11999989
   11.98861122  168.63600159    0.76999998    2.13000011
   11.99166679  169.57899475    0.75000000    2.13000011
   11.99499989  164.51100159    0.76999998    2.13000011
   11.99805546  178.53199768    0.75000000    2.13000011
   12.00138855  162.39599609    0.76999998    2.13000011
   12.00472260  155.92300415    0.75000000    2.13000011
   12.00777817  165.75300598    0.75000000    2.13000011
   12.01111126  170.61799622    0.75000000    2.13000011
   12.01222229  165.87199402    0.75000000    2.13000011
   12.01749992  165.87199402    0.75000000    2.15000010
   12.02166653  155.66999817    0.75000000    2.15000010
   12.02499962  157.06100464    0.75000000    2.15000010
   12.02861118  169.93699646    0.75000000    2.15000010
   12.03194427  167.20700073    0.75000000    2.15000010
   12.03500080  161.02299500    0.75000000    2.15000010
   12.03833389  159.37199402    0.73000002    2.15000010
   12.04166698  160.06199646    0.73000002    2.15000010
   12.04472256  158.02999878    0.73000002    2.15000010
   12.04555607  162.67300415    0.75000000    2.15000010
   12.04833412  161.90400696    0.75000000    2.15000010
   12.05166721  165.62100220    0.73000002    2.17000008
   12.05500031  164.38200378    0.73000002    2.17000008
   12.06027794  164.38200378    0.75000000    2.17000008
   12.06444454  164.40600586    0.73000002    2.17000008
   12.06777763  155.26699829    0.73000002    2.17000008
   12.07111073  161.21200562    0.73000002    2.17000008
   12.07416630  156.53700256    0.73000002    2.19000006
   12.07750034  165.00100708    0.73000002    2.19000006
   12.07888889  166.32899475    0.73000002    2.19000006
   12.08111095  157.87100220    0.73000002    2.19000006
   12.08416653  164.47099304    0.73000002    2.17000008
   12.08749962  160.34100342    0.73000002    2.19000006
   12.09055519  148.36000061    0.70999998    2.19000006
   12.09388828  160.41200256    0.70999998    2.19000006
   12.09722233  153.64599609    0.70999998    2.19000006
   12.10333347  153.64599609    0.70999998    2.19000006
   12.10722256  154.89100647    0.70999998    2.19000006
   12.11055565  156.98199463    0.70999998    2.21000004
   12.11222267  155.42599487    0.70999998    2.21000004
   12.11444473  154.94099426    0.70999998    2.21000004
   12.11750031  162.12500000    0.70999998    2.21000004
   12.12083340  160.14300537    0.70999998    2.21000004
   12.12388897  155.70300293    0.69000000    2.21000004
   12.12722206  164.92999268    0.69000000    2.21000004
   12.13055611  158.93800354    0.69000000    2.21000004
   12.13361073  158.09800720    0.69000000    2.21000004
   12.13694477  151.11000061    0.69000000    2.21000004
   12.14027786  152.65100098    0.69000000    2.21000004
   12.14611053  152.65100098    0.69000000    2.23000002
   12.15027714  150.77299500    0.67000002    2.21000004
   12.15333271  164.22099304    0.69000000    2.23000002
   12.15666676  149.14100647    0.67000002    2.21000004
   12.15999985  150.97099304    0.67000002    2.23000002
   12.16305542  148.25999451    0.67000002    2.23000002
   12.16638851  149.43800354    0.67000002    2.23000002
   12.16972256  149.87800598    0.67000002    2.23000002
   12.17277813  148.91799927    0.67000002    2.23000002
   12.17611122  151.61399841    0.67000002    2.23000002
   12.17888927  142.16400146    0.67000002    2.23000002
   12.17972279  148.15100098    0.67000002    2.23000002
   12.18305588  152.87199402    0.67000002    2.25000000
   12.18888855  152.87199402    0.67000002    2.23000002
   12.19305515  141.20199585    0.69000000    2.25000000
   12.19638920  150.11399841    0.69000000    2.25000000
   12.19944477  141.46699524    0.69000000    2.25000000
   12.20277786  142.44500732    0.67000002    2.25000000
   12.20611095  148.10800171    0.67000002    2.25000000
   12.20916653  146.32899475    0.69000000    2.25000000
   12.21222210  153.86300659    0.67000002    2.25000000
   12.21305561  148.94400024    0.67000002    2.25000000
   12.21611118  148.33799744    0.67000002    2.25000000
   12.21944427  149.60899353    0.67000002    2.25000000
   12.22249985  146.36500549    0.69000000    2.26999998
   12.22583294  152.70300293    0.67000002    2.26999998
   12.23166656  152.70300293    0.67000002    2.25000000
   12.23583317  142.76199341    0.67000002    2.26999998
   12.23916721  147.85299683    0.67000002    2.26999998
   12.24222279  144.14399719    0.67000002    2.26999998
   12.24555588  134.98699951    0.67000002    2.26999998
   12.24583340  149.18699646    0.67000002    2.26999998
   12.24916649  146.00999451    0.67000002    2.26999998
   12.25249958  144.25700378    0.67000002    2.28999996
   12.25555515  148.85800171    0.67000002    2.26999998
   12.25888920  147.27699280    0.67000002    2.26999998
   12.26222229  146.75500488    0.67000002    2.26999998
   12.26527786  150.55099487    0.67000002    2.26999998
   12.26861095  151.84899902    0.67000002    2.28999996
   12.27472210  151.84899902    0.67000002    2.28999996
   12.27861118  138.44999695    0.64999998    2.26999998
   12.27916622  140.40100098    0.64999998    2.26999998
   12.28249931  139.53599548    0.64999998    2.28999996
   12.28583336  135.32499695    0.64999998    2.28999996
   12.28888893  142.11099243    0.64999998    2.28999996
   12.29222298  139.46499634    0.64999998    2.28999996
   12.29555607  140.42700195    0.64999998    2.28999996
   12.29861164  142.66999817    0.63000000    2.28999996
   12.30194473  149.10299683    0.64999998    2.28999996
   12.30527782  142.32099915    0.63000000    2.28999996
   12.30833340  145.43299866    0.63000000    2.26999998
   12.31166649  139.41700745    0.63000000    2.30999994
   12.31277752  142.13900757    0.63000000    2.30999994
   12.31750011  142.13900757    0.63000000    2.30999994
   12.32166672  144.89599609    0.61000001    2.30999994
   12.32472229  146.33900452    0.63000000    2.30999994
   12.32805538  135.80299377    0.63000000    2.30999994
   12.33138847  138.64599609    0.61000001    2.30999994
   12.33444405  139.37600708    0.61000001    2.32999992
   12.33777714  145.99299622    0.61000001    2.32999992
   12.34083271  146.65800476    0.61000001    2.30999994
   12.34416676  138.80099487    0.61000001    2.30999994
   12.34583282  141.47700500    0.61000001    2.30999994
   12.34777737  144.11000061    0.61000001    2.32999992
   12.35111141  141.09500122    0.61000001    2.30999994
   12.35416698  138.53799438    0.61000001    2.32999992
   12.36027813  138.53799438    0.61000001    2.32999992
   12.36444473  132.41700745    0.61000001    2.32999992
   12.36777782  134.59800720    0.61000001    2.32999992
   12.37083340  139.04600525    0.61000001    2.32999992
   12.37416649  130.34700012    0.61000001    2.32999992
   12.37750053  129.49600220    0.61000001    2.32999992
   12.37916660  133.18099976    0.61000001    2.32999992
   12.38083363  136.61900330    0.61000001    2.32999992
   12.38416672  128.58999634    0.58999997    2.32999992
   12.38722229  140.71000671    0.58999997    2.32999992
   12.39055538  142.08999634    0.58999997    2.32999992
   12.39388847  139.43200684    0.61000001    2.32999992
   12.39694405  136.56799316    0.61000001    2.32999992
   12.40305519  136.56799316    0.58999997    2.34999990
   12.40722179  138.82000732    0.58999997    2.34999990
   12.41055489  136.44200134    0.58999997    2.34999990
   12.41277695  134.44799805    0.58999997    2.34999990
   12.41416645  139.42599487    0.58999997    2.34999990
   12.41750050  133.69999695    0.58999997    2.34999990
   12.42055607  132.18899536    0.58999997    2.34999990
   12.42388916  137.66900635    0.56999999    2.34999990
   12.42722225  133.12800598    0.56999999    2.34999990
   12.43027782  134.80799866    0.56999999    2.34999990
   12.43361092  132.99400330    0.56999999    2.34999990
   12.43694496  133.38999939    0.56999999    2.36999989
   12.44000053  124.68199921    0.56999999    2.34999990
   12.44611073  124.68199921    0.56999999    2.34999990
   12.44999981  135.00700378    0.56999999    2.36999989
   12.45333290  126.82599640    0.55000001    2.36999989
   12.45666695  133.33099365    0.55000001    2.36999989
   12.45972157  133.32699585    0.55000001    2.36999989
   12.46305561  130.07899475    0.56999999    2.36999989
   12.46638870  128.44599915    0.55000001    2.34999990
   12.46944427  124.87100220    0.55000001    2.34999990
   12.47277737  121.91799927    0.56999999    2.36999989
   12.47611046  125.38200378    0.55000001    2.36999989
   12.47916603  120.42500305    0.55000001    2.36999989
   12.48111057  121.51399994    0.56999999    2.36999989
   12.48277760  125.24800110    0.56999999    2.36999989
   12.48888874  125.24800110    0.55000001    2.36999989
   12.49305534  126.82299805    0.55000001    2.36999989
   12.49694443  121.10900116    0.55000001    2.36999989
   12.50027752  131.51300049    0.55000001    2.36999989
   12.50361156  136.35400391    0.55000001    2.36999989
   12.50666714  128.91700745    0.55000001    2.36999989
   12.51000023  128.36300659    0.55000001    2.36999989
   12.51305580  126.74600220    0.55000001    2.36999989
   12.51444435  127.62599945    0.55000001    2.39000010
   12.51666641  128.98399353    0.55000001    2.39000010
   12.51999950  122.99199677    0.55000001    2.36999989
   12.52333355  125.74299622    0.55000001    2.39000010
   12.52638817  124.89399719    0.55000001    2.36999989
   12.53166676  124.89399719    0.55000001    2.39000010
   12.53583336  127.22499847    0.55000001    2.39000010
   12.53916740  126.75800323    0.55000001    2.39000010
   12.54222298  125.53600311    0.55000001    2.39000010
   12.54555607  129.83799744    0.55000001    2.39000010
   12.54777813  125.19499969    0.55000001    2.39000010
   12.54916668  125.51300049    0.55000001    2.39000010
   12.55249977  126.00499725    0.55000001    2.39000010
   12.55555534  127.96099854    0.55000001    2.39000010
   12.55888939  124.08999634    0.55000001    2.39000010
   12.56222248  122.69799805    0.55000001    2.39000010
   12.56527805  129.74299622    0.55000001    2.40000010
   12.56861115  126.96499634    0.55000001    2.40000010
   12.57444477  126.96499634    0.55000001    2.39000010
   12.57861137  127.83699799    0.52999997    2.39000010
   12.58111095  127.08200073    0.52999997    2.39000010
   12.58222198  128.15400696    0.52999997    2.39000010
   12.58555508  129.09100342    0.55000001    2.40000010
   12.58861065  124.41500092    0.55000001    2.40000010
   12.59194374  119.68199921    0.55000001    2.40000010
   12.59527779  120.99199677    0.55000001    2.40000010
   12.59833336  123.77899933    0.55000001    2.40000010
   12.60166740  124.59300232    0.55000001    2.40000010
   12.60500050  132.96600342    0.52999997    2.40000010
   12.60805607  125.80999756    0.52999997    2.40000010
   12.61138916  126.63500214    0.52999997    2.40000010
   12.63361073  126.63500214    0.52999997    2.40000010
   12.63777733  119.98100281    0.52999997    2.40000010
   12.64083290  124.10500336    0.52999997    2.40000010
   12.64416695  120.28199768    0.52999997    2.40000010
   12.64750004  126.89900208    0.51999998    2.42000008
   12.65055561  124.67199707    0.51999998    2.42000008
   12.65388870  127.27899933    0.51999998    2.40000010
   12.65694427  130.30299377    0.51999998    2.42000008
   12.66027737  127.54599762    0.51999998    2.42000008
   12.66305542  124.93199921    0.51999998    2.42000008
   12.66388893  130.98500061    0.50000000    2.42000008
   12.66722298  131.58700562    0.50000000    2.42000008
   12.67027855  128.31100464    0.50000000    2.42000008
   12.67500019  128.31100464    0.50000000    2.42000008
   12.67888927  132.37800598    0.50000000    2.42000008
   12.68222237  131.66400146    0.50000000    2.42000008
   12.68555546  120.36199951    0.50000000    2.42000008
   12.68861103  130.47500610    0.50000000    2.42000008
   12.69194412  127.01799774    0.50000000    2.42000008
   12.69527817  135.71899414    0.50000000    2.42000008
   12.69638920  126.43900299    0.50000000    2.42000008
   12.69861126  127.18800354    0.50000000    2.42000008
   12.70194435  125.99900055    0.50000000    2.42000008
   12.70499992  130.35899353    0.47999999    2.42000008
   12.70833302  127.82199860    0.47999999    2.44000006
   12.71166611  128.69299316    0.47999999    2.44000006
   12.71777725  128.69299316    0.47999999    2.44000006
   12.72194386  128.69599915    0.47999999    2.42000008
   12.72499943  123.16100311    0.47999999    2.42000008
   12.72833252  123.09200287    0.47999999    2.44000006
   12.72972202  124.56800079    0.47999999    2.44000006
   12.73194408  120.27899933    0.47999999    2.44000006
   12.73527813  130.59500122    0.47999999    2.44000006
   12.73833370  134.48599243    0.50000000    2.44000006
   12.74166679  125.11100006    0.50000000    2.44000006
   12.74499989  119.93099976    0.50000000    2.44000006
   12.74805546  141.30000305    0.50000000    2.44000006
   12.75138855  119.16600037    0.50000000    2.44000006
   12.75472260  127.52500153    0.50000000    2.44000006
   12.76055527  127.52500153    0.51999998    2.46000004
   12.76472187  123.10600281    0.50000000    2.44000006
   12.76805496  127.87400055    0.50000000    2.46000004
   12.77111053  118.88099670    0.50000000    2.46000004
   12.77444458  115.65399933    0.50000000    2.44000006
   12.77777767  121.40399933    0.50000000    2.46000004
   12.78083324  121.82199860    0.50000000    2.46000004
   12.78444481  122.34999847    0.50000000    2.46000004
   12.78777790  120.42500305    0.51999998    2.46000004
   12.79083347  120.29499817    0.50000000    2.46000004
   12.79416752  122.73200226    0.50000000    2.46000004
   12.79638958  123.09100342    0.50000000    2.46000004
   12.79777813  126.13400269    0.50000000    2.46000004
   12.80333328  126.13400269    0.50000000    2.46000004
   12.80749989  116.40799713    0.51999998    2.46000004
   12.81083393  112.79199982    0.50000000    2.46000004
   12.81388950  118.84200287    0.50000000    2.46000004
   12.81722260  114.80100250    0.47999999    2.46000004
   12.82055569  123.56199646    0.47999999    2.46000004
   12.82388878  121.70200348    0.47999999    2.46000004
   12.82694435  114.77400208    0.47999999    2.46000004
   12.82999992  117.82700348    0.47999999    2.46000004
   12.83083344  114.96700287    0.47999999    2.46000004
   12.83388901  119.49900055    0.50000000    2.46000004
   12.83722210  117.13700104    0.47999999    2.46000004
   12.84055519  113.15200043    0.47999999    2.46000004
   12.84638882  113.15200043    0.50000000    2.46000004
   12.85055637  119.16000366    0.50000000    2.46000004
   12.85361195  121.86299896    0.50000000    2.46000004
   12.85694504  117.65200043    0.50000000    2.48000002
   12.86000061  122.02799988    0.50000000    2.46000004
   12.86333370  128.78700256    0.50000000    2.48000002
   12.86361122  118.24700165    0.50000000    2.48000002
   12.86694431  114.17099762    0.50000000    2.46000004
   12.86999989  122.68499756    0.51999998    2.46000004
   12.87333393  126.06099701    0.51999998    2.48000002
   12.87666702  113.77400208    0.51999998    2.48000002
   12.87972260  115.62799835    0.51999998    2.46000004
   12.88305569  125.33100128    0.51999998    2.46000004
   12.88916683  125.33100128    0.51999998    2.48000002
   12.89333344  113.48500061    0.50000000    2.48000002
   12.89666653  122.55000305    0.50000000    2.48000002
   12.89694405  122.18900299    0.50000000    2.48000002
   12.90027714  119.83100128    0.50000000    2.48000002
   12.90333271  119.31700134    0.50000000    2.48000002
   12.90666676  114.69200134    0.50000000    2.48000002
   12.90999985  115.14600372    0.50000000    2.48000002
   12.91305542  110.69699860    0.50000000    2.48000002
   12.91638851  122.18099976    0.47999999    2.48000002
   12.91972256  113.74400330    0.47999999    2.48000002
   12.92277813  118.85500336    0.47999999    2.50000000
   12.92611122  127.23600006    0.47999999    2.48000002
   12.93194485  127.23600006    0.47999999    2.48000002
   12.93611145  112.46499634    0.47999999    2.48000002
   12.93944454  127.29199982    0.47999999    2.48000002
   12.94250011  112.62100220    0.47999999    2.48000002
   12.94583321  116.55599976    0.47999999    2.48000002
   12.94888878  119.36799622    0.46000001    2.48000002
   12.95222187  112.41600037    0.47999999    2.48000002
   12.95555496  122.21399689    0.46000001    2.50000000
   12.95861053  118.41600037    0.46000001    2.50000000
   12.96194458  118.67600250    0.46000001    2.50000000
   12.96305561  114.98000336    0.47999999    2.50000000
   12.96555519  115.12400055    0.47999999    2.50000000
   12.96888828  113.61699677    0.46000001    2.48000002
   12.97472191  113.61699677    0.46000001    2.48000002
   12.97888851  118.38600159    0.46000001    2.50000000
   12.98222160  116.73799896    0.46000001    2.50000000
   12.98527813  130.29800415    0.47999999    2.50000000
   12.98861122  113.37999725    0.47999999    2.50000000
   12.99194431  117.73500061    0.46000001    2.50000000
   12.99499989  112.76899719    0.46000001    2.50000000
   12.99666691  119.18800354    0.47999999    2.50000000
   12.99861145  111.24800110    0.47999999    2.50000000
   13.00194454  111.78800201    0.47999999    2.50000000
   13.00500011  125.17700195    0.47999999    2.50000000
   13.00833321  120.91000366    0.47999999    2.50000000
   13.01166630  115.64600372    0.47999999    2.50000000
   13.01777744  115.64600372    0.47999999    2.50000000
   13.02194405  118.94000244    0.47999999    2.50000000
   13.02499962  118.66899872    0.50000000    2.51999998
   13.02833271  118.23600006    0.50000000    2.50000000
   13.02999973  118.29499817    0.50000000    2.50000000
   13.03194427  117.37599945    0.50000000    2.50000000
   13.03527832  115.20600128    0.50000000    2.50000000
   13.03833389  114.01200104    0.50000000    2.50000000
   13.04166698  120.45099640    0.50000000    2.50000000
   13.04472256  121.63899994    0.47999999    2.50000000
   13.04805565  115.96700287    0.47999999    2.50000000
   13.05138874  122.51200104    0.47999999    2.50000000
   13.05444431  119.89499664    0.47999999    2.51999998
   13.06055546  119.89499664    0.47999999    2.51999998
   13.06472206  118.00599670    0.47999999    2.51999998
   13.06777763  119.63099670    0.50000000    2.51999998
   13.07111073  116.45899963    0.50000000    2.50000000
   13.07444477  123.44100189    0.50000000    2.50000000
   13.07750034  122.45099640    0.51999998    2.51999998
   13.08083344  127.95300293    0.51999998    2.50000000
   13.08416653  132.42100525    0.51999998    2.51999998
   13.08722210  118.10500336    0.51999998    2.50000000
   13.09055519  128.25100708    0.51999998    2.51999998
   13.09388828  118.65399933    0.51999998    2.51999998
   13.09666634  124.88600159    0.51999998    2.51999998
   13.09749985  126.70500183    0.51999998    2.51999998
   13.10333347  126.70500183    0.51999998    2.51999998
   13.10750008  127.02400208    0.51999998    2.51999998
   13.11083412  111.68800354    0.50000000    2.51999998
   13.11388969  126.81300354    0.47999999    2.51999998
   13.11722279  111.96700287    0.47999999    2.51999998
   13.12027836  114.50099945    0.46000001    2.51999998
   13.12361145  118.47799683    0.46000001    2.51999998
   13.12694454  114.72899628    0.46000001    2.51999998
   13.13000011  117.11399841    0.46000001    2.51999998
   13.13055611  113.85700226    0.46000001    2.51999998
   13.13388920  119.53299713    0.47999999    2.53999996
   13.13694477  115.47399902    0.46000001    2.51999998
   13.14027786  115.89299774    0.46000001    2.51999998
   13.14611053  115.89299774    0.46000001    2.51999998
   13.15027714  112.59799957    0.46000001    2.51999998
   13.15361118  116.75199890    0.46000001    2.53999996
   13.15666676  110.63200378    0.47999999    2.53999996
   13.15999985  115.48300171    0.47999999    2.51999998
   13.16333294  116.80100250    0.47999999    2.53999996
   13.16388893  114.02500153    0.47999999    2.53999996
   13.16694450  115.62899780    0.46000001    2.53999996
   13.17027855  114.59799957    0.47999999    2.53999996
   13.17361164  116.16100311    0.47999999    2.53999996
   13.17666721  113.17700195    0.47999999    2.53999996
   13.18000031  117.44899750    0.46000001    2.53999996
   13.18333340  118.06900024    0.47999999    2.51999998
   13.18916702  118.06900024    0.47999999    2.53999996
   13.19333363  110.71299744    0.47999999    2.53999996
   13.19638920  112.37300110    0.50000000    2.53999996
   13.19722271  112.68000031    0.50000000    2.53999996
   13.19999981  112.38700104    0.52999997    2.55999994
   13.20333290  109.34100342    0.52999997    2.55999994
   13.20666695  110.06099701    0.51999998    2.53999996
   13.20972157  120.26000214    0.51999998    2.55999994
   13.21305561  115.34600067    0.51999998    2.55999994
   13.21611118  112.82700348    0.50000000    2.53999996
   13.21944427  111.84999847    0.50000000    2.53999996
   13.22277737  118.80999756    0.50000000    2.53999996
   13.22583294  114.52200317    0.51999998    2.53999996
   13.23194408  114.52200317    0.51999998    2.53999996
   13.23611164  110.00599670    0.52999997    2.55999994
   13.23916721  118.24900055    0.55000001    2.55999994
   13.24250031  112.16100311    0.55000001    2.53999996
   13.24583340  113.34600067    0.55000001    2.53999996
   13.24888897  109.83000183    0.52999997    2.55999994
   13.25222206  106.88400269    0.51999998    2.53999996
   13.25555515  111.82099915    0.51999998    2.53999996
   13.25861073  106.34999847    0.52999997    2.53999996
   13.26194477  108.75399780    0.50000000    2.53999996
   13.26388931  102.02400208    0.47999999    2.55999994
   13.26555538  113.53299713    0.47999999    2.55999994
   13.26888847  113.53900146    0.47999999    2.53999996
   13.27472210  113.53900146    0.47999999    2.55999994
   13.27888870  112.08000183    0.46000001    2.53999996
   13.28222179  112.01100159    0.46000001    2.53999996
   13.28527832  112.24199677    0.46000001    2.55999994
   13.28861141  115.35500336    0.44000000    2.53999996
   13.29166698  113.27400208    0.44000000    2.53999996
   13.29500008  121.36499786    0.44000000    2.53999996
   13.29722309  110.88300323    0.41999999    2.55999994
   13.29861164  114.16300201    0.41999999    2.55999994
   13.30194473  108.71099854    0.44000000    2.55999994
   13.30527782  109.49199677    0.41999999    2.55999994
   13.30833340  113.84899902    0.41999999    2.55999994
   13.31166649  114.14499664    0.41999999    2.55999994
   13.31750011  114.14499664    0.44000000    2.55999994
   13.32166672  109.93800354    0.41999999    2.55999994
   13.32499981  108.55799866    0.41999999    2.55999994
   13.32805538  104.58499908    0.41999999    2.55999994
   13.33055592  113.02400208    0.41999999    2.55999994
   13.33166695  108.23000336    0.41999999    2.55999994
   13.33500004  106.63300323    0.44000000    2.55999994
   13.33833313  121.29799652    0.44000000    2.55999994
   13.34138870  113.66699982    0.44000000    2.57999992
   13.34472179  113.84300232    0.44000000    2.57999992
   13.34805489  105.54699707    0.44000000    2.57999992
   13.35111141  109.87799835    0.44000000    2.55999994
   13.35444450  109.63300323    0.44000000    2.55999994
   13.36055565  109.63300323    0.41999999    2.55999994
   13.36444473  115.28900146    0.41999999    2.57999992
   13.36777782  112.78800201    0.44000000    2.55999994
   13.37111092  122.91699982    0.44000000    2.55999994
   13.37416649  110.19699860    0.41999999    2.55999994
   13.37750053  109.32299805    0.41999999    2.55999994
   13.38083363  114.67800140    0.41999999    2.55999994
   13.38388920  109.88700104    0.41999999    2.57999992
   13.38722229  115.76799774    0.44000000    2.55999994
   13.39027786  113.33999634    0.41999999    2.57999992
   13.39361095  114.60500336    0.44000000    2.55999994
   13.39694405  114.47699738    0.44000000    2.57999992
   13.39750004  110.09200287    0.44000000    2.57999992
   13.40333271  110.09200287    0.41999999    2.57999992
   13.40749931  111.25199890    0.44000000    2.55999994
   13.41055489  106.72599792    0.44000000    2.57999992
   13.41388893  111.24299622    0.44000000    2.57999992
   13.41722298  117.37100220    0.41999999    2.57999992
   13.42027855  116.83000183    0.41999999    2.57999992
   13.42361164  108.63500214    0.44000000    2.57999992
   13.42694473  114.37000275    0.44000000    2.57999992
   13.43000031  110.42600250    0.41999999    2.57999992
   13.43083382  103.42299652    0.41999999    2.57999992
   13.43361092  110.05000305    0.44000000    2.57999992
   13.43694496  110.70500183    0.44000000    2.57999992
   13.44027805  110.55300140    0.46000001    2.57999992
   13.44611073  110.55300140    0.44000000    2.59999990
   13.45027733  108.84100342    0.44000000    2.59999990
   13.45361137  105.73200226    0.46000001    2.57999992
   13.45666695  107.25399780    0.47999999    2.57999992
   13.46000004  114.58799744    0.47999999    2.57999992
   13.46305561  112.10299683    0.47999999    2.57999992
   13.46416664  114.81900024    0.50000000    2.57999992
   13.46666622  117.49500275    0.50000000    2.57999992
   13.46999931  114.49800110    0.50000000    2.57999992
   13.47333336  116.71099854    0.46000001    2.57999992
   13.47638798  115.54499817    0.50000000    2.57999992
   13.47972202  124.61599731    0.51999998    2.57999992
   13.48305511  115.96600342    0.51999998    2.59999990
   13.48888874  115.96600342    0.46000001    2.59999990
   13.49305534  116.08999634    0.46000001    2.57999992
   13.49638939  111.44999695    0.46000001    2.57999992
   13.49750042  124.52799988    0.46000001    2.57999992
   13.49972248  120.72699738    0.44000000    2.59999990
   13.50305557  124.59899902    0.41999999    2.57999992
   13.50638866  116.91600037    0.41999999    2.57999992
   13.50944424  113.30400085    0.40000001    2.59999990
   13.51277733  112.67099762    0.40000001    2.57999992
   13.51583290  123.24900055    0.40000001    2.57999992
   13.51916599  130.76199341    0.40000001    2.59999990
   13.52250004  118.80000305    0.40000001    2.57999992
   13.52555561  121.87500000    0.40000001    2.57999992
   13.53166676  121.87500000    0.40000001    2.57999992
   13.53583336  111.75099945    0.40000001    2.57999992
   13.53916740  128.68899536    0.40000001    2.57999992
   13.54250050  113.18800354    0.40000001    2.57999992
   13.54555607  109.49400330    0.40000001    2.59999990
   13.54888916  131.33099365    0.40000001    2.59999990
   13.55194473  121.36199951    0.40000001    2.59999990
   13.55527782  122.57399750    0.41999999    2.59999990
   13.55861092  117.22799683    0.41999999    2.59999990
   13.56166649  111.14700317    0.41999999    2.59999990
   13.56416702  117.50099945    0.40000001    2.59999990
   13.56527805  117.15499878    0.40000001    2.59999990
   13.56861115  117.24299622    0.40000001    2.59999990
   13.57472229  117.24299622    0.41999999    2.59999990
   13.57888889  110.65399933    0.40000001    2.59999990
   13.58222198  108.74199677    0.41999999    2.59999990
   13.58555508  117.24900055    0.41999999    2.59999990
   13.58888817  109.16000366    0.41999999    2.59999990
   13.59222221  112.99199677    0.41999999    2.59999990
   13.59527779  103.45800018    0.41999999    2.59999990
   13.59749985  107.79699707    0.41999999    2.61999989
   13.59888840  110.33799744    0.40000001    2.59999990
   13.60222244  111.33499908    0.40000001    2.59999990
   13.60555553  115.92900085    0.40000001    2.59999990
   13.60861111  112.89299774    0.40000001    2.59999990
   13.61194515  108.01200104    0.40000001    2.59999990
   13.61750031  108.01200104    0.40000001    2.59999990
   13.62166691  110.15100098    0.40000001    2.59999990
   13.62472248  111.44200134    0.40000001    2.59999990
   13.62805557  108.99600220    0.40000001    2.59999990
   13.64555550  112.09799957    0.40000001    2.59999990
   13.64805508  107.26899719    0.41999999    2.61999989
   13.65166664  106.31900024    0.41999999    2.59999990
   13.65499973  104.22200012    0.41999999    2.59999990
   13.66027737  104.22200012    0.44000000    2.59999990
   13.66444397  107.51200104    0.41999999    2.59999990
   13.66777802  108.49299622    0.41999999    2.59999990
   13.67111111  116.56099701    0.41999999    2.59999990
   13.67416668  124.06600189    0.40000001    2.61999989
   13.67750072  110.94100189    0.40000001    2.59999990
   13.67888927  113.34700012    0.40000001    2.59999990
   13.68111134  109.15499878    0.40000001    2.59999990
   13.68444443  117.71900177    0.40000001    2.59999990
   13.68777752  107.94899750    0.40000001    2.59999990
   13.69083309  102.81700134    0.40000001    2.61999989
   13.69416714  113.17700195    0.40000001    2.61999989
   13.69750023  111.16100311    0.40000001    2.61999989
   13.70333290  111.16100311    0.40000001    2.59999990
   13.70749950  108.68299866    0.40000001    2.61999989
   13.71055508  106.11699677    0.40000001    2.61999989
   13.71222210  108.87500000    0.40000001    2.61999989
   13.71416664  101.55599976    0.40000001    2.61999989
   13.71749973  109.08699799    0.40000001    2.61999989
   13.72055531  104.34500122    0.40000001    2.61999989
   13.72388840  103.23100281    0.40000001    2.61999989
   13.72722149  109.25399780    0.40000001    2.61999989
   13.73027706  110.72299957    0.40000001    2.61999989
   13.73361111  118.08399963    0.41999999    2.61999989
   13.73694515  109.75800323    0.41999999    2.61999989
   13.74000072  107.60500336    0.41999999    2.61999989
   13.74638939  107.60500336    0.40000001    2.64000010
   13.75027752  105.16899872    0.40000001    2.64000010
   13.75361156  111.47100067    0.40000001    2.61999989
   13.75694466  104.39900208    0.40000001    2.64000010
   13.76000023  106.29399872    0.40000001    2.61999989
   13.76333332  108.29900360    0.40000001    2.61999989
   13.76666641  112.20999908    0.40000001    2.61999989
   13.76972198  106.34999847    0.40000001    2.61999989
   13.77305508  109.66799927    0.38000000    2.61999989
   13.77611065  105.04499817    0.38000000    2.61999989
   13.77888870  109.29100037    0.38000000    2.64000010
   13.77972221  107.90499878    0.38000000    2.64000010
   13.78305531  108.36699677    0.38000000    2.64000010
   13.78888893  108.36699677    0.38000000    2.64000010
   13.79305553  107.95899963    0.38000000    2.61999989
   13.79638958  109.04799652    0.38000000    2.61999989
   13.79944515  120.16999817    0.38000000    2.61999989
   13.80277824  107.16500092    0.38000000    2.61999989
   13.80611134  109.60099792    0.38000000    2.64000010
   13.80916691  109.20999908    0.38000000    2.64000010
   13.81222248  108.52899933    0.36000001    2.61999989
   13.81305599  105.59600067    0.36000001    2.61999989
   13.81611156  104.70400238    0.38000000    2.64000010
   13.81944466  104.85700226    0.38000000    2.61999989
   13.82277775  108.31099701    0.38000000    2.61999989
   13.82583332  106.58000183    0.38000000    2.64000010
   13.83166695  106.58000183    0.38000000    2.64000010
   13.83583260  111.38400269    0.38000000    2.64000010
   13.83916664  103.67400360    0.36000001    2.64000010
   13.84249973  101.29399872    0.36000001    2.64000010
   13.84555531  103.83499908    0.36000001    2.64000010
   13.84583282  106.24099731    0.36000001    2.64000010
   13.84916592  104.44499969    0.38000000    2.61999989
   13.85249996  111.04199982    0.38000000    2.61999989
   13.85555553  109.69100189    0.36000001    2.61999989
   13.85888958  108.62400055    0.36000001    2.61999989
   13.86222267  109.35800171    0.38000000    2.64000010
   13.86527824  110.27300262    0.36000001    2.66000009
   13.86861134  124.02700043    0.36000001    2.64000010
   13.87472248  124.02700043    0.38000000    2.64000010
   13.87888908  126.75499725    0.38000000    2.64000010
   13.88222218  143.67599487    0.38000000    2.64000010
   13.88555527  146.96200562    0.38000000    2.64000010
   13.88861084  151.25700378    0.38000000    2.64000010
   13.89194393  141.85600281    0.36000001    2.64000010
   13.89499950  134.47000122    0.36000001    2.64000010
   13.89833355  146.14900208    0.36000001    2.64000010
   13.90166664  134.62899780    0.38000000    2.64000010
   13.90472221  143.57099915    0.36000001    2.64000010
   13.90805531  139.01499939    0.36000001    2.64000010
   13.91138840  156.75399780    0.38000000    2.64000010
   13.91222191  130.08099365    0.38000000    2.64000010
   13.91750050  130.08099365    0.36000001    2.64000010
   13.92166710  144.92900085    0.38000000    2.64000010
   13.92472267  140.35600281    0.38000000    2.64000010
   13.92805576  146.28900146    0.38000000    2.64000010
   13.93138885  149.28100586    0.38000000    2.64000010
   13.93444443  145.44700623    0.40000001    2.64000010
   13.93777752  123.00900269    0.38000000    2.64000010
   13.94111156  117.08300018    0.38000000    2.64000010
   13.94416714  144.25399780    0.38000000    2.64000010
   13.94555569  139.33299255    0.38000000    2.64000010
   13.94777775  129.05299377    0.38000000    2.64000010
   13.95111084  120.88999939    0.38000000    2.64000010
   13.95444393  121.57700348    0.40000001    2.64000010
   13.96027756  121.57700348    0.38000000    2.64000010
   13.96444416  126.18499756    0.40000001    2.64000010
   13.96777725  135.12600708    0.40000001    2.64000010
   13.97083282  108.54199982    0.38000000    2.64000010
   13.97416592  119.90599823    0.38000000    2.64000010
   13.97749996  125.06800079    0.38000000    2.64000010
   13.97888851  117.83000183    0.34000000    2.66000009
   13.98083305  117.33300018    0.34000000    2.66000009
   13.98416710  108.98699951    0.34000000    2.66000009
   13.98750019  119.59300232    0.34000000    2.64000010
   13.99055576  122.38500214    0.34000000    2.66000009
   13.99388885  121.66100311    0.34000000    2.64000010
   13.99722290  131.44000244    0.34000000    2.64000010
   14.00305557  131.44000244    0.34000000    2.66000009
   14.00722218  117.25599670    0.36000001    2.64000010
   14.01055527  120.15899658    0.38000000    2.66000009
   14.01222229  122.09999847    0.38000000    2.66000009
   14.01416683  125.77600098    0.36000001    2.66000009
   14.01749992  129.13499451    0.36000001    2.66000009
   14.02083302  132.28100586    0.38000000    2.66000009
   14.02388859  121.74800110    0.36000001    2.64000010
   14.02722168  115.77700043    0.36000001    2.66000009
   14.03027725  124.97599792    0.36000001    2.66000009
   14.03361130  118.90599823    0.36000001    2.66000009
   14.03694534  118.67700195    0.36000001    2.66000009
   14.04000092  123.39600372    0.38000000    2.66000009
   14.04611111  123.39600372    0.36000001    2.66000009
   14.05000019  114.79599762    0.36000001    2.64000010
   14.05333328  120.11100006    0.36000001    2.66000009
   14.05666733  135.57400513    0.36000001    2.64000010
   14.05972195  133.98199463    0.36000001    2.66000009
   14.06305599  133.90100098    0.36000001    2.66000009
   14.06638908  134.82899475    0.36000001    2.66000009
   14.06944466  131.84700012    0.36000001    2.66000009
   14.07277775  120.63700104    0.36000001    2.66000009
   14.07583332  116.17800140    0.34000000    2.66000009
   14.07888889  111.86499786    0.34000000    2.66000009
   14.07972240  126.58399963    0.34000000    2.66000009
   14.08305550  112.17199707    0.34000000    2.66000009
   14.08888817  112.17199707    0.34000000    2.66000009
   14.09305477  116.66799927    0.34000000    2.66000009
   14.09611034  117.40799713    0.34000000    2.66000009
   14.09944439  112.00800323    0.34000000    2.64000010
   14.10277843  118.96800232    0.36000001    2.66000009
   14.10583401  120.37500000    0.36000001    2.66000009
   14.10916710  116.88800049    0.36000001    2.66000009
   14.11222267  122.30699921    0.36000001    2.66000009
   14.11277771  116.51200104    0.36000001    2.66000009
   14.11611176  125.17900085    0.36000001    2.66000009
   14.11944485  121.83499908    0.36000001    2.64000010
   14.12250042  122.01000214    0.36000001    2.66000009
   14.12583351  122.82800293    0.36000001    2.66000009
   14.13166714  122.82800293    0.36000001    2.66000009
   14.13583279  121.05999756    0.36000001    2.66000009
   14.13916683  114.73500061    0.36000001    2.66000009
   14.14222240  120.14499664    0.36000001    2.66000009
   14.14555550  118.72499847    0.36000001    2.66000009
   14.14583302  118.52799988    0.36000001    2.66000009
   14.14916611  118.07499695    0.36000001    2.66000009
   14.15249920  116.86399841    0.36000001    2.66000009
   14.15555477  127.43199921    0.36000001    2.66000009
   14.15888882  117.03700256    0.36000001    2.66000009
   14.16194439  118.02899933    0.36000001    2.66000009
   14.16527748  121.18399811    0.36000001    2.66000009
   14.16861153  114.00399780    0.36000001    2.66000009
   14.17444515  114.00399780    0.36000001    2.67000008
   14.17861176  123.72299957    0.36000001    2.66000009
   14.17916679  119.46299744    0.36000001    2.66000009
   14.18249989  112.97599792    0.34000000    2.66000009
   14.18583298  126.01499939    0.36000001    2.66000009
   14.18888855  113.80799866    0.36000001    2.66000009
   14.19222260  127.51200104    0.34000000    2.66000009
   14.19527817  125.57499695    0.34000000    2.67000008
   14.19861126  116.10399628    0.34000000    2.67000008
   14.20194435  126.19899750    0.34000000    2.66000009
   14.20499992  123.70700073    0.34000000    2.66000009
   14.20833302  119.13099670    0.34000000    2.67000008
   14.21166611  117.92099762    0.34000000    2.67000008
   14.21249962  115.80699921    0.34000000    2.67000008
   14.21749973  115.80699921    0.34000000    2.66000009
   14.22166634  113.52300262    0.34000000    2.66000009
   14.22472191  114.60399628    0.34000000    2.67000008
   14.22805500  114.07299805    0.34000000    2.67000008
   14.23111057  121.19899750    0.36000001    2.66000009
   14.23444462  111.17500305    0.34000000    2.66000009
   14.23777771  111.36699677    0.34000000    2.66000009
   14.24083328  113.45099640    0.34000000    2.66000009
   14.24416733  116.18299866    0.34000000    2.66000009
   14.24583340  106.74700165    0.34000000    2.67000008
   14.24777794  106.91100311    0.34000000    2.67000008
   14.25111103  110.47799683    0.36000001    2.67000008
   14.25416660  112.06800079    0.36000001    2.66000009
   14.26027775  112.06800079    0.36000001    2.67000008
   14.26444435  110.77799988    0.36000001    2.67000008
   14.26777744  107.84400177    0.36000001    2.67000008
   14.27083302  111.27600098    0.36000001    2.67000008
   14.27416611  123.83200073    0.34000000    2.67000008
   14.27722168  116.48100281    0.34000000    2.66000009
   14.27916622  115.95800018    0.34000000    2.67000008
   14.28083324  114.87599945    0.34000000    2.67000008
   14.28416729  113.05999756    0.34000000    2.66000009
   14.28722286  123.56700134    0.36000001    2.67000008
   14.29055595  116.07900238    0.36000001    2.67000008
   14.29388905  120.85800171    0.34000000    2.67000008
   14.29694462  123.43599701    0.34000000    2.67000008
   14.30305576  123.43599701    0.34000000    2.67000008
   14.30722237  117.31199646    0.36000001    2.67000008
   14.31055546  114.90799713    0.36000001    2.67000008
   14.31250000  113.79799652    0.36000001    2.67000008
   14.31416702  110.30899811    0.36000001    2.67000008
   14.31750011  111.41600037    0.38000000    2.66000009
   14.32055569  111.45300293    0.38000000    2.67000008
   14.32388878  115.23999786    0.38000000    2.67000008
   14.32722187  114.98400116    0.38000000    2.67000008
   14.33027744  109.09100342    0.36000001    2.67000008
   14.33361053  110.68699646    0.36000001    2.67000008
   14.33694458  114.06800079    0.36000001    2.67000008
   14.34000015  110.12999725    0.36000001    2.67000008
   14.34583282  110.12999725    0.38000000    2.67000008
   14.35000038  108.39700317    0.36000001    2.67000008
   14.35333347  110.51399994    0.38000000    2.67000008
   14.35638905  119.84400177    0.36000001    2.67000008
   14.35972214  109.81700134    0.36000001    2.67000008
   14.36305618  112.40200043    0.36000001    2.67000008
   14.36611176  116.31999969    0.36000001    2.67000008
   14.36944485  111.30200195    0.36000001    2.67000008
   14.37277794  113.83499908    0.36000001    2.67000008
   14.37583351  117.04199982    0.36000001    2.67000008
   14.37916660  110.59600067    0.36000001    2.67000008
   14.38111115  112.23799896    0.36000001    2.67000008
   14.38277817  114.59899902    0.36000001    2.67000008
   14.38888836  114.59899902    0.36000001    2.67000008
   14.39277744  105.81500244    0.34000000    2.67000008
   14.39611053  106.67700195    0.34000000    2.67000008
   14.39944458  110.43800354    0.34000000    2.69000006
   14.40249920  108.43399811    0.34000000    2.67000008
   14.40583324  101.44599915    0.34000000    2.69000006
   14.40916634  103.18299866    0.34000000    2.69000006
   14.41222191  108.47699738    0.34000000    2.69000006
   14.41444397  102.29199982    0.36000001    2.67000008
   14.41611099  102.91500092    0.36000001    2.67000008
   14.41916656  105.30100250    0.34000000    2.67000008
   14.42250061  104.35600281    0.36000001    2.67000008
   14.42583370  109.63400269    0.36000001    2.67000008
   14.43166733  109.63400269    0.38000000    2.67000008
   14.43583298  107.95600128    0.36000001    2.67000008
   14.43888855  107.03600311    0.36000001    2.67000008
   14.44222260  108.17600250    0.36000001    2.67000008
   14.44555569  110.37100220    0.36000001    2.67000008
   14.44777775  110.99500275    0.36000001    2.67000008
   14.44916630  110.30400085    0.38000000    2.67000008
   14.45222187  107.53700256    0.36000001    2.67000008
   14.45555496  116.76999664    0.38000000    2.67000008
   14.45888901  116.13899994    0.36000001    2.67000008
   14.46194458  114.03700256    0.36000001    2.67000008
   14.46527767  105.21800232    0.36000001    2.67000008
   14.46861076  114.69100189    0.38000000    2.67000008
   14.47444439  114.69100189    0.38000000    2.67000008
   14.47861099  118.82900238    0.38000000    2.67000008
   14.48111057  107.15799713    0.38000000    2.67000008
   14.48222160  123.77200317    0.38000000    2.67000008
   14.48555565  104.37599945    0.38000000    2.67000008
   14.48861122  117.52700043    0.38000000    2.67000008
   14.49194431  123.83399963    0.38000000    2.67000008
   14.49527836  127.41400146    0.38000000    2.69000006
   14.49833393  129.77499390    0.38000000    2.67000008
   14.50166702  133.36000061    0.38000000    2.67000008
   14.50472260  137.90899658    0.38000000    2.67000008
   14.50805569  121.93599701    0.38000000    2.67000008
   14.51138878  140.56599426    0.38000000    2.67000008
   14.51722240  140.56599426    0.36000001    2.69000006
   14.52166653  123.34300232    0.34000000    2.67000008
   14.52472210  115.44899750    0.34000000    2.67000008
   14.52805519  121.99299622    0.36000001    2.69000006
   14.53138828  121.51699829    0.36000001    2.69000006
   14.53444481  113.62500000    0.36000001    2.67000008
   14.53777790  128.68499756    0.38000000    2.67000008
   14.54111195  125.74700165    0.38000000    2.69000006
   14.54416752  128.76199341    0.36000001    2.69000006
   14.54750061  120.86699677    0.36000001    2.69000006
   14.54833412  128.95500183    0.36000001    2.69000006
   14.55111122  126.48799896    0.36000001    2.67000008
   14.55444431  116.27300262    0.36000001    2.67000008
   14.56027794  116.27300262    0.36000001    2.67000008
   14.56416702  123.18399811    0.38000000    2.67000008
   14.56750011  120.95300293    0.36000001    2.69000006
   14.57083321  123.75900269    0.34000000    2.69000006
   14.57388878  116.16300201    0.34000000    2.69000006
   14.57722187  120.49700165    0.34000000    2.69000006
   14.58055592  123.16600037    0.34000000    2.69000006
   14.58166695  119.62400055    0.34000000    2.69000006
   14.58416653  121.83699799    0.34000000    2.69000006
   14.58749962  125.68000031    0.34000000    2.69000006
   14.59055519  129.40199280    0.34000000    2.69000006
   14.59388828  122.38899994    0.34000000    2.69000006
   14.59722233  124.33799744    0.34000000    2.69000006
   14.60305595  124.33799744    0.34000000    2.69000006
   14.60722256  127.83000183    0.34000000    2.69000006
   14.61027813  124.55400085    0.34000000    2.67000008
   14.61361122  111.22399902    0.34000000    2.67000008
   14.61500072  122.98899841    0.34000000    2.69000006
   14.61722279  124.20899963    0.34000000    2.69000006
   14.62055588  125.80899811    0.34000000    2.69000006
   14.62361145  130.30900574    0.34000000    2.69000006
   14.62694454  126.47499847    0.36000001    2.69000006
   14.63000011  124.25900269    0.36000001    2.69000006
   14.63333321  127.24900055    0.34000000    2.69000006
   14.63666630  127.05699921    0.34000000    2.69000006
   14.63972187  122.92500305    0.34000000    2.69000006
   14.64583302  122.92500305    0.36000001    2.69000006
   14.66416645  117.27500153    0.36000001    2.69000006
   14.66750050  118.40599823    0.34000000    2.69000006
   14.67055607  104.05999756    0.34000000    2.69000006
   14.67388916  116.53299713    0.34000000    2.69000006
   14.67722225  122.71700287    0.34000000    2.69000006
   14.68027782  114.47399902    0.38000000    2.69000006
   14.68361092  115.71299744    0.36000001    2.71000004
   14.68888855  115.71299744    0.36000001    2.69000006
   14.69305515  111.86599731    0.36000001    2.69000006
   14.69638920  104.02500153    0.36000001    2.69000006
   14.69722271  111.27799988    0.36000001    2.69000006
   14.69999981  101.68800354    0.36000001    2.69000006
   14.70333290  116.47899628    0.36000001    2.69000006
   14.70638847  116.82199860    0.38000000    2.69000006
   14.70972157  115.39199829    0.36000001    2.69000006
   14.71277714  112.99900055    0.36000001    2.69000006
   14.71611118  111.84899902    0.36000001    2.69000006
   14.71944427  112.88500214    0.38000000    2.69000006
   14.72277737  115.16400146    0.36000001    2.69000006
   14.72583294  115.53099823    0.36000001    2.69000006
   14.73166656  115.53099823    0.36000001    2.69000006
   14.73583317  125.40699768    0.36000001    2.69000006
   14.73916721  120.81199646    0.34000000    2.69000006
   14.74250031  122.88400269    0.34000000    2.69000006
   14.74555588  118.47799683    0.36000001    2.69000006
   14.74888897  108.45999908    0.36000001    2.69000006
   14.75194454  104.67299652    0.36000001    2.69000006
   14.75527763  107.95999908    0.36000001    2.69000006
   14.75861073  109.87599945    0.34000000    2.71000004
   14.76166630  118.63600159    0.36000001    2.69000006
   14.76388931  104.75099945    0.36000001    2.71000004
   14.76555538  108.60099792    0.36000001    2.71000004
   14.76888847  111.83899689    0.38000000    2.69000006
   14.77472210  111.83899689    0.36000001    2.69000006
   14.77888870  107.36000061    0.36000001    2.69000006
   14.78194427  119.84200287    0.36000001    2.69000006
   14.78527832  115.52899933    0.40000001    2.69000006
   14.78833389  115.44999695    0.38000000    2.71000004
   14.79166698  116.08300018    0.36000001    2.71000004
   14.79500008  111.02600098    0.36000001    2.69000006
   14.79722309  118.93099976    0.36000001    2.69000006
   14.79861164  108.20600128    0.36000001    2.69000006
   14.80194473  118.19799805    0.36000001    2.69000006
   14.80500031  117.25800323    0.36000001    2.69000006
   14.80833340  110.09700012    0.36000001    2.69000006
   14.81138897  106.91600037    0.36000001    2.69000006
   14.81750011  106.91600037    0.38000000    2.69000006
   14.82166672  114.40100098    0.38000000    2.69000006
   14.82499981  115.13500214    0.34000000    2.71000004
   14.82833290  111.83699799    0.34000000    2.69000006
   14.83055592  115.35099792    0.34000000    2.69000006
   14.83194447  110.42299652    0.34000000    2.71000004
   14.83527756  108.06199646    0.36000001    2.69000006
   14.83833313  108.82700348    0.36000001    2.69000006
   14.84166622  104.15499878    0.36000001    2.69000006
   14.84472179  105.79699707    0.40000001    2.71000004
   14.84805489   98.94439697    0.55000001    2.69000006
   14.85138893   99.19480133    0.63000000    2.69000006
   14.85472298   98.77570343    0.67000002    2.71000004
   14.86027813   98.77570343    0.58999997    2.71000004
   14.86444473  103.06199646    0.51999998    2.71000004
   14.86777782   99.64279938    0.46000001    2.71000004
   14.87083340  107.31700134    0.41999999    2.69000006
   14.87416649  100.00900269    0.44000000    2.69000006
   14.87750053  101.00099945    0.38000000    2.69000006
   14.88055611  109.78600311    0.36000001    2.69000006
   14.88388920   98.44439697    0.38000000    2.69000006
   14.88722229   95.96649933    0.38000000    2.69000006
   14.89027786  100.94100189    0.46000001    2.69000006
   14.89361095   98.25260162    0.41999999    2.69000006
   14.89666653  105.23899841    0.36000001    2.71000004
   14.89722252  101.76499939    0.36000001    2.71000004
   14.90333271  101.76499939    0.34000000    2.69000006
   14.90749931  100.14900208    0.36000001    2.71000004
   14.91055489   95.55120087    0.36000001    2.71000004
   14.91388893  100.68900299    0.36000001    2.69000006
   14.91694450  110.85800171    0.36000001    2.71000004
   14.92055607  103.14399719    0.41999999    2.69000006
   14.92388916  103.63200378    0.58999997    2.69000006
   14.92694473  104.84899902    0.67000002    2.69000006
   14.93027782  107.44599915    0.51999998    2.69000006
   14.93083382  105.97100067    0.51999998    2.69000006
   14.93388939  108.50299835    0.36000001    2.69000006
   14.93750000  102.11699677    0.40000001    2.71000004
   14.94083309  103.73300171    0.41999999    2.71000004
   14.94611073  103.73300171    0.40000001    2.71000004
   14.95027733  104.17700195    0.34000000    2.71000004
   14.95333290  104.99600220    0.34000000    2.71000004
   14.95666695  104.56199646    0.34000000    2.71000004
   14.96000004  106.90299988    0.40000001    2.71000004
   14.96305561  109.60299683    0.41999999    2.71000004
   14.96416664  105.99400330    0.41999999    2.71000004
   14.96694374  106.90799713    0.41999999    2.71000004
   14.97027779  105.49700165    0.41999999    2.71000004
   14.97361088  105.82299805    0.38000000    2.71000004
   14.97694397  103.55400085    0.36000001    2.71000004
   14.97999954  104.42900085    0.44000000    2.69000006
   14.98333359  103.07199860    0.61000001    2.71000004
   14.98888874  103.07199860    0.47999999    2.71000004
   14.99305534  105.11100006    0.55000001    2.69000006
   14.99611092  101.98899841    0.55000001    2.69000006
   14.99750042  105.89299774    0.55000001    2.69000006
   15.00000000  103.34799957    0.47999999    2.69000006
   15.00305557  101.84999847    0.40000001    2.71000004
   15.00638866  107.18599701    0.40000001    2.71000004
   15.00972176  107.23600006    0.41999999    2.71000004
   15.01277733  108.19899750    0.41999999    2.71000004
   15.01611137  102.34899902    0.41999999    2.71000004
   15.01916599  105.74400330    0.44000000    2.69000006
   15.02250004  103.01699829    0.41999999    2.69000006
   15.02583313   96.90760040    0.38000000    2.71000004
   15.03166676   96.90760040    0.38000000    2.71000004
   15.03583336  104.70099640    0.36000001    2.71000004
   15.03916740  101.82599640    0.36000001    2.71000004
   15.04222298   97.89869690    0.34000000    2.71000004
   15.04555607   98.54090118    0.34000000    2.71000004
   15.04888916  106.46199799    0.34000000    2.69000006
   15.05194473  103.69200134    0.34000000    2.71000004
   15.05527782  104.82299805    0.34000000    2.69000006
   15.05833340  104.01899719    0.34000000    2.69000006
   15.06166649  104.34799957    0.36000001    2.71000004
   15.06416702  103.47699738    0.41999999    2.71000004
   15.06555557  100.73999786    0.41999999    2.71000004
   15.17250061   -1.00000000   -1.00000000   -1.00000000
   15.27083302   -1.00000000   -1.00000000   -1.00000000
   15.38305569   -1.00000000   -1.00000000   -1.00000000
   15.42361164  122.24700165    0.31999999    2.71000004
   15.42694473  103.13400269    0.31999999    2.73000002
   15.43000031  101.32700348    0.31999999    2.73000002
   15.43333340  117.62500000    0.31999999    2.73000002
   15.43666649  103.62300110    0.31999999    2.73000002
   15.43972206  101.49700165    0.31999999    2.71000004
   15.44388866  101.49700165    0.31999999    2.73000002
   15.44805527  104.60399628    0.31999999    2.73000002
   15.45138836  108.53600311    0.34000000    2.73000002
   15.45444393  102.72699738    0.34000000    2.73000002
   15.45694447  107.73799896    0.34000000    2.73000002
   15.45805550  108.46399689    0.34000000    2.73000002
   15.46138859  104.47299957    0.36000001    2.73000002
   15.46444416  107.96299744    0.36000001    2.73000002
   15.46777725  109.45600128    0.36000001    2.71000004
   15.47111034  105.57399750    0.38000000    2.71000004
   15.47416592  111.69599915    0.36000001    2.73000002
   15.47749996  115.89399719    0.36000001    2.73000002
   15.48083305  122.04799652    0.36000001    2.73000002
   15.48666668  122.04799652    0.38000000    2.71000004
   15.49083328  112.81900024    0.40000001    2.73000002
   15.49416733  110.10600281    0.38000000    2.73000002
   15.49722290  103.92299652    0.38000000    2.73000002
   15.50055599  104.96299744    0.40000001    2.73000002
   15.50388908  103.65299988    0.40000001    2.73000002
   15.50694466   96.36209869    0.38000000    2.73000002
   15.51027775  105.47699738    0.38000000    2.73000002
   15.51361084  100.00499725    0.36000001    2.73000002
   15.51666641  108.57099915    0.36000001    2.71000004
   15.51999950  107.75000000    0.36000001    2.73000002
   15.52333355  104.50599670    0.36000001    2.73000002
   15.52388859   99.34580231    0.36000001    2.71000004
   15.52972221   99.34580231    0.36000001    2.73000002
   15.53361130  104.42400360    0.38000000    2.73000002
   15.53694534  107.53399658    0.38000000    2.73000002
   15.54027843  103.52300262    0.38000000    2.73000002
   15.54333401  102.62300110    0.38000000    2.73000002
   15.54666710  105.11199951    0.38000000    2.73000002
   15.55000019  109.79799652    0.38000000    2.73000002
   15.55305576  103.12999725    0.38000000    2.73000002
   15.55638885   94.13800049    0.38000000    2.73000002
   15.55722237  105.12699890    0.38000000    2.73000002
   15.56000042  103.01499939    0.38000000    2.73000002
   15.56333351  107.47499847    0.36000001    2.73000002
   15.56638908  104.69000244    0.36000001    2.73000002
   15.58111095  104.69000244    0.36000001    2.73000002
   15.58500004  103.52200317    0.38000000    2.73000002
   15.58833313  105.08799744    0.40000001    2.75000000
   15.59166622  104.25399780    0.40000001    2.75000000
   15.59499931  106.64600372    0.40000001    2.71000004
   15.59666634  108.49299622    0.40000001    2.71000004
   15.59861088  102.32399750    0.41999999    2.73000002
   15.60166740  106.31800079    0.41999999    2.73000002
   15.60500050  105.64800262    0.40000001    2.71000004
   15.60805607  102.20700073    0.40000001    2.73000002
   15.61138916  104.34300232    0.40000001    2.71000004
   15.61555576  104.34300232    0.40000001    2.71000004
   15.61972237  103.74600220    0.36000001    2.73000002
   15.62277794  104.13800049    0.36000001    2.75000000
   15.62611103  103.40399933    0.38000000    2.73000002
   15.62944412  102.38999939    0.38000000    2.73000002
   15.63000011  104.76599884    0.38000000    2.73000002
   15.63305569  103.10900116    0.34000000    2.73000002
   15.63611126  106.44599915    0.34000000    2.73000002
   15.63944435  106.20600128    0.34000000    2.73000002
   15.64249992  106.05999756    0.36000001    2.73000002
   15.64583302  101.81600189    0.38000000    2.73000002
   15.64916611  106.45300293    0.40000001    2.73000002
   15.65222168  104.92600250    0.40000001    2.73000002
   15.65833282  104.92600250    0.40000001    2.73000002
   15.66249943  108.63899994    0.38000000    2.73000002
   15.66333294  103.06700134    0.38000000    2.73000002
   15.66638851  102.33499908    0.38000000    2.73000002
   15.66944504   99.15399933    0.38000000    2.73000002
   15.67277813  103.82800293    0.38000000    2.73000002
   15.67583370  101.87000275    0.38000000    2.75000000
   15.67916679  108.51599884    0.38000000    2.73000002
   15.68249989  103.93399811    0.38000000    2.73000002
   15.68555546  105.30599976    0.38000000    2.73000002
   15.68888855   99.98010254    0.38000000    2.73000002
   15.69222260  109.50000000    0.40000001    2.73000002
   15.69527817  107.44799805    0.38000000    2.73000002
   15.69666672  103.34999847    0.38000000    2.73000002
   15.70138836  103.34999847    0.36000001    2.73000002
   15.70527744  104.90799713    0.36000001    2.75000000
   15.70861053  108.46399689    0.40000001    2.73000002
   15.71194458  109.66300201    0.40000001    2.73000002
   15.71500015  103.51899719    0.40000001    2.73000002
   15.71833324  100.94799805    0.40000001    2.73000002
   15.72166634  102.84200287    0.41999999    2.75000000
   15.72472191  104.09300232    0.41999999    2.73000002
   15.72805500  102.97399902    0.44000000    2.73000002
   15.72999954  102.89800262    0.44000000    2.73000002
   15.73166656  108.65399933    0.44000000    2.73000002
   15.73472214  102.79699707    0.44000000    2.73000002
   15.73805618   99.67990112    0.44000000    2.73000002
   15.74416733   99.67990112    0.46000001    2.73000002
   15.74833393  101.62400055    0.47999999    2.73000002
   15.75138855  101.01100159    0.47999999    2.73000002
   15.75472260   98.01380157    0.47999999    2.73000002
   15.75805569   99.53309631    0.50000000    2.73000002
   15.76111126   96.03520203    0.46000001    2.73000002
   15.76333332  109.59500122    0.46000001    2.73000002
   15.76500034  101.56800079    0.41999999    2.73000002
   15.76805496   -1.00000000    0.41999999    2.73000002
   15.77138901   -1.00000000    0.40000001    2.73000002
   15.77444458   -1.00000000    0.40000001    2.73000002
   15.77777767   -1.00000000    0.40000001    2.73000002
   15.78111076   -1.00000000    0.40000001    2.75000000
   15.79111195   -1.00000000    0.44000000    2.73000002
   15.79416752   -1.00000000    0.44000000    2.73000002
   15.79777813   -1.00000000    0.40000001    2.73000002
   15.80111122   -1.00000000    0.40000001    2.73000002
   15.80444431   -1.00000000    0.40000001    2.73000002
   15.80749989   -1.00000000    0.40000001    2.75000000
   15.81083393   -1.00000000    0.34000000    2.73000002
   15.81388950   -1.00000000    0.36000001    2.75000000
   15.81722260   -1.00000000    0.36000001    2.75000000
   15.82972240   -1.00000000    0.00000000    0.00000000
   15.83777714   -1.00000000    0.41999999    2.73000002
   15.84111118   -1.00000000    0.44000000    2.73000002
   15.84444427   -1.00000000    0.44000000    2.73000002
   15.84805489  116.08799744    0.44000000    2.73000002
   15.85111141  125.20700073    0.44000000    2.73000002
   16.13138962  127.09200287    0.50000000    2.75000000
   16.13444519  121.40499878    0.50000000    2.75000000
   16.13777733  120.10900116    0.51999998    2.75000000
   16.14111137   92.57460022    0.55000001    2.73000002
   16.14416695   95.85050201    0.51999998    2.73000002
   16.14749908  100.03900146    0.51999998    2.75000000
   16.15166664  100.03900146    0.51999998    2.73000002
   16.15555573   97.52010345    0.51999998    2.75000000
   16.15888786   96.27880096    0.56999999    2.75000000
   16.16222191  103.27500153    0.58999997    2.73000002
   16.16472244   97.99659729    0.58999997    2.73000002
   16.16555595   98.60729980    0.56999999    2.73000002
   16.16888809   98.73320007    0.56999999    2.75000000
   16.17194366  103.58699799    0.56999999    2.75000000
   16.17527771  106.95300293    0.55000001    2.75000000
   16.17860985  109.92900085    0.55000001    2.73000002
   16.18166542  103.38200378    0.55000001    2.73000002
   16.18499947  102.80799866    0.52999997    2.73000002
   16.18805504   95.02469635    0.51999998    2.73000002
   16.19444275   95.02469635    0.51999998    2.75000000
   16.19861031  101.01499939    0.51999998    2.73000002
   16.20166779   98.29399872    0.51999998    2.75000000
   16.20499992  100.81999969    0.51999998    2.75000000
   16.20805550   99.63230133    0.51999998    2.73000002
   16.21138954  103.70999908    0.51999998    2.73000002
   16.21472359   99.44110107    0.51999998    2.75000000
   16.21777916  102.58999634    0.51999998    2.75000000
   16.22111130  102.72000122    0.50000000    2.73000002
   16.22416687   97.97049713    0.46000001    2.75000000
   16.22750092   99.95639801    0.46000001    2.73000002
   16.23055649  107.21499634    0.46000001    2.75000000
   16.23139000  102.28800201    0.46000001    2.75000000
   16.23722267  102.28800201    0.44000000    2.73000002
   16.24138832  101.11000061    0.44000000    2.73000002
   16.24444389  100.05699921    0.44000000    2.73000002
   16.24777794  100.18599701    0.44000000    2.75000000
   16.25111198  103.91100311    0.46000001    2.73000002
   16.25416756  100.73100281    0.46000001    2.73000002
   16.25749969  100.73500061    0.47999999    2.75000000
   16.26055527  100.45899963    0.50000000    2.75000000
   16.26388931   98.11820221    0.50000000    2.73000002
   16.26472282  100.65899658    0.50000000    2.73000002
   16.26777840   96.76249695    0.51999998    2.73000002
   16.27083397  101.05200195    0.51999998    2.73000002
   16.27416611  101.50099945    0.50000000    2.73000002
   16.28000069  101.50099945    0.50000000    2.75000000
   16.28416634  102.13600159    0.47999999    2.75000000
   16.28750038  103.33599854    0.46000001    2.75000000
   16.29055595  101.44599915    0.46000001    2.73000002
   16.29388809  102.38400269    0.46000001    2.73000002
   16.29694366  105.02999878    0.46000001    2.75000000
   16.29805565  100.63600159    0.46000001    2.75000000
   16.30055428  100.79199982    0.47999999    2.75000000
   16.30388832  105.35800171    0.47999999    2.75000000
   16.30694389   98.36239624    0.50000000    2.75000000
   16.31027794   99.73629761    0.50000000    2.73000002
   16.31361008  100.02799988    0.51999998    2.73000002
   16.31666756  102.50000000    0.51999998    2.75000000
   16.32305717  102.50000000    0.56999999    2.73000002
   16.32694626  104.07900238    0.58999997    2.75000000
   16.33027840  100.97000122    0.56999999    2.75000000
   16.33139038   99.85540009    0.56999999    2.75000000
   16.33388901   99.46479797    0.56999999    2.73000002
   16.33722305  103.54000092    0.56999999    2.73000002
   16.34027863   96.45149994    0.55000001    2.73000002
   16.34361267  104.44100189    0.61000001    2.73000002
   16.34694481   98.12000275    0.61000001    2.73000002
   16.35000038   99.79940033    0.61000001    2.73000002
   16.35333443   97.58779907    0.63000000    2.73000002
   16.35639000  100.76599884    0.75000000    2.75000000
   16.35972214  100.17900085    0.76999998    2.73000002
   16.36583328  100.17900085    0.76999998    2.73000002
   16.37000084   97.35639954    0.79000002    2.73000002
   16.37305641   97.66000366    0.79000002    2.73000002
   16.37638855   99.95099640    0.79000002    2.73000002
   16.37944412   99.22689819    0.70999998    2.71000004
   16.38277817  100.11000061    0.69000000    2.73000002
   16.38583374   95.11450195    0.67000002    2.73000002
   16.38916588  103.94799805    0.64999998    2.75000000
   16.39249992  100.10099792    0.63000000    2.73000002
   16.39555550   98.23829651    0.63000000    2.73000002
   16.39805603  108.08999634    0.63000000    2.73000002
   16.39916611  105.80999756    0.63000000    2.73000002
   16.40250015  103.17099762    0.58999997    2.73000002
   16.40861130  103.17099762    0.52999997    2.73000002
   16.41277695   99.32039642    0.51999998    2.75000000
   16.41611099  103.93900299    0.47999999    2.75000000
   16.41916656  110.64399719    0.50000000    2.75000000
   16.42277718  117.49400330    0.50000000    2.75000000
   16.42583275  101.73699951    0.47999999    2.75000000
   16.42916679  110.51999664    0.46000001    2.73000002
   16.43138885  106.94300079    0.46000001    2.73000002
   16.43277740   99.62129974    0.44000000    2.75000000
   16.43610954  116.30300140    0.41999999    2.75000000
   16.43944359  106.96299744    0.41999999    2.75000000
   16.44249916  104.95999908    0.41999999    2.75000000
   16.44583321  108.61299896    0.41999999    2.75000000
   16.45250130  108.61299896    0.40000001    2.75000000
   16.45666695  113.43800354    0.41999999    2.75000000
   16.46000099   99.56739807    0.41999999    2.75000000
   16.46305656  101.79499817    0.44000000    2.73000002
   16.46472359  103.85800171    0.46000001    2.75000000
   16.46666718   96.40560150    0.46000001    2.75000000
   16.47000122  102.93299866    0.46000001    2.73000002
   16.47333336  106.19499969    0.46000001    2.75000000
   16.47638893   94.69249725    0.47999999    2.75000000
   16.47972298   99.95529938    0.46000001    2.75000000
   16.48277855  107.43399811    0.47999999    2.73000002
   16.48611069  117.01499939    0.47999999    2.73000002
   16.48944473  110.86399841    0.47999999    2.75000000
   16.49444389  110.86399841    0.50000000    2.75000000
   16.49861145  140.29400635    0.50000000    2.75000000
   16.50166702  124.93900299    0.50000000    2.75000000
   16.50499916  101.51200104    0.51999998    2.75000000
   16.50805473  126.24600220    0.52999997    2.73000002
   16.51138878  120.08200073    0.52999997    2.75000000
   16.51472282  117.45500183    0.47999999    2.75000000
   16.51777840  104.50499725    0.47999999    2.75000000
   16.52111053  120.80999756    0.44000000    2.73000002
   16.52416611  119.41699982    0.41999999    2.75000000
   16.52750015  124.61399841    0.41999999    2.75000000
   16.53055573  107.18399811    0.41999999    2.75000000
   16.53138924  118.45899963    0.41999999    2.75000000
   16.53722191  118.45899963    0.41999999    2.75000000
   16.54138756  111.24099731    0.41999999    2.75000000
   16.54444313  114.29499817    0.40000001    2.75000000
   16.54777718   96.50800323    0.40000001    2.75000000
   16.55111122   98.38690186    0.40000001    2.75000000
   16.55416679  114.59799957    0.38000000    2.75000000
   16.55749893  104.94200134    0.40000001    2.73000002
   16.56055450  114.77899933    0.40000001    2.75000000
   16.56388855   96.03399658    0.38000000    2.75000000
   16.56472206  105.73400116    0.38000000    2.75000000
   16.56750107  102.03199768    0.40000001    2.75000000
   16.57055664  100.12500000    0.41999999    2.73000002
   16.57389069  108.94999695    0.41999999    2.73000002
   16.58000183  108.94999695    0.40000001    2.75000000
   16.58416748  115.97499847    0.40000001    2.75000000
   16.58750153  102.06600189    0.40000001    2.75000000
   16.59055710  100.91100311    0.36000001    2.75000000
   16.59388924  106.81999969    0.36000001    2.75000000
   16.59694481  103.89800262    0.38000000    2.75000000
   16.59805679  113.26100159    0.38000000    2.75000000
   16.60083389   99.67929840    0.38000000    2.75000000
   16.60388947  114.89399719    0.38000000    2.75000000
   16.60722351  105.22399902    0.38000000    2.75000000
   16.61055565  100.12100220    0.40000001    2.75000000
   16.61361122  109.06199646    0.40000001    2.75000000
   16.61694527  107.36100006    0.38000000    2.73000002
   16.62277794  107.36100006    0.40000001    2.73000002
   16.62694550  107.36000061    0.38000000    2.73000002
   16.63027763  101.76200104    0.38000000    2.73000002
   16.63138962   98.23860168    0.36000001    2.75000000
   16.63388824   96.16970062    0.36000001    2.75000000
   16.63694382  101.33499908    0.36000001    2.73000002
   16.64027786  101.53500366    0.36000001    2.75000000
   16.64333344  101.74299622    0.36000001    2.75000000
   16.64666748  102.88400269    0.36000001    2.75000000
   16.64999962   98.61340332    0.34000000    2.75000000
   16.65305519   99.76570129    0.34000000    2.75000000
   16.65638924  105.62799835    0.34000000    2.75000000
   16.65972137  103.93199921    0.34000000    2.75000000
   16.66583252  103.93199921    0.34000000    2.75000000
   16.66972160  106.75099945    0.36000001    2.75000000
   16.67305565  104.98999786    0.36000001    2.75000000
   16.67638779  104.17400360    0.36000001    2.75000000
   16.67944336  104.90899658    0.38000000    2.75000000
   16.68277740  103.45400238    0.40000001    2.75000000
   16.68583298  107.35700226    0.40000001    2.75000000
   16.68916512  104.88800049    0.40000001    2.75000000
   16.69222069  102.84400177    0.41999999    2.75000000
   16.69555473  103.52400208    0.41999999    2.75000000
   16.69805527  101.05500031    0.41999999    2.75000000
   16.69916534  105.57199860    0.41999999    2.75000000
   16.70222282  102.66300201    0.41999999    2.75000000
   16.70861244  102.66300201    0.41999999    2.75000000
   16.71277809   98.89869690    0.41999999    2.75000000
   16.71583366   99.31179810    0.41999999    2.75000000
   16.71916771   99.88349915    0.40000001    2.75000000
   16.72249985  106.25499725    0.40000001    2.75000000
   16.72555542  100.92800140    0.40000001    2.75000000
   16.72888947  101.49700165    0.40000001    2.75000000
   16.73139000  100.62100220    0.38000000    2.73000002
   16.73250008  101.46099854    0.38000000    2.73000002
   16.73555565  101.03900146    0.38000000    2.75000000
   16.73888969  103.29299927    0.36000001    2.75000000
   16.74194527   99.35769653    0.36000001    2.75000000
   16.74527740   98.56099701    0.38000000    2.75000000
   16.75138855   98.56099701    0.34000000    2.75000000
   16.75555611   99.35089874    0.34000000    2.75000000
   16.75888824  104.40399933    0.31999999    2.75000000
   16.76194382   99.11139679    0.31999999    2.73000002
   16.76472282   98.62229919    0.31999999    2.73000002
   16.76583290  101.35600281    0.31999999    2.73000002
   16.76888847  101.01899719    0.31999999    2.75000000
   16.77222252  103.82800293    0.31999999    2.75000000
   16.77527809  104.80899811    0.31999999    2.75000000
   16.77861023  101.98300171    0.34000000    2.73000002
   16.78166580  104.49900055    0.34000000    2.75000000
   16.78499985  102.28500366    0.34000000    2.75000000
   16.78833199   98.99790192    0.34000000    2.75000000
   16.79416656   98.99790192    0.34000000    2.75000000
   16.79833221   96.92829895    0.36000001    2.75000000
   16.80166626  102.93900299    0.36000001    2.75000000
   16.80472183  102.81800079    0.36000001    2.75000000
   16.80805397  101.63800049    0.36000001    2.75000000
   16.81110954   99.78299713    0.36000001    2.75000000
   16.81444359  108.73999786    0.36000001    2.75000000
   16.81777954  105.41200256    0.36000001    2.75000000
   16.82083511  105.38999939    0.36000001    2.75000000
   16.82416725   99.65019989    0.34000000    2.75000000
   16.82722282   98.72609711    0.34000000    2.75000000
   16.83055687  101.46199799    0.34000000    2.75000000
   16.83139038  103.94799805    0.34000000    2.75000000
   16.83722305  103.94799805    0.34000000    2.75000000
   16.84111214  108.48899841    0.34000000    2.75000000
   16.84444427  101.37300110    0.34000000    2.75000000
   16.84777832  103.89099884    0.34000000    2.75000000
   16.85083389  104.97200012    0.34000000    2.75000000
   16.85416794  100.37000275    0.34000000    2.75000000
   16.85750008  102.75000000    0.34000000    2.75000000
   16.86055565   96.87409973    0.34000000    2.75000000
   16.86388969   98.06629944    0.34000000    2.75000000
   16.86472321  105.44699860    0.34000000    2.75000000
   16.86750031  100.73799896    0.34000000    2.75000000
   16.87055588  104.93599701    0.34000000    2.75000000
   16.87388992  103.94000244    0.36000001    2.75000000
   16.88000107  103.94000244    0.34000000    2.75000000
   16.88416672  102.00499725    0.34000000    2.75000000
   16.88722229   99.63629913    0.34000000    2.75000000
   16.89055634  104.17700195    0.34000000    2.73000002
   16.89361191  101.78700256    0.34000000    2.75000000
   16.89694405  102.61199951    0.36000001    2.75000000
   16.89805603  103.08899689    0.36000001    2.75000000
   16.90055466  102.65799713    0.38000000    2.73000002
   16.90361023  102.28600311    0.38000000    2.75000000
   16.90694427  101.73400116    0.36000001    2.75000000
   16.90999985   97.55670166    0.36000001    2.75000000
   16.91333389  104.44799805    0.36000001    2.75000000
   16.91666603   98.17900085    0.36000001    2.75000000
   16.92277718   98.17900085    0.38000000    2.75000000
   16.92694473  101.49700165    0.38000000    2.73000002
   16.93027687   96.79470062    0.38000000    2.75000000
   16.93138885   99.67990112    0.38000000    2.75000000
   16.93388748   94.07489777    0.36000001    2.75000000
   16.93694305   97.65689850    0.36000001    2.73000002
   16.94027710   95.88919830    0.36000001    2.75000000
   16.94333267   98.81500244    0.36000001    2.75000000
   16.94666672  102.36499786    0.36000001    2.75000000
   16.94972038  103.22000122    0.36000001    2.75000000
   16.95305634  100.90100098    0.36000001    2.75000000
   16.95639038   98.72699738    0.38000000    2.75000000
   16.95944595  105.35900116    0.36000001    2.73000002
   16.96555710  105.35900116    0.36000001    2.75000000
   16.96972275  101.75700378    0.36000001    2.73000002
   16.97305679  102.05899811    0.36000001    2.75000000
   16.97611237   93.57260132    0.38000000    2.75000000
   16.97944450  103.00800323    0.36000001    2.73000002
   16.98277855  100.56999969    0.36000001    2.73000002
   16.98583412   99.47879791    0.36000001    2.73000002
   16.98916626  100.88999939    0.36000001    2.73000002
   16.99222183  101.83699799    0.34000000    2.75000000
   16.99555588   96.62999725    0.34000000    2.75000000
   16.99805641   97.27500153    0.31999999    2.75000000
   16.99916649  103.57199860    0.31999999    2.75000000
   17.00222206   95.64409637    0.34000000    2.75000000
   17.00861168   95.64409637    0.36000001    2.75000000
   17.01277733   96.54450226    0.36000001    2.73000002
   17.01583290   97.93520355    0.34000000    2.75000000
   17.01916695   97.09519958    0.34000000    2.75000000
   17.02222252   95.09500122    0.34000000    2.75000000
   17.02555466   97.27519989    0.34000000    2.75000000
   17.02861023   99.51959991    0.31999999    2.75000000
   17.03138924  105.02400208    0.34000000    2.75000000
   17.03249931   96.71150208    0.34000000    2.75000000
   17.03555489   97.25640106    0.31999999    2.75000000
   17.03888893   97.95739746    0.31999999    2.75000000
   17.04222107  102.21700287    0.31999999    2.75000000
   17.04555511  102.06600189    0.34000000    2.75000000
   17.05166626  102.06600189    0.34000000    2.73000002
   17.05583191   97.29650116    0.34000000    2.75000000
   17.05888748  100.68199921    0.34000000    2.75000000
   17.06222153  105.64800262    0.34000000    2.75000000
   17.06472206  102.12200165    0.34000000    2.75000000
   17.06583214  104.09300232    0.34000000    2.75000000
   17.06888962  103.17500305    0.36000001    2.73000002
   17.07222366  100.35299683    0.34000000    2.75000000
   17.08416748   97.12779999    0.00000000    0.00000000
   17.08750153  106.57499695    0.36000001    2.75000000
   17.09416771  106.57499695    0.36000001    2.75000000
   17.09833336  102.19000244    0.36000001    2.75000000
   17.09972191  100.28800201    0.36000001    2.75000000
   17.10194397   98.96399689    0.36000001    2.75000000
   17.10527802  101.12200165    0.36000001    2.75000000
   17.10833359  102.32800293    0.34000000    2.73000002
   17.12083435   99.88790131    0.00000000    0.00000000
   17.12416649   96.84799957    0.36000001    2.73000002
   17.12722206   98.81169891    0.38000000    2.75000000
   17.13055611  100.31800079    0.38000000    2.75000000
   17.14638901  100.31800079    0.36000001    2.75000000
   17.16499901  107.67500305    0.41999999    2.75000000
   17.16805458  107.13099670    0.41999999    2.75000000
   17.17000008  102.78900146    0.40000001    2.75000000
   17.17166519  101.07299805    0.40000001    2.75000000
   17.17499924   98.34590149    0.40000001    2.75000000
   17.18027687   98.34590149    0.38000000    2.75000000
   17.18416595  103.06500244    0.38000000    2.75000000
   17.18750000  105.32700348    0.38000000    2.75000000
   17.19083214   98.20020294    0.38000000    2.75000000
   17.19388771  104.76499939    0.36000001    2.75000000
   17.19722176   99.87220001    0.36000001    2.75000000
   17.20027924   96.71720123    0.36000001    2.75000000
   17.20333481   97.22309875    0.38000000    2.75000000
   17.20388985   97.27330017    0.38000000    2.75000000
   17.20722389  106.33499908    0.38000000    2.75000000
   17.21027946   95.54879761    0.36000001    2.75000000
   17.21361160   98.51490021    0.36000001    2.75000000
   17.21666718   98.40709686    0.38000000    2.73000002
   17.22305679   98.40709686    0.38000000    2.75000000
   17.22722244  100.66000366    0.36000001    2.73000002
   17.23027802  101.37699890    0.38000000    2.75000000
   17.23361206  101.26499939    0.41999999    2.73000002
   17.23666763   98.66960144    0.41999999    2.73000002
   17.23722267  102.55599976    0.41999999    2.75000000
   17.24055672  102.43099976    0.41999999    2.75000000
   17.24361229  101.55999756    0.40000001    2.75000000
   17.24694443   99.42870331    0.40000001    2.75000000
   17.25027847  103.39399719    0.40000001    2.75000000
   17.25333405  101.30799866    0.38000000    2.75000000
   17.25666618   97.87049866    0.38000000    2.75000000
   17.25972176   94.55120087    0.36000001    2.75000000
   17.26583290   94.55120087    0.36000001    2.75000000
   17.27000046  104.77799988    0.34000000    2.73000002
   17.27305603  100.15100098    0.31999999    2.75000000
   17.27638817   96.99569702    0.31999999    2.75000000
   17.27972221   97.55400085    0.31999999    2.75000000
   17.28277779  104.15499878    0.31999999    2.75000000
   17.28610992   97.95099640    0.31999999    2.75000000
   17.28916550  103.88300323    0.30000001    2.75000000
   17.29249954  104.16200256    0.30000001    2.75000000
   17.29583359   98.38089752    0.31999999    2.75000000
   17.29888916  109.13099670    0.30000001    2.75000000
   17.30222130  105.48799896    0.30000001    2.75000000
   17.30333328  109.85299683    0.31999999    2.75000000
   17.30861092  109.85299683    0.31999999    2.75000000
   17.31277657  110.36199951    0.31999999    2.75000000
   17.31611061  100.97599792    0.31999999    2.75000000
   17.31916809  102.90699768    0.31999999    2.75000000
   17.32250023  103.64800262    0.31999999    2.75000000
   17.32555580  101.36499786    0.34000000    2.73000002
   17.32888985  101.17500305    0.36000001    2.73000002
   17.33222389  102.57199860    0.36000001    2.75000000
   17.33527756  113.74700165    0.36000001    2.75000000
   17.33666801  105.53900146    0.36000001    2.73000002
   17.33889008  105.38999939    0.36000001    2.73000002
   17.34222221  104.66500092    0.36000001    2.75000000
   17.34527779  103.82399750    0.36000001    2.75000000
   17.35166740  103.82399750    0.38000000    2.75000000
   17.35555649  101.95999908    0.40000001    2.75000000
   17.35888863  103.08399963    0.40000001    2.73000002
   17.36222267  104.46399689    0.40000001    2.73000002
   17.36527824  100.66300201    0.40000001    2.73000002
   17.36861038   96.18160248    0.40000001    2.73000002
   17.37000084  103.06400299    0.40000001    2.73000002
   17.37222290  103.34999847    0.38000000    2.75000000
   17.37555504  106.81800079    0.38000000    2.75000000
   17.37861061  114.79399872    0.38000000    2.75000000
   17.38194466  110.57599640    0.36000001    2.75000000
   17.38527679  110.10900116    0.36000001    2.75000000
   17.38833237  108.95800018    0.38000000    2.75000000
   17.39444351  108.95800018    0.34000000    2.75000000
   17.39861107  103.76200104    0.34000000    2.75000000
   17.40166664  104.35800171    0.34000000    2.75000000
   17.40333366  100.67800140    0.34000000    2.75000000
   17.40527725   96.12270355    0.36000001    2.75000000
   17.40861130   99.80490112    0.36000001    2.75000000
   17.41166687   98.50789642    0.36000001    2.75000000
   17.41499901  103.14900208    0.36000001    2.75000000
   17.41833305  104.98799896    0.36000001    2.75000000
   17.42138863  102.65499878    0.38000000    2.75000000
   17.42472076   94.22910309    0.38000000    2.75000000
   17.42777634   92.86650085    0.38000000    2.75000000
   17.43111038  102.90000153    0.38000000    2.75000000
   17.43722153  102.90000153    0.38000000    2.75000000
   17.44138718   98.65429688    0.38000000    2.75000000
   17.44444275  105.11399841    0.38000000    2.75000000
   17.44777679  104.58100128    0.38000000    2.75000000
   17.45111275  105.00599670    0.38000000    2.75000000
   17.45416832  107.99500275    0.38000000    2.75000000
   17.45750046  107.97000122    0.36000001    2.75000000
   17.46055603  110.47299957    0.36000001    2.75000000
   17.46389008  100.75599670    0.38000000    2.75000000
   17.46694565  103.04299927    0.38000000    2.75000000
   17.47000122   99.95040131    0.36000001    2.75000000
   17.47055626   99.56890106    0.36000001    2.75000000
   17.47389030  107.03500366    0.36000001    2.75000000
   17.48000145  107.03500366    0.36000001    2.73000002
   17.48416710  106.13300323    0.36000001    2.73000002
   17.48750114  101.07900238    0.36000001    2.73000002
   17.49055672  100.50700378    0.36000001    2.75000000
   17.49388885  104.53099823    0.36000001    2.75000000
   17.49694443  101.01899719    0.34000000    2.73000002
   17.50027847   98.84690094    0.34000000    2.73000002
   17.50333405  103.11699677    0.34000000    2.73000002
   17.50388908  104.80999756    0.34000000    2.73000002
   17.50722313  100.53900146    0.34000000    2.75000000
   17.51027870  103.84200287    0.34000000    2.75000000
   17.51361084  106.89399719    0.34000000    2.75000000
   17.51694489  104.08499908    0.34000000    2.75000000
   17.52305603  104.08499908    0.34000000    2.75000000
   17.52694511  102.71399689    0.34000000    2.73000002
   17.53027725  105.04699707    0.34000000    2.75000000
   17.53333282  104.44499969    0.34000000    2.73000002
   17.53666687  112.07800293    0.34000000    2.73000002
   17.53694344  102.35299683    0.34000000    2.73000002
   17.54027748  106.18900299    0.34000000    2.73000002
   17.54333305  111.51000214    0.34000000    2.75000000
   17.54666710  109.37300110    0.34000000    2.75000000
   17.54999924  104.21399689    0.36000001    2.73000002
   17.55305481  103.69699860    0.36000001    2.73000002
   17.55638885  107.96800232    0.36000001    2.73000002
   17.55944443  107.31500244    0.36000001    2.73000002
   17.56583214  107.31500244    0.36000001    2.73000002
   17.57000160  101.56900024    0.36000001    2.73000002
   17.57305717  101.22899628    0.38000000    2.73000002
   17.57638931   99.04519653    0.36000001    2.75000000
   17.58861160   96.90509796    0.00000000    0.00000000
   17.59194565   95.59790039    0.36000001    2.73000002
   17.59500122  102.06700134    0.38000000    2.75000000
   17.59833336  102.64900208    0.36000001    2.75000000
   17.60138893  103.49700165    0.36000001    2.73000002
   17.60444450  109.32099915    0.38000000    2.75000000
   17.60499954  101.48100281    0.38000000    2.75000000
   17.60833359  107.11599731    0.38000000    2.73000002
   17.61138916  102.34700012    0.36000001    2.73000002
   17.61638832  102.34700012    0.36000001    2.73000002
   17.62027740  101.24099731    0.38000000    2.73000002
   17.62361145  107.81500244    0.36000001    2.73000002
   17.62666702  105.02100372    0.36000001    2.73000002
   17.63000107  105.60900116    0.38000000    2.73000002
   17.63333321  104.09300232    0.36000001    2.73000002
   17.63638878  105.85199738    0.34000000    2.73000002
   17.63777733  108.33799744    0.34000000    2.73000002
   17.63999939  105.17700195    0.36000001    2.73000002
   17.64333344  104.35199738    0.36000001    2.73000002
   17.64666748  105.96199799    0.36000001    2.73000002
   17.65888786  101.67299652    0.40000001    2.73000002
   17.66305542  101.67299652    0.40000001    2.73000002
   17.66694450  106.55200195    0.40000001    2.73000002
   17.67027664  108.77700043    0.40000001    2.75000000
   17.67361069  101.61299896    0.40000001    2.75000000
   17.67444420  107.07700348    0.40000001    2.75000000
   17.67722130  103.81300354    0.38000000    2.73000002
   17.68027687  113.91600037    0.40000001    2.73000002
   17.68361092  102.96700287    0.40000001    2.73000002
   17.68666649  109.97000122    0.40000001    2.73000002
   17.68999863   98.98259735    0.40000001    2.73000002
   17.69333267  105.45700073    0.40000001    2.73000002
   17.69638824  104.15399933    0.40000001    2.73000002
   17.69972038  106.42800140    0.40000001    2.73000002
   17.70583344  106.42800140    0.44000000    2.73000002
   17.71000099  101.98000336    0.44000000    2.73000002
   17.71305656  103.30200195    0.40000001    2.73000002
   17.71638870  101.36799622    0.40000001    2.73000002
   17.71972275  106.33599854    0.40000001    2.73000002
   17.72277832  104.92800140    0.40000001    2.73000002
   17.72611237  104.96600342    0.40000001    2.73000002
   17.72916794  104.28500366    0.38000000    2.73000002
   17.73250008  104.69400024    0.38000000    2.73000002
   17.73555565  106.73000336    0.34000000    2.73000002
   17.73888969  101.09200287    0.34000000    2.73000002
   17.74111176  106.79499817    0.34000000    2.73000002
   17.74250031  108.34200287    0.34000000    2.75000000
   17.74861145  108.34200287    0.31999999    2.75000000
   17.75277710  102.16799927    0.31999999    2.73000002
   17.75611115  104.31500244    0.31999999    2.73000002
   17.75916672   95.90409851    0.34000000    2.73000002
   17.76250076  103.57299805    0.31999999    2.73000002
   17.76555634  103.65899658    0.31999999    2.73000002
   17.76888847  107.37300110    0.31999999    2.73000002
   17.77194405  103.80500031    0.34000000    2.75000000
   17.77444458  101.20300293    0.34000000    2.73000002
   17.77583313  105.39399719    0.34000000    2.73000002
   17.77888870  102.83899689    0.34000000    2.75000000
   17.78222275  103.82299805    0.36000001    2.73000002
   17.78555489  107.74099731    0.36000001    2.73000002
   17.79166603  107.74099731    0.36000001    2.73000002
   17.79555511  101.19599915    0.40000001    2.73000002
   17.79888916  103.85099792    0.40000001    2.73000002
   17.80194283  103.17299652    0.46000001    2.75000000
   17.80527687  107.53099823    0.46000001    2.75000000
   17.80805397  105.19699860    0.46000001    2.75000000
   17.80888748  102.42600250    0.46000001    2.75000000
   17.81194305  102.36299896    0.44000000    2.73000002
   17.81527710  104.63800049    0.50000000    2.73000002
   17.81833458  102.28099823    0.47999999    2.73000002
   17.82166672  103.38800049    0.50000000    2.73000002
   17.82500076  102.18399811    0.50000000    2.73000002
   17.82805634   99.41159821    0.46000001    2.73000002
   17.83444595   99.41159821    0.40000001    2.73000002
   17.83861160   99.62670135    0.40000001    2.73000002
   17.84138870  100.65200043    0.40000001    2.73000002
   17.84222221   99.22779846    0.40000001    2.73000002
   17.84527779  104.83699799    0.40000001    2.75000000
   17.84861183  102.02700043    0.44000000    2.73000002
   17.85166740  101.38200378    0.44000000    2.73000002
   17.85499954   99.11199951    0.44000000    2.73000002
   17.85833359  104.67500305    0.44000000    2.75000000
   17.86222267  100.78299713    0.44000000    2.75000000
   17.86527824  103.90499878    0.41999999    2.73000002
   17.86861038  104.95500183    0.41999999    2.73000002
   17.87166595  103.78800201    0.41999999    2.73000002
   17.87916756  103.78800201    0.40000001    2.75000000
   17.88305473  102.96299744    0.40000001    2.73000002
   17.88638878  103.95999908    0.40000001    2.73000002
   17.88972282  109.15299988    0.41999999    2.75000000
   17.89277840  100.83799744    0.44000000    2.73000002
   17.89611053  100.88099670    0.44000000    2.73000002
   17.89944458  100.91000366    0.46000001    2.73000002
   17.90250015   97.56009674    0.46000001    2.73000002
   17.90583229   97.01319885    0.50000000    2.73000002
   17.90805435  101.79699707    0.50000000    2.73000002
   17.90944481   99.49980164    0.50000000    2.73000002
   17.91250038   97.71289825    0.47999999    2.75000000
   17.91583252   99.11630249    0.47999999    2.75000000
   17.92000008   99.11630249    0.46000001    2.73000002
   17.92416573   98.39869690    0.44000000    2.73000002
   17.92749977  101.01399994    0.44000000    2.73000002
   17.93055534   97.29299927    0.44000000    2.73000002
   17.93388748   96.48310089    0.44000000    2.73000002
   17.93694305   97.55120087    0.44000000    2.73000002
   17.94027710   97.50060272    0.41999999    2.73000002
   17.94138718   97.87180328    0.41999999    2.73000002
   17.94388771   98.20369720    0.41999999    2.73000002
   17.94694328  100.95099640    0.41999999    2.73000002
   17.95027924  102.13800049    0.44000000    2.71000004
   17.95361137  106.16200256    0.44000000    2.71000004
   17.95666695  103.39700317    0.41999999    2.73000002
   17.96277809  103.39700317    0.41999999    2.73000002
   17.96694565  101.68699646    0.41999999    2.73000002
   17.97027779  105.25700378    0.41999999    2.71000004
   17.97333336  107.18299866    0.44000000    2.73000002
   17.97500038   98.31420135    0.44000000    2.73000002
   17.97722244  106.23799896    0.44000000    2.73000002
   17.98027802  103.68199921    0.41999999    2.73000002
   17.98361206  103.45099640    0.40000001    2.73000002
   17.98666763  101.03700256    0.41999999    2.71000004
   17.98999977  101.05999756    0.41999999    2.71000004
   17.99305534  102.06600189    0.40000001    2.73000002
   17.99638939  102.27799988    0.40000001    2.71000004
   17.99972153  103.29599762    0.40000001    2.73000002
   18.00583267  103.29599762    0.40000001    2.73000002
   18.01000023   99.91069794    0.40000001    2.75000000
   18.01305580  104.26899719    0.40000001    2.73000002
   18.01638794  104.15599823    0.40000001    2.73000002
   18.01944351  104.10099792    0.40000001    2.73000002
   18.02277756  103.50099945    0.40000001    2.73000002
   18.02583313  104.94899750    0.40000001    2.71000004
   18.02916718  109.74199677    0.40000001    2.73000002
   18.03249931  106.33100128    0.40000001    2.73000002
   18.03555489  105.62999725    0.40000001    2.71000004
   18.03888893  109.39900208    0.41999999    2.71000004
   18.04166603  103.37100220    0.41999999    2.71000004
   18.04249954  103.57299805    0.41999999    2.71000004
   18.04861069  103.57299805    0.41999999    2.71000004
   18.05277634  103.98400116    0.41999999    2.73000002
   18.05583191  102.00800323    0.41999999    2.73000002
   18.05916595  106.37400055    0.41999999    2.73000002
   18.06250000  104.77100372    0.41999999    2.73000002
   18.06555557  100.68299866    0.40000001    2.71000004
   18.06888962  104.77799988    0.40000001    2.71000004
   18.07194519   98.29429626    0.41999999    2.71000004
   18.07500076   98.36350250    0.41999999    2.71000004
   18.07583427   99.98459625    0.41999999    2.71000004
   18.07888985  101.46700287    0.40000001    2.73000002
   18.08222389  105.37300110    0.40000001    2.71000004
   18.08527756  107.39600372    0.40000001    2.71000004
   18.09138870  107.39600372    0.38000000    2.71000004
   18.09555626  106.85700226    0.40000001    2.71000004
   18.09889030  100.79299927    0.38000000    2.71000004
   18.10194397  103.85700226    0.38000000    2.73000002
   18.10527802  103.98200226    0.38000000    2.73000002
   18.10833359  104.77100372    0.38000000    2.71000004
   18.10888863  102.26200104    0.38000000    2.71000004
   18.11194420  103.99099731    0.40000001    2.73000002
   18.11527824   98.66020203    0.40000001    2.71000004
   18.11833382  105.05200195    0.40000001    2.71000004
   18.12166595  106.41500092    0.38000000    2.71000004
   18.12500000   99.72129822    0.38000000    2.71000004
   18.12805557  107.24400330    0.38000000    2.71000004
   18.13444519  107.24400330    0.38000000    2.71000004
   18.13833237  102.60700226    0.38000000    2.71000004
   18.14166641  108.20400238    0.38000000    2.71000004
   18.14222145  106.19799805    0.38000000    2.71000004
   18.14527702  106.98899841    0.38000000    2.71000004
   18.14861107  103.53099823    0.38000000    2.73000002
   18.15166664  110.61399841    0.38000000    2.71000004
   18.15499878  116.20800018    0.38000000    2.71000004
   18.15833282  109.14499664    0.38000000    2.71000004
   18.16138840  103.50700378    0.38000000    2.71000004
   18.16472244  108.31199646    0.38000000    2.71000004
   18.16777802  107.58699799    0.36000001    2.73000002
   18.17111015  107.77300262    0.36000001    2.73000002
   18.19166565  107.77300262    0.36000001    2.71000004
   18.19583321  102.16200256    0.34000000    2.73000002
   18.19916534  108.53700256    0.34000000    2.73000002
   18.20222282  106.44100189    0.34000000    2.73000002
   18.20555687  102.98600006    0.34000000    2.71000004
   18.20861244  103.71399689    0.34000000    2.71000004
   18.21194458  100.34600067    0.34000000    2.71000004
   18.21500015  104.52799988    0.34000000    2.71000004
   18.21833420   98.30359650    0.34000000    2.71000004
   18.22166634  101.59700012    0.36000001    2.73000002
   18.22249985  104.03600311    0.36000001    2.73000002
   18.22527885  103.51899719    0.36000001    2.71000004
   18.22833443  108.77400208    0.38000000    2.71000004
   18.23444557  108.77400208    0.38000000    2.71000004
   18.23861122  103.62599945    0.36000001    2.73000002
   18.24194527  100.82599640    0.38000000    2.71000004
   18.24500084  102.94000244    0.38000000    2.71000004
   18.24833298  101.47299957    0.38000000    2.71000004
   18.25138855  101.18000031    0.38000000    2.71000004
   18.25472260  108.90000153    0.40000001    2.71000004
   18.25583267  106.79499817    0.40000001    2.71000004
   18.25833321  107.19899750    0.38000000    2.71000004
   18.26138878  106.40000153    0.38000000    2.71000004
   18.26472282  106.76599884    0.40000001    2.71000004
   18.26777840  107.23500061    0.40000001    2.71000004
   18.27111053  103.63500214    0.40000001    2.71000004
   18.27722168  103.63500214    0.40000001    2.71000004
   18.28138924  105.98000336    0.40000001    2.71000004
   18.28472137  107.79000092    0.40000001    2.71000004
   18.28777695  103.00299835    0.38000000    2.71000004
   18.28944397  108.25299835    0.38000000    2.71000004
   18.29138756  109.40200043    0.40000001    2.71000004
   18.29472160  109.27799988    0.40000001    2.71000004
   18.29805565  103.41600037    0.40000001    2.71000004
   18.30111122  107.51699829    0.40000001    2.71000004
   18.30444336  110.58699799    0.40000001    2.71000004
   18.30749893  108.26200104    0.40000001    2.71000004
   18.31083298  106.85900116    0.40000001    2.71000004
   18.31388855  106.11599731    0.40000001    2.71000004
   18.32027817  106.11599731    0.40000001    2.71000004
   18.32416725  106.46800232    0.40000001    2.71000004
   18.32750130  107.53600311    0.40000001    2.71000004
   18.33083344  106.20899963    0.40000001    2.69000006
   18.33388901  108.91600037    0.40000001    2.69000006
   18.33722305  117.27999878    0.40000001    2.71000004
   18.34027863  108.75399780    0.40000001    2.71000004
   18.34361267  104.23000336    0.38000000    2.71000004
   18.34666824  111.42099762    0.40000001    2.71000004
   18.35000038  106.05699921    0.38000000    2.71000004
   18.35333443  104.98699951    0.40000001    2.71000004
   18.35611153  106.49600220    0.40000001    2.71000004
   18.35666656  105.82099915    0.40000001    2.71000004
   18.36305618  105.82099915    0.40000001    2.71000004
   18.36722183  107.32299805    0.38000000    2.71000004
   18.37027740  106.14600372    0.38000000    2.71000004
   18.37361145  103.66400146    0.41999999    2.71000004
   18.37666702  100.19200134    0.46000001    2.71000004
   18.38000107   99.68949890    0.41999999    2.71000004
   18.38333321  101.86799622    0.41999999    2.71000004
   18.38638878  103.04199982    0.41999999    2.71000004
   18.38944435  110.04399872    0.41999999    2.71000004
   18.38999939  102.87799835    0.41999999    2.71000004
   18.39333344  105.79199982    0.41999999    2.71000004
   18.39666748   98.88829803    0.41999999    2.71000004
   18.39972115  103.41000366    0.44000000    2.69000006
   18.40583229  103.41000366    0.46000001    2.71000004
   18.40999985   98.87480164    0.46000001    2.71000004
   18.41305542  103.76599884    0.46000001    2.71000004
   18.41638756  102.19999695    0.44000000    2.71000004
   18.41972160   99.16790009    0.41999999    2.71000004
   18.42277718   99.94419861    0.41999999    2.71000004
   18.42305565  104.15499878    0.41999999    2.71000004
   18.42638779  101.37400055    0.41999999    2.71000004
   18.42972183  102.65399933    0.41999999    2.71000004
   18.43277740  102.72699738    0.41999999    2.69000006
   18.43610954   97.76740265    0.41999999    2.71000004
   18.43916512  105.12000275    0.44000000    2.71000004
   18.44249916  102.19799805    0.44000000    2.71000004
   18.44861031  102.19799805    0.46000001    2.71000004
   18.45277786  103.95999908    0.44000000    2.69000006
   18.45611191  103.29799652    0.44000000    2.71000004
   18.45639038  103.81199646    0.44000000    2.71000004
   18.45972252  105.76899719    0.44000000    2.71000004
   18.46305656  102.83300018    0.46000001    2.71000004
   18.46611214  100.23699951    0.46000001    2.71000004
   18.46944427   98.30909729    0.44000000    2.71000004
   18.47249985  101.00099945    0.44000000    2.69000006
   18.47583389  106.34200287    0.44000000    2.69000006
   18.47888947  105.23200226    0.46000001    2.71000004
   18.48222351  101.99900055    0.47999999    2.69000006
   18.48555565  100.23699951    0.50000000    2.71000004
   18.49166679  100.23699951    0.52999997    2.71000004
   18.49555588  101.18800354    0.51999998    2.69000006
   18.49888992  108.70099640    0.50000000    2.71000004
   18.50222206  104.38400269    0.46000001    2.69000006
   18.50527763  106.38800049    0.46000001    2.69000006
   18.50861168  105.04000092    0.46000001    2.69000006
   18.51166725  100.80999756    0.46000001    2.69000006
   18.51499939  102.74900055    0.44000000    2.71000004
   18.51833344  104.00099945    0.46000001    2.69000006
   18.52138901  104.49800110    0.46000001    2.71000004
   18.52277756  100.58599854    0.46000001    2.71000004
   18.52527809  104.25700378    0.46000001    2.71000004
   18.52833366   97.05249786    0.46000001    2.71000004
   18.53444481   97.05249786    0.47999999    2.71000004
   18.53861046  102.57499695    0.46000001    2.69000006
   18.54166603  107.13700104    0.47999999    2.69000006
   18.54500008  104.70999908    0.50000000    2.69000006
   18.54805565  104.08499908    0.50000000    2.69000006
   18.55138779  103.91000366    0.50000000    2.69000006
   18.55444336  109.55899811    0.47999999    2.69000006
   18.55611038  103.51999664    0.47999999    2.69000006
   18.55805397  108.73600006    0.46000001    2.69000006
   18.56138802  102.37100220    0.46000001    2.69000006
   18.56472206  101.74400330    0.46000001    2.69000006
   18.56777954  107.16799927    0.46000001    2.71000004
   18.57111168  102.61199951    0.47999999    2.69000006
   18.57722282  102.61199951    0.46000001    2.69000006
   18.58139038  106.93000031    0.47999999    2.69000006
   18.58444595  102.79900360    0.50000000    2.69000006
   18.58777809  107.40499878    0.50000000    2.69000006
   18.58972359  106.62500000    0.50000000    2.69000006
   18.59138870  106.70700073    0.50000000    2.69000006
   18.59472275  107.36699677    0.50000000    2.69000006
   18.59777832  105.09799957    0.50000000    2.69000006
   18.60111237  109.16100311    0.50000000    2.69000006
   18.60444450  108.00499725    0.50000000    2.69000006
   18.60750008  109.19100189    0.47999999    2.69000006
   18.61083412  106.35900116    0.47999999    2.69000006
   18.61388969  108.47599792    0.50000000    2.69000006
   18.62000084  108.47599792    0.50000000    2.69000006
   18.62416649  108.17800140    0.51999998    2.69000006
   18.62750053  108.63800049    0.50000000    2.69000006
   18.63055611  107.96800232    0.50000000    2.71000004
   18.63388824  115.75199890    0.50000000    2.71000004
   18.63694382  110.21099854    0.51999998    2.69000006
   18.64027786  108.24800110    0.47999999    2.69000006
   18.64333344  104.77500153    0.47999999    2.69000006
   18.64666748  106.65100098    0.47999999    2.69000006
   18.64999962  111.46800232    0.47999999    2.69000006
   18.65305519  110.68599701    0.50000000    2.69000006
   18.65638924  104.29199982    0.47999999    2.71000004
   18.65666580  110.86900330    0.47999999    2.69000006
   18.66277695  110.86900330    0.50000000    2.69000006
   18.66694450  112.49099731    0.51999998    2.69000006
   18.67027664  111.44599915    0.51999998    2.71000004
   18.67333221  109.48200226    0.51999998    2.69000006
   18.67666626  111.42700195    0.51999998    2.69000006
   18.68000031  110.53399658    0.52999997    2.69000006
   18.68305397  110.29399872    0.51999998    2.69000006
   18.68638802  110.59700012    0.51999998    2.69000006
   18.68944359  106.51100159    0.51999998    2.69000006
   18.68999863  113.24800110    0.51999998    2.69000006
   18.69333267  112.78800201    0.51999998    2.69000006
   18.69638824  112.58100128    0.51999998    2.69000006
   18.69972038  111.08300018    0.50000000    2.69000006
   18.70583344  111.08300018    0.50000000    2.69000006
   18.71000099  111.42600250    0.50000000    2.69000006
   18.71305656  104.45999908    0.50000000    2.69000006
   18.71638870  105.92800140    0.50000000    2.69000006
   18.71944427  107.17700195    0.47999999    2.69000006
   18.72277832  113.35299683    0.47999999    2.69000006
   18.72333336  109.06500244    0.47999999    2.69000006
   18.72638893  105.60600281    0.47999999    2.69000006
   18.72944450  111.73500061    0.47999999    2.69000006
   18.73277855  107.97299957    0.47999999    2.69000006
   18.73611069  102.68499756    0.47999999    2.69000006
   18.73916626  103.15799713    0.47999999    2.69000006
   18.74250031  107.29699707    0.46000001    2.69000006
   18.74861145  107.29699707    0.46000001    2.69000006
   18.75277710  107.75900269    0.46000001    2.69000006
   18.75611115  104.22499847    0.46000001    2.69000006
   18.75666618  105.03399658    0.46000001    2.69000006
   18.75972176  111.33499908    0.47999999    2.69000006
   18.76277733  103.77400208    0.46000001    2.71000004
   18.76611137  112.88600159    0.46000001    2.71000004
   18.76944351  109.35199738    0.47999999    2.69000006
   18.77249908  110.58300018    0.44000000    2.69000006
   18.77583313  114.36399841    0.46000001    2.69000006
   18.77888870  119.51699829    0.46000001    2.69000006
   18.78222275  117.81600189    0.44000000    2.69000006
   18.78527641  109.88300323    0.44000000    2.69000006
   18.79138756  109.88300323    0.44000000    2.69000006
   18.79555511  110.48400116    0.44000000    2.69000006
   18.79888916  108.74199677    0.44000000    2.69000006
   18.80194283  107.33000183    0.44000000    2.67000008
   18.80527687  118.74500275    0.44000000    2.67000008
   18.80861092  110.74199677    0.44000000    2.69000006
   18.81166649  107.91799927    0.44000000    2.69000006
   18.81499863  112.87400055    0.44000000    2.69000006
   18.81833458  109.59899902    0.44000000    2.69000006
   18.82139015  115.91899872    0.46000001    2.69000006
   18.82333374  107.38200378    0.46000001    2.69000006
   18.82500076  110.97599792    0.46000001    2.69000006
   18.82805634  110.83999634    0.46000001    2.69000006
   18.83416748  110.83999634    0.46000001    2.69000006
   18.83889008  105.62200165    0.44000000    2.69000006
   18.84194565  115.65799713    0.44000000    2.69000006
   18.84527779  107.44999695    0.44000000    2.69000006
   18.84833336  106.08899689    0.41999999    2.69000006
   18.85166740  108.98600006    0.41999999    2.69000006
   18.85472298  108.46600342    0.44000000    2.69000006
   18.85666656  107.99700165    0.46000001    2.67000008
   18.85861206  106.69100189    0.46000001    2.67000008
   18.86166763  103.33200073    0.46000001    2.69000006
   18.86499977  106.54699707    0.46000001    2.67000008
   18.86833382  106.59700012    0.46000001    2.67000008
   18.87138939  110.49600220    0.47999999    2.67000008
   18.87722206  110.49600220    0.50000000    2.67000008
   18.88138962  106.48899841    0.51999998    2.69000006
   18.88444519  104.54900360    0.47999999    2.69000006
   18.88777733  109.66500092    0.47999999    2.69000006
   18.88999939  109.47699738    0.50000000    2.69000006
   18.89138794  104.77700043    0.50000000    2.69000006
   18.89444351  107.63300323    0.50000000    2.67000008
   18.89777756  105.25499725    0.50000000    2.67000008
   18.90111160  111.03800201    0.51999998    2.69000006
   18.90444374  107.02300262    0.51999998    2.67000008
   18.90749931  110.12300110    0.51999998    2.67000008
   18.91083336  107.73699951    0.51999998    2.67000008
   18.91388893  107.53299713    0.51999998    2.67000008
   18.92000008  107.53299713    0.56999999    2.67000008
   18.92416573  110.11199951    0.58999997    2.67000008
   18.92722130  108.61699677    0.58999997    2.67000008
   18.93055534  107.58000183    0.61000001    2.67000008
   18.93361092  106.02400208    0.61000001    2.67000008
   18.93694305  105.54199982    0.58999997    2.67000008
   18.94027710  106.57399750    0.58999997    2.66000009
   18.94333267  105.61100006    0.61000001    2.67000008
   18.94666672   97.42389679    0.61000001    2.67000008
   18.94972038  106.41000366    0.61000001    2.67000008
   18.95305634  110.25700378    0.64999998    2.67000008
   18.95611191  112.13600159    0.64999998    2.67000008
   18.95666695  107.05699921    0.64999998    2.67000008
   18.96277809  107.05699921    0.69000000    2.66000009
   18.96694565  109.88200378    0.70999998    2.67000008
   18.97027779  109.09200287    0.73000002    2.66000009
   18.97333336  104.97799683    0.75000000    2.67000008
   18.97666740  106.35399628    0.75000000    2.66000009
   18.97972298  101.79699707    0.75000000    2.67000008
   18.98305511  109.42199707    0.75000000    2.67000008
   18.98611069  108.14800262    0.70999998    2.67000008
   18.98944473  108.35500336    0.70999998    2.67000008
   18.98999977  105.48999786    0.70999998    2.67000008
   18.99305534  105.64700317    0.67000002    2.67000008
   18.99638939  104.04499817    0.63000000    2.66000009
   18.99972153  109.09300232    0.63000000    2.66000009
   19.00583267  109.09300232    0.61000001    2.67000008
   19.01000023  106.19599915    0.61000001    2.67000008
   19.01305580  106.53800201    0.61000001    2.66000009
   19.01638794  100.81500244    0.61000001    2.66000009
   19.01944351  110.82900238    0.61000001    2.67000008
   19.02277756  109.61900330    0.63000000    2.67000008
   19.02333260  107.71800232    0.63000000    2.67000008
   19.02638817  115.40299988    0.63000000    2.67000008
   19.02972221  109.46900177    0.63000000    2.67000008
   19.03277779  113.75499725    0.63000000    2.67000008
   19.03610992  105.64700317    0.63000000    2.66000009
   19.03916550  105.48600006    0.61000001    2.66000009
   19.04249954  104.68599701    0.58999997    2.67000008
   19.04861069  104.68599701    0.58999997    2.67000008
   19.05277634  104.33799744    0.61000001    2.66000009
   19.05583191  106.89700317    0.61000001    2.66000009
   19.05666542  105.23500061    0.61000001    2.67000008
   19.05944443  107.89299774    0.61000001    2.67000008
   19.06277657  109.42600250    0.56999999    2.67000008
   19.06583214  110.07700348    0.56999999    2.67000008
   19.06916809  107.34799957    0.58999997    2.66000009
   19.07222366  104.35600281    0.58999997    2.66000009
   19.07555580  110.29000092    0.58999997    2.67000008
   19.07861137  108.94200134    0.58999997    2.66000009
   19.08194542  104.19400024    0.58999997    2.66000009
   19.08527756  103.23699951    0.58999997    2.66000009
   19.09138870  103.23699951    0.58999997    2.66000009
   19.09555626  107.64700317    0.58999997    2.67000008
   19.09889030  102.94000244    0.58999997    2.67000008
   19.10194397  106.82499695    0.58999997    2.66000009
   19.10527802  111.16699982    0.61000001    2.66000009
   19.10833359  106.05999756    0.58999997    2.66000009
   19.11166763  110.45400238    0.58999997    2.66000009
   19.11499977  111.60299683    0.58999997    2.66000009
   19.11805534  111.39299774    0.56999999    2.66000009
   19.12138939  110.33300018    0.56999999    2.66000009
   19.12333298  108.40899658    0.56999999    2.66000009
   19.12500000  114.02300262    0.56999999    2.66000009
   19.12833405  113.79000092    0.56999999    2.66000009
   19.13444519  113.79000092    0.56999999    2.67000008
   19.13833237  112.49800110    0.56999999    2.66000009
   19.14166641  105.38400269    0.55000001    2.66000009
   19.14472198  113.26000214    0.55000001    2.66000009
   19.14805603  107.19899750    0.55000001    2.66000009
   19.15138817  113.25900269    0.56999999    2.66000009
   19.15444374  111.71099854    0.56999999    2.66000009
   19.15666580  107.91300201    0.58999997    2.67000008
   19.15805435  108.74500275    0.58999997    2.67000008
   19.16138840  105.27700043    0.58999997    2.66000009
   19.16444397  107.93900299    0.58999997    2.66000009
   19.16777802  108.50199890    0.61000001    2.66000009
   19.17083359  105.88700104    0.56999999    2.66000009
   19.17722130  105.88700104    0.58999997    2.66000009
   19.18138885  109.83599854    0.61000001    2.66000009
   19.18444443  113.46199799    0.61000001    2.66000009
   19.18777657  111.60199738    0.61000001    2.66000009
   19.20527840  108.70600128    0.58999997    2.66000009
   19.20777893  113.57099915    0.58999997    2.66000009
   19.21083450  111.19699860    0.58999997    2.66000009
   19.22166634  113.70700073    0.00000000    0.00000000
   19.22583389  113.70700073    0.58999997    2.64000010
   19.23000145  117.33300018    0.58999997    2.64000010
   19.23333359  113.82299805    0.58999997    2.64000010
   19.23638916  113.81500244    0.58999997    2.64000010
   19.24749947  115.49800110    0.58999997    2.64000010
   19.24916649  118.82199860    0.58999997    2.64000010
   19.25250053  109.78600311    0.58999997    2.64000010
   19.25555611  105.37699890    0.58999997    2.64000010
   19.25888824  109.26100159    0.61000001    2.64000010
   19.26194382  108.36900330    0.61000001    2.64000010
   19.26527786  110.59700012    0.61000001    2.64000010
   19.26833344  117.41100311    0.63000000    2.64000010
   19.27527809  117.41100311    0.64999998    2.64000010
   19.27944374  107.40200043    0.67000002    2.64000010
   19.28277779  111.80699921    0.67000002    2.64000010
   19.28610992  104.81099701    0.67000002    2.64000010
   19.28944397  118.79000092    0.67000002    2.64000010
   19.29249954  111.04399872    0.67000002    2.64000010
   19.29583359  123.46600342    0.67000002    2.64000010
   19.29888916  110.80599976    0.67000002    2.64000010
   19.30222130  111.57199860    0.67000002    2.64000010
   19.31416512  117.42299652    0.00000000    0.00000000
   19.33194542  103.56900024    0.63000000    2.64000010
   19.33611107  103.56900024    0.61000001    2.64000010
   19.34027863  101.29100037    0.61000001    2.64000010
   19.34361267  120.61699677    0.61000001    2.64000010
   19.35555649  109.48100281    0.00000000    0.00000000
   19.35611153  127.02200317    0.63000000    2.64000010
   19.35888863  120.03299713    0.61000001    2.64000010
   19.36222267  110.36000061    0.61000001    2.64000010
   19.36527824  125.43599701    0.63000000    2.64000010
   19.36861038  125.03700256    0.63000000    2.64000010
   19.37194443  110.54000092    0.63000000    2.61999989
   19.37500000  124.51799774    0.61000001    2.64000010
   19.37833405  109.35700226    0.63000000    2.64000010
   19.39222145  109.35700226    0.61000001    2.64000010
   19.40611076  119.26399994    0.00000000    0.00000000
   19.40944481  112.78399658    0.64999998    2.64000010
   19.41277695  125.09899902    0.64999998    2.61999989
   19.41583252  118.84700012    0.63000000    2.64000010
   19.42888832  115.72699738    0.00000000    0.00000000
   19.42944336  111.03399658    0.61000001    2.61999989
   19.43249893  126.86100006    0.61000001    2.64000010
   19.44888878  126.86100006    0.00000000    0.00000000
   19.45305634  130.84199524    0.58999997    2.64000010
   19.45639038  111.66300201    0.58999997    2.64000010
   19.45944595  116.72000122    0.58999997    2.64000010
   19.46277809  114.09999847    0.56999999    2.64000010
   19.46583366  112.82399750    0.56999999    2.64000010
   19.47666740  113.78600311    0.00000000    0.00000000
   19.48000145  116.95800018    0.58999997    2.61999989
   19.48638916  116.95800018    0.63000000    2.64000010
   19.50000000  116.93699646    0.92000002    2.61999989
   19.50055504  112.06199646    0.92000002    2.61999989
   19.50333405  109.18900299    0.95999998    2.61999989
   19.50666618  115.52100372    0.89999998    2.61999989
   19.51000023  105.59799957    0.89999998    2.61999989
   19.52194405  108.96099854    0.00000000    0.00000000
   19.52527809  109.48400116    0.63000000    2.61999989
   19.53138924  109.48400116    0.63000000    2.61999989
   19.53555489  109.41699982    0.63000000    2.61999989
   19.54638863  126.47200012    0.63000000    2.61999989
   19.54805565  118.52899933    0.61000001    2.59999990
   19.55138779  114.47699738    0.61000001    2.61999989
   19.55444336  106.03299713    0.61000001    2.61999989
   19.56666756  113.31800079    0.00000000    0.00000000
   19.57000160  110.51399994    0.61000001    2.61999989
   19.58861160  116.31099701    0.00000000    0.00000000
   19.59277916  116.31099701    0.61000001    2.59999990
   19.59694481  109.58399963    0.63000000    2.61999989
   19.60027885  106.45999908    0.63000000    2.61999989
   19.60333443  112.84300232    0.63000000    2.59999990
   19.61333466  109.40599823    0.63000000    2.59999990
   19.61611176  109.71199799    0.64999998    2.59999990
   19.61916733  111.09500122    0.64999998    2.59999990
   19.62249947  110.12799835    0.64999998    2.59999990
   19.62583351  110.62300110    0.63000000    2.59999990
   19.62916756  108.81800079    0.64999998    2.61999989
   19.63222313  126.55699921    0.63000000    2.59999990
   19.63555527  128.41200256    0.63000000    2.59999990
   19.64083290  128.41200256    0.63000000    2.59999990
   19.64500046  126.49700165    0.63000000    2.59999990
   19.64833260  115.85399628    0.63000000    2.59999990
   19.65138817  123.44499969    0.63000000    2.59999990
   19.65472221  112.67099762    0.63000000    2.59999990
   19.65777779  121.09799957    0.61000001    2.59999990
   19.66972160  121.90000153    0.00000000    0.00000000
   19.67166519  114.51599884    0.61000001    2.59999990
   19.67333221  118.87200165    0.61000001    2.59999990
   19.67666626  121.16999817    0.61000001    2.57999992
   19.67972183  110.11900330    0.61000001    2.57999992
   19.69333267  110.11900330    0.63000000    2.59999990
   19.70639038  105.07099915    0.00000000    0.00000000
   19.71750069  110.14700317    0.64999998    2.59999990
   19.72750092  111.30300140    0.64999998    2.57999992
   19.73083305  117.14499664    0.67000002    2.59999990
   19.73694420  117.14499664    0.67000002    2.59999990
   19.74111176  114.12500000    0.67000002    2.57999992
   19.74333382  114.08899689    0.67000002    2.57999992
   19.74472237  116.21099854    0.69000000    2.59999990
   19.74805641  104.09799957    0.67000002    2.57999992
   19.75111198  105.98699951    0.67000002    2.57999992
   19.75444412  105.38099670    0.69000000    2.57999992
   19.75749969  106.15399933    0.70999998    2.57999992
   19.76083374  108.74099731    0.69000000    2.57999992
   19.76388931  105.03099823    0.69000000    2.57999992
   19.76722145  102.59700012    0.70999998    2.59999990
   19.77055550  107.06400299    0.69000000    2.57999992
   19.77361107  112.34799957    0.67000002    2.57999992
   19.77972221  112.34799957    0.67000002    2.57999992
   19.78388786  109.48600006    0.69000000    2.57999992
   19.78722191  107.24500275    0.70999998    2.57999992
   19.79027748  109.62100220    0.70999998    2.57999992
   19.79361153  102.29000092    0.70999998    2.57999992
   19.79666710  108.59400177    0.70999998    2.57999992
   19.79999924  105.53299713    0.70999998    2.57999992
   19.80305481  108.47799683    0.70999998    2.57999992
   19.80638885  104.80200195    0.69000000    2.57999992
   19.80972099  100.15399933    0.69000000    2.57999992
   19.81055450  110.44300079    0.70999998    2.59999990
   19.81333351  110.26899719    0.70999998    2.59999990
   19.81666756  104.82700348    0.69000000    2.57999992
   19.82250023  104.82700348    0.69000000    2.57999992
   19.82666779   96.99220276    0.69000000    2.57999992
   19.83000183  111.89399719    0.69000000    2.57999992
   19.83305550  115.18000031    0.70999998    2.55999994
   19.83638954  111.72399902    0.70999998    2.57999992
   19.83944511  115.38099670    0.70999998    2.57999992
   19.84277916  111.31300354    0.69000000    2.57999992
   19.84388924  110.14299774    0.69000000    2.57999992
   19.84638977  106.34999847    0.69000000    2.55999994
   19.84972191  110.87200165    0.70999998    2.57999992
   19.85277748  115.80699921    0.70999998    2.55999994
   19.85611153  100.96099854    0.70999998    2.55999994
   19.85916710  111.55200195    0.70999998    2.55999994
   19.86555672  111.55200195    0.70999998    2.55999994
   19.86972237  110.24500275    0.70999998    2.57999992
   19.87277794  108.76100159    0.70999998    2.55999994
   19.87611198  114.70899963    0.70999998    2.55999994
   19.87750053  117.26300049    0.70999998    2.55999994
   19.87972260  106.18800354    0.73000002    2.55999994
   19.88277817  110.96299744    0.73000002    2.55999994
   19.88611031  110.10500336    0.73000002    2.55999994
   19.88944435  108.13400269    0.73000002    2.55999994
   19.89249992  111.58000183    0.73000002    2.57999992
   19.89583397  117.29100037    0.73000002    2.55999994
   19.89888954  116.83499908    0.73000002    2.55999994
   19.90222168  113.97000122    0.73000002    2.55999994
   19.90833282  113.97000122    0.73000002    2.55999994
   19.91250038  111.79100037    0.73000002    2.55999994
   19.91555595  109.16300201    0.73000002    2.55999994
   19.91888809  114.59400177    0.73000002    2.55999994
   19.92194366  115.76999664    0.73000002    2.55999994
   19.92527771  112.29000092    0.73000002    2.55999994
   19.92860985  103.17099762    0.73000002    2.55999994
   19.93194389  108.06600189    0.73000002    2.55999994
   19.93499947  109.45800018    0.73000002    2.55999994
   19.93833160  111.76599884    0.73000002    2.55999994
   19.94138718  105.32099915    0.73000002    2.55999994
   19.94416618  105.97100067    0.73000002    2.55999994
   19.94527626  113.50499725    0.73000002    2.55999994
   19.95111275  113.50499725    0.73000002    2.55999994
   19.95527840  109.43699646    0.73000002    2.55999994
   19.95861244  105.75900269    0.73000002    2.55999994
   19.96166801  107.75700378    0.73000002    2.55999994
   19.96500015  112.60700226    0.73000002    2.55999994
   19.96805573  112.91300201    0.73000002    2.55999994
   19.97138977  112.38600159    0.73000002    2.55999994
   19.97444534  109.30100250    0.73000002    2.53999996
   19.97750092  116.70300293    0.73000002    2.53999996
   19.97833443  107.29000092    0.73000002    2.53999996
   19.98139000  111.09700012    0.75000000    2.55999994
   19.98472214  114.10900116    0.73000002    2.53999996
   19.98805618  110.34500122    0.75000000    2.55999994
   19.99388885  110.34500122    0.75000000    2.53999996
   19.99805641  110.52899933    0.75000000    2.53999996
   20.00138855  107.05799866    0.75000000    2.53999996
   20.00444412  110.90899658    0.75000000    2.53999996
   20.00777817  111.58399963    0.75000000    2.53999996
   20.01083374  115.90899658    0.76999998    2.53999996
   20.01138878  111.83499908    0.76999998    2.53999996
   20.01444435  111.64800262    0.76999998    2.53999996
   20.01777840  106.72599792    0.76999998    2.53999996
   20.02111053  106.00199890    0.76999998    2.53999996
   20.02416611  116.89499664    0.76999998    2.53999996
   20.02750015  112.94799805    0.76999998    2.53999996
   20.03055573  106.70300293    0.76999998    2.53999996
   20.03694344  106.70300293    0.76999998    2.53999996
   20.04111099  121.11199951    0.76999998    2.53999996
   20.04416656  131.45700073    0.76999998    2.53999996
   20.04472160  128.88299561    0.76999998    2.53999996
   20.04777718  145.38600159    0.76999998    2.53999996
   20.05111122  150.26199341    0.76999998    2.53999996
   20.05444336  152.85200500    0.79000002    2.53999996
   20.05749893  177.49699402    0.79000002    2.51999998
   20.06083298  200.08999634    0.79000002    2.53999996
   20.06388855  206.09700012    0.80000001    2.53999996
   20.06722260  240.46499634    0.80000001    2.53999996
   20.07027817  142.32200623    0.79000002    2.51999998
   20.07361221   -1.00000000    0.79000002    2.51999998
   20.08361244   -1.00000000    0.79000002    2.53999996
   20.08694458   -1.00000000    0.79000002    2.53999996
   20.09000015   -1.00000000    0.79000002    2.53999996
   20.09333420   -1.00000000    0.79000002    2.53999996
   20.09666824   -1.00000000    0.79000002    2.53999996
   20.09972191   -1.00000000    0.79000002    2.53999996
   20.10305595   -1.00000000    0.79000002    2.51999998
   20.10611153   -1.00000000    0.79000002    2.53999996
   20.10944557   -1.00000000    0.79000002    2.53999996
   20.11277771   -1.00000000    0.79000002    2.51999998
   20.11611176   -1.00000000    0.79000002    2.51999998
   20.12666702   -1.00000000    0.79000002    2.51999998
   20.12972260   -1.00000000    0.79000002    2.53999996
   20.13305473   -1.00000000    0.76999998    2.51999998
   20.13611031   -1.00000000    0.79000002    2.53999996
   20.13944435   -1.00000000    0.79000002    2.51999998
   20.14249992   -1.00000000    0.79000002    2.51999998
   20.14611053   -1.00000000    0.79000002    2.51999998
   20.14916611   -1.00000000    0.79000002    2.51999998
   20.15250015   -1.00000000    0.79000002    2.51999998
   20.15555573   -1.00000000    0.80000001    2.51999998
   20.15888786   -1.00000000    0.80000001    2.51999998
   20.16944313   -1.00000000    0.80000001    2.51999998
   20.17249870   -1.00000000    0.80000001    2.51999998
   20.17583275   -1.00000000    0.80000001    2.51999998
   20.17916679   -1.00000000    0.80000001    2.50000000
   20.18249893   -1.00000000    0.80000001    2.51999998
   20.18555450   -1.00000000    0.80000001    2.50000000
   20.18888855   -1.00000000    0.80000001    2.50000000
   20.19194412   -1.00000000    0.80000001    2.50000000
   20.19527626   -1.00000000    0.80000001    2.50000000
   20.19861031   -1.00000000    0.81999999    2.51999998
   20.20166779   -1.00000000    0.80000001    2.50000000
   20.21222305   -1.00000000    0.89999998    2.51999998
   20.21555710   -1.00000000    0.88000000    2.50000000
   20.21861076   -1.00000000    0.86000001    2.50000000
   20.22194481   -1.00000000    0.86000001    2.51999998
   20.22500038   -1.00000000    0.86000001    2.51999998
   20.22833443   -1.00000000    0.86000001    2.50000000
   20.23139000   -1.00000000    0.88000000    2.50000000
   20.23472214   -1.00000000    0.88000000    2.50000000
   20.23777771   -1.00000000    0.86000001    2.50000000
   20.24111176   -1.00000000    0.88000000    2.50000000
   20.24444389   -1.00000000    0.88000000    2.50000000
   20.25499916   -1.00000000    0.83999997    2.50000000
   20.25833321   -1.00000000    0.88000000    2.50000000
   20.26138878   -1.00000000    0.89999998    2.50000000
   20.28111076   -1.00000000    1.19000006    2.48000002
   20.28444481   -1.00000000    1.14999998    2.50000000
   20.28777695   -1.00000000    1.11000001    2.50000000
   20.29833221   -1.00000000    1.11000001    2.50000000
