    HOUR (UT)   FLARE FACTOR    SKY TESTER    SUN TESTER
   13.14527798   -1.00000000   -1.00000000   -1.00000000
   13.19583321  189.99800110    4.90999985    2.23000002
   13.19916630  178.81799316    4.90999985    2.34999990
   13.20249939  190.86599731    4.90999985    2.40000010
   13.20555496  171.70899963    4.90999985    2.42000008
   13.20888901  180.25000000    4.90999985    2.40000010
   13.21222210  185.14799500    4.90999985    2.44000006
   13.21638870  185.14799500    4.90999985    2.44000006
   13.22027779  199.58799744    4.90999985    2.46000004
   13.22361088  175.21699524    4.90999985    2.46000004
   13.22694397  196.48899841    4.90999985    2.44000006
   13.22916603  205.19999695    4.90999985    2.46000004
   13.23055553  187.69799805    4.90999985    2.46000004
   13.23388958  186.48699951    4.90999985    2.46000004
   13.23694515  183.79899597    4.90999985    2.42000008
   13.24027824  199.42599487    4.90999985    2.40000010
   13.24333382  212.61500549    4.90999985    2.42000008
   13.24666691  260.63000488    4.90999985    2.30999994
   13.25000000  301.55801392    4.90999985    2.15000010
   13.25305557  374.53698730    4.90999985    1.85000002
   13.25916672  374.53698730    4.90999985    1.13000000
   13.26333332  186.62699890    4.90999985    1.33000004
   13.26638889  250.49699402    4.90999985    1.48000002
   13.26972198  141.68400574    4.90999985    1.34000003
   13.27277756  205.69500732    4.90999985    1.25000000
   13.27611065  259.86999512    4.90999985    1.44000006
   13.27944374  175.35299683    4.90999985    1.48000002
   13.28249931  171.32800293    4.90999985    1.48000002
   13.28583336  217.73199463    4.90999985    1.46000004
   13.28916740  205.18600464    4.90999985    1.38000000
   13.29222298  242.37300110    4.90999985    1.38000000
   13.29555607  421.83499146    4.90999985    1.55999994
   13.29611111  397.60998535    4.90999985    1.55999994
   13.29750061  255.59700012    4.90999985    1.60000002
   13.29750061  141.68400574    4.90999985    1.34000003
   13.29777813  205.69500732    4.90999985    1.25000000
   13.29777813  259.86999512    4.90999985    1.44000006
   13.29777813  175.35299683    4.90999985    1.48000002
   13.29805565  171.32800293    4.90999985    1.48000002
   13.29805565  217.73199463    4.90999985    1.46000004
   13.29805565  205.18600464    4.90999985    1.38000000
   13.29833412  242.37300110    4.90999985    1.38000000
   13.29833412  421.83499146    4.90999985    1.55999994
   13.30055618  134.02000427    4.90999985    1.80999994
   13.30388927  120.23999786    4.90999985    2.07999992
   13.30694485  130.53900146    4.90999985    2.13000011
   13.31027794  175.81900024    4.90999985    2.19000006
   13.31361103  177.48100281    4.90999985    2.25000000
   13.31833363  177.48100281    4.90999985    2.32999992
   13.32250023  177.57899475    4.90999985    2.28999996
   13.32555580  158.03900146    4.90999985    2.19000006
   13.32888889  151.32200623    4.90999985    2.13000011
   13.33138847  163.70399475    4.90999985    2.19000006
   13.33249950  167.21400452    4.90999985    2.32999992
   13.33583260  182.70799255    4.90999985    2.46000004
   13.33916664  194.14199829    4.90999985    2.50000000
   13.34222221  199.64799500    4.90999985    2.50000000
   13.34555531  179.75599670    4.90999985    2.50000000
   13.34888840  167.44099426    4.90999985    2.48000002
   13.35194492  175.43400574    4.90999985    2.48000002
   13.35527802  174.57800293    4.90999985    2.46000004
   13.36111164  174.57800293    4.90999985    2.46000004
   13.36527824  162.92100525    4.90999985    2.44000006
   13.36861134  179.65100098    4.90999985    2.44000006
   13.37166691  165.02299500    4.90999985    2.42000008
   13.37500000  169.75799561    4.90999985    2.42000008
   13.37805557  171.23199463    4.90999985    2.42000008
   13.38138866  164.53500366    4.90999985    2.42000008
   13.38472176  183.78300476    4.90999985    2.42000008
   13.38777733  168.68400574    4.90999985    2.40000010
   13.39111137  164.76400757    4.90999985    2.40000010
   13.39444447  165.19999695    4.90999985    2.40000010
   13.39750004  173.70799255    4.90999985    2.40000010
   13.39805508  165.17199707    4.90999985    2.40000010
   13.40388870  165.17199707    4.90999985    2.40000010
   13.40805531  171.30000305    4.90999985    2.39000010
   13.41138840  174.56199646    4.90999985    2.40000010
   13.41444397  167.28199768    4.90999985    2.39000010
   13.41777802  174.55799866    4.90999985    2.40000010
   13.42111111  161.09300232    4.90999985    2.39000010
   13.42416668  161.58399963    4.90999985    2.39000010
   13.42750072  164.04800415    4.90999985    2.39000010
   13.43083382  167.75900269    4.90999985    2.39000010
   13.43138885  163.53300476    4.90999985    2.39000010
   13.43444443  168.41000366    4.26999998    2.39000010
   13.43750000  166.70399475    2.96000004    2.39000010
   13.44083309  168.46200562    2.15000010    2.39000010
   13.44694424  168.46200562    1.66999996    2.39000010
   13.45083332  167.91600037    1.75000000    2.39000010
   13.45416641  162.09300232    1.61000001    2.39000010
   13.45749950  167.37300110    1.58000004    2.36999989
   13.46055508  168.51300049    1.53999996    2.39000010
   13.46388912  170.20100403    1.51999998    2.39000010
   13.46472168  164.86700439    1.51999998    2.39000010
   13.46749973  172.13200378    1.51999998    2.39000010
   13.47083282  152.63299561    1.51999998    2.36999989
   13.47388840  154.41400146    1.51999998    2.36999989
   13.47722149  163.05000305    1.50000000    2.39000010
   13.48055553  167.24099731    1.48000002    2.39000010
   13.48361111  160.97099304    1.48000002    2.39000010
   13.48972225  160.97099304    1.48000002    2.39000010
   13.49388885  162.80099487    1.48000002    2.39000010
   13.49694443  165.78500366    1.48000002    2.36999989
   13.49805546  158.16700745    1.46000004    2.39000010
   13.50055599  156.90899658    1.48000002    2.39000010
   13.50361156  158.28399658    1.46000004    2.39000010
   13.50694466  163.17599487    1.46000004    2.39000010
   13.51027775  153.62600708    1.44000006    2.36999989
   13.51333332  159.99000549    1.44000006    2.39000010
   13.51666641  167.80499268    1.46000004    2.39000010
   13.51999950  151.68299866    1.46000004    2.36999989
   13.52305508  158.41099548    1.44000006    2.36999989
   13.52638817  157.20300293    1.46000004    2.36999989
   13.53249931  157.20300293    1.48000002    2.36999989
   13.53666687  150.67700195    1.48000002    2.39000010
   13.54000092  153.18499756    1.48000002    2.39000010
   13.54305553  150.12800598    1.48000002    2.39000010
   13.54638958  150.63200378    1.48000002    2.39000010
   13.54972267  156.74099731    1.48000002    2.39000010
   13.55277824  153.52499390    1.50000000    2.39000010
   13.55611134  151.86900330    1.51999998    2.36999989
   13.55944443  159.81199646    1.51999998    2.39000010
   13.56250000  152.85699463    1.50000000    2.39000010
   13.56472206  158.54499817    1.50000000    2.39000010
   13.56611156  152.08900452    1.50000000    2.39000010
   13.56944466  164.63499451    1.48000002    2.39000010
   13.57555580  164.63499451    1.50000000    2.39000010
   13.57944393  153.30099487    1.48000002    2.39000010
   13.58277798  154.13900757    1.48000002    2.39000010
   13.58611107  147.63499451    1.50000000    2.39000010
   13.58916664  159.93200684    1.48000002    2.39000010
   13.59249973  159.97500610    1.50000000    2.39000010
   13.59583282  153.15400696    1.51999998    2.39000010
   13.59805489  160.43099976    1.51999998    2.39000010
   13.59944439  154.85499573    1.51999998    2.39000010
   13.60277843  154.18600464    1.51999998    2.39000010
   13.60611153  153.01699829    1.53999996    2.39000010
   13.60916710  155.53500366    1.53999996    2.39000010
   13.61250019  166.16999817    1.53999996    2.39000010
   13.61833382  166.16999817    1.53999996    2.39000010
   13.62222195  155.04100037    1.51999998    2.40000010
   13.62555599  156.86099243    1.51999998    2.39000010
   13.62888908  149.01199341    1.51999998    2.40000010
   13.63138866  149.79400635    1.51999998    2.40000010
   13.63249969  149.10600281    1.51999998    2.40000010
   13.63583279  149.40100098    1.50000000    2.40000010
   13.63916683  151.56700134    1.50000000    2.40000010
   13.64222240  156.97000122    1.50000000    2.40000010
   13.64555550  153.18099976    1.48000002    2.39000010
   13.64888859  152.87500000    1.46000004    2.39000010
   13.65194416  145.10400391    1.46000004    2.40000010
   13.65527725  156.61300659    1.46000004    2.40000010
   13.66111088  156.61300659    1.46000004    2.40000010
   13.66527748  151.31500244    1.48000002    2.40000010
   13.66833401  145.02699280    1.48000002    2.40000010
   13.67166710  156.19700623    1.50000000    2.40000010
   13.67500019  153.46899414    1.50000000    2.40000010
   13.67805576  157.97200012    1.50000000    2.40000010
   13.68138885  141.28599548    1.51999998    2.40000010
   13.68444443  154.73599243    1.51999998    2.40000010
   13.68777752  149.17599487    1.51999998    2.40000010
   13.69111156  155.80299377    1.53999996    2.40000010
   13.69416714  155.25199890    1.51999998    2.40000010
   13.69750023  157.98599243    1.53999996    2.40000010
   13.69805527  154.24299622    1.53999996    2.40000010
   13.70388889  154.24299622    1.51999998    2.40000010
   13.70805550  154.71800232    1.53999996    2.40000010
   13.71111107  153.69999695    1.53999996    2.40000010
   13.71444416  148.21600342    1.53999996    2.42000008
   13.71777725  146.16099548    1.53999996    2.40000010
   13.72083282  147.98300171    1.53999996    2.40000010
   13.72416592  156.21099854    1.51999998    2.40000010
   13.72749996  159.08500671    1.51999998    2.42000008
   13.73055553  146.87100220    1.51999998    2.42000008
   13.73138809  144.88000488    1.51999998    2.40000010
   13.73416710  152.06199646    1.51999998    2.40000010
   13.73750019  149.85899353    1.50000000    2.40000010
   13.74055576  152.40100098    1.50000000    2.42000008
   13.74666691  152.40100098    1.48000002    2.42000008
   13.75083351  148.68699646    1.48000002    2.40000010
   13.75416660  148.63499451    1.50000000    2.42000008
   13.75722218  148.74400330    1.50000000    2.42000008
   13.76055527  151.74600220    1.50000000    2.42000008
   13.76388931  154.50700378    1.50000000    2.42000008
   13.76472187  146.15699768    1.50000000    2.42000008
   13.76749992  148.57499695    1.50000000    2.42000008
   13.77083302  147.04600525    1.50000000    2.42000008
   13.77388859  148.15600586    1.50000000    2.42000008
   13.77722168  142.48699951    1.48000002    2.42000008
   13.78027725  151.64599609    1.48000002    2.42000008
   13.78361130  148.12899780    1.44000006    2.42000008
   13.78944492  148.12899780    1.41999996    2.42000008
   13.79361153  150.49899292    1.39999998    2.42000008
   13.79694462  146.85899353    1.39999998    2.44000006
   13.79805565  147.15600586    1.39999998    2.42000008
   13.80055618  151.04200745    1.39999998    2.42000008
   13.80388927  149.62300110    1.39999998    2.42000008
   13.80694485  149.17300415    1.39999998    2.42000008
   13.81027794  149.52099609    1.39999998    2.44000006
   13.81333351  152.02499390    1.38000000    2.42000008
   13.81666660  148.95599365    1.38000000    2.42000008
   13.81999969  147.77200317    1.38000000    2.42000008
   13.82305527  145.33200073    1.38000000    2.42000008
   13.82638836  147.77999878    1.38000000    2.42000008
   13.83249950  147.77999878    1.38000000    2.44000006
   13.83666611  151.19500732    1.38000000    2.44000006
   13.83972168  151.40499878    1.39999998    2.44000006
   13.84305477  145.16499329    1.38000000    2.44000006
   13.84638882  137.63400269    1.38000000    2.44000006
   13.84944439  144.80700684    1.39999998    2.44000006
   13.85277843  143.63600159    1.39999998    2.44000006
   13.85583401  143.30099487    1.38000000    2.44000006
   13.85916710  141.40400696    1.39999998    2.44000006
   13.86250019  142.81500244    1.39999998    2.44000006
   13.86472225  147.26699829    1.39999998    2.44000006
   13.86611176  141.70599365    1.41999996    2.44000006
   13.86944485  141.46099854    1.41999996    2.44000006
   13.87527752  141.46099854    1.44000006    2.44000006
   13.87944412  139.55099487    1.44000006    2.44000006
   13.88249969  140.66000366    1.44000006    2.44000006
   13.88583279  146.45700073    1.46000004    2.44000006
   13.88916683  146.57400513    1.48000002    2.44000006
   13.89222240  145.60800171    1.48000002    2.44000006
   13.89555550  135.89199829    1.48000002    2.46000004
   13.89805508  138.18699646    1.48000002    2.46000004
   13.89916611  136.32899475    1.48000002    2.44000006
   13.90249920  143.05299377    1.48000002    2.44000006
   13.90555477  144.84399414    1.48000002    2.46000004
   13.90888882  137.64300537    1.46000004    2.44000006
   13.91222191  148.43699646    1.46000004    2.46000004
   13.91805553  148.43699646    1.48000002    2.44000006
   13.92222214  138.76499939    1.48000002    2.44000006
   13.92555618  145.32699585    1.46000004    2.46000004
   13.92861176  139.53300476    1.46000004    2.46000004
   13.93138885  144.94400024    1.44000006    2.46000004
   13.93249989  143.23399353    1.44000006    2.46000004
   13.93583298  148.48800659    1.46000004    2.44000006
   13.93888855  143.58500671    1.44000006    2.46000004
   13.94222260  136.13499451    1.44000006    2.46000004
   13.94555569  135.45100403    1.44000006    2.46000004
   13.94861126  141.82299805    1.41999996    2.46000004
   13.95194435  139.75199890    1.41999996    2.46000004
   13.95499992  133.68099976    1.41999996    2.46000004
   13.96083355  133.68099976    1.41999996    2.46000004
   13.96500015  135.97000122    1.41999996    2.46000004
   13.96833324  138.53599548    1.41999996    2.46000004
   13.97166634  137.55400085    1.39999998    2.46000004
   13.97472191  143.51899719    1.38000000    2.46000004
   13.97805500  134.57499695    1.38000000    2.46000004
   13.98138809  144.33799744    1.38000000    2.46000004
   13.98444462  135.51199341    1.38000000    2.46000004
   13.98777771  138.22099304    1.39999998    2.46000004
   13.99111176  138.64599609    1.41999996    2.46000004
   13.99416733  142.80700684    1.41999996    2.46000004
   13.99750042  139.01300049    1.41999996    2.46000004
   13.99805546  137.65400696    1.41999996    2.46000004
   14.00388908  137.65400696    1.46000004    2.46000004
   14.00805569  143.51100159    1.46000004    2.46000004
   14.01111126  140.79400635    1.46000004    2.46000004
   14.01444435  139.35800171    1.46000004    2.46000004
   14.01749992  138.73399353    1.46000004    2.46000004
   14.02083302  139.76100159    1.48000002    2.46000004
   14.02416611  143.06799316    1.53999996    2.46000004
   14.02722168  139.93200684    1.53999996    2.46000004
   14.03055573  143.83900452    1.58000004    2.46000004
   14.03138828  140.69000244    1.60000002    2.46000004
   14.03416729  147.88699341    1.60000002    2.46000004
   14.03750038  139.46000671    1.60000002    2.46000004
   14.04055595  140.93499756    1.58000004    2.46000004
   14.04666710  140.93499756    1.61000001    2.48000002
   14.05083370  136.69200134    1.61000001    2.46000004
   14.05388927  137.04600525    1.61000001    2.46000004
   14.05722237  133.65699768    1.60000002    2.48000002
   14.06055546  147.65600586    1.58000004    2.48000002
   14.06361103  135.46299744    1.53999996    2.46000004
   14.06472206  141.78999329    1.53999996    2.46000004
   14.06750011  144.47599792    1.48000002    2.46000004
   14.07055569  145.24099731    1.48000002    2.46000004
   14.07388878  142.08700562    1.51999998    2.46000004
   14.07722187  140.65800476    1.51999998    2.46000004
   14.08055592  149.31700134    1.53999996    2.46000004
   14.08361053  150.60800171    1.53999996    2.46000004
   14.08944416  150.60800171    1.51999998    2.46000004
   14.09361076  144.22500610    1.51999998    2.48000002
   14.09694386  142.88600159    1.50000000    2.46000004
   14.09805489  139.90199280    1.50000000    2.46000004
   14.10055637  143.43499756    1.50000000    2.46000004
   14.10388947  140.83299255    1.48000002    2.46000004
   14.10694504  144.12899780    1.48000002    2.48000002
   14.11027813  141.16600037    1.48000002    2.48000002
   14.11361122  140.38600159    1.46000004    2.46000004
   14.11666679  140.36500549    1.46000004    2.46000004
   14.11999989  145.55599976    1.46000004    2.46000004
   14.12305546  141.72500610    1.46000004    2.46000004
   14.12666702  144.16999817    1.41999996    2.48000002
   14.13222218  144.16999817    1.39999998    2.46000004
   14.13638878  139.33799744    1.39999998    2.48000002
   14.13972187  141.15100098    1.39999998    2.48000002
   14.14305496  141.50999451    1.38000000    2.48000002
   14.14638901  138.45700073    1.38000000    2.48000002
   14.14972210  148.25100708    1.38000000    2.48000002
   14.15305519  135.46400452    1.38000000    2.48000002
   14.15611076  141.82000732    1.38000000    2.48000002
   14.15944386  140.33599854    1.38000000    2.48000002
   14.16249943  149.46699524    1.38000000    2.48000002
   14.16472149  143.01499939    1.36000001    2.48000002
   14.16611099  147.06700134    1.36000001    2.48000002
   14.16944504  150.16200256    1.36000001    2.46000004
   14.17527771  150.16200256    1.36000001    2.48000002
   14.17944431  143.66200256    1.38000000    2.48000002
   14.18249989  143.36099243    1.38000000    2.48000002
   14.18583298  136.70399475    1.39999998    2.48000002
   14.18888855  139.32299805    1.39999998    2.48000002
   14.19222260  137.60600281    1.39999998    2.48000002
   14.19555569  142.15400696    1.39999998    2.48000002
   14.21305561  136.79800415    1.41999996    2.48000002
   14.21833324  136.79800415    1.44000006    2.50000000
   14.22249985  142.38499451    1.39999998    2.48000002
   14.22555542  144.50500488    1.39999998    2.48000002
   14.22888851  147.44500732    1.39999998    2.48000002
   14.23194408  142.80999756    1.39999998    2.48000002
   14.23527813  141.43400574    1.41999996    2.48000002
   14.23861122  138.31500244    1.39999998    2.48000002
   14.24166679  140.59199524    1.39999998    2.48000002
   14.24499989  129.81900024    1.39999998    2.48000002
   14.24611092  129.58500671    1.39999998    2.48000002
   14.24888897  140.20799255    1.38000000    2.48000002
   14.25222206  136.59300232    1.38000000    2.48000002
   14.25527763  134.45799255    1.36000001    2.48000002
   14.26111126  134.45799255    1.33000004    2.48000002
   14.26527786  141.57400513    1.33000004    2.48000002
   14.26861095  142.44099426    1.33000004    2.50000000
   14.27166653  135.41799927    1.33000004    2.48000002
   14.27499962  140.38200378    1.33000004    2.48000002
   14.27833271  135.08399963    1.34000003    2.50000000
   14.27944374  149.63200378    1.34000003    2.48000002
   14.28194427  140.82000732    1.34000003    2.48000002
   14.28527832  139.27999878    1.34000003    2.48000002
   14.28833389  141.45100403    1.34000003    2.50000000
   14.29166698  134.83799744    1.38000000    2.50000000
   14.29472256  132.03599548    1.39999998    2.50000000
   14.29805565  146.34800720    1.39999998    2.50000000
   14.30416679  146.34800720    1.39999998    2.48000002
   14.30833340  137.47599792    1.41999996    2.50000000
   14.31138897  147.43200684    1.46000004    2.48000002
   14.31277752  144.64199829    1.46000004    2.48000002
   14.31500053  142.74000549    1.48000002    2.50000000
   14.31833363  140.09700012    1.46000004    2.50000000
   14.32138920  127.99299622    1.46000004    2.50000000
   14.32472229  133.31500244    1.46000004    2.50000000
   14.32805538  142.06700134    1.44000006    2.50000000
   14.33111095  139.16400146    1.44000006    2.48000002
   14.33444405  133.30400085    1.46000004    2.50000000
   14.33777714  134.38499451    1.48000002    2.50000000
   14.34083271  135.35099792    1.48000002    2.50000000
   14.34666634  135.35099792    1.48000002    2.50000000
   14.35083389  138.88299561    1.48000002    2.50000000
   14.35416698  135.33200073    1.53999996    2.50000000
   14.35750008  136.11199951    1.53999996    2.50000000
   14.36055565  139.32899475    1.53999996    2.50000000
   14.36388969  129.28399658    1.53999996    2.50000000
   14.36694431  132.80900574    1.55999994    2.50000000
   14.37027836  135.99099731    1.58000004    2.50000000
   14.37361145  133.78100586    1.58000004    2.50000000
   14.37666702  130.10899353    1.55999994    2.50000000
   14.37944412  134.54100037    1.53999996    2.50000000
   14.38027763  130.01400757    1.53999996    2.50000000
   14.38361073  140.65299988    1.51999998    2.50000000
   14.38972187  140.65299988    1.51999998    2.50000000
   14.39388847  136.97900391    1.50000000    2.50000000
   14.39694405  128.56799316    1.50000000    2.50000000
   14.40027714  136.13600159    1.41999996    2.51999998
   14.40361118  135.19400024    1.41999996    2.51999998
   14.40694427  134.46099854    1.41999996    2.50000000
   14.40999985  136.44999695    1.39999998    2.50000000
   14.41277695  135.13900757    1.39999998    2.50000000
   14.41361046  132.16400146    1.41999996    2.50000000
   14.41694450  130.41700745    1.41999996    2.50000000
   14.42000008  138.76300049    1.39999998    2.50000000
   14.42333412  139.24000549    1.38000000    2.50000000
   14.42666721  134.81599426    1.38000000    2.50000000
   14.43249989  134.81599426    1.39999998    2.50000000
   14.43666649  139.21200562    1.39999998    2.50000000
   14.43972206  140.77200317    1.39999998    2.51999998
   14.44305515  145.66000366    1.38000000    2.51999998
   14.44611073  140.80200195    1.38000000    2.51999998
   14.44666672  135.96899414    1.36000001    2.51999998
   14.44999981  142.18600464    1.36000001    2.51999998
   14.45305538  134.72099304    1.34000003    2.50000000
   14.45638847  137.92399597    1.36000001    2.50000000
   14.45972157  140.14999390    1.34000003    2.51999998
   14.46277714  133.44299316    1.33000004    2.51999998
   14.46611118  136.40600586    1.33000004    2.51999998
   14.46916580  137.29200745    1.33000004    2.51999998
   14.47527695  137.29200745    1.33000004    2.51999998
   14.47944355  135.89199829    1.33000004    2.51999998
   14.47999954  142.18099976    1.33000004    2.51999998
   14.48333359  134.54200745    1.34000003    2.51999998
   14.48638916  141.29699707    1.34000003    2.51999998
   14.48972225  138.06599426    1.33000004    2.51999998
   14.49305534  134.01800537    1.33000004    2.51999998
   14.49611092  134.47300720    1.34000003    2.51999998
   14.49944496  134.06100464    1.33000004    2.51999998
   14.50277805  129.11700439    1.34000003    2.51999998
   14.50583363  134.66799927    1.34000003    2.51999998
   14.50916672  134.28199768    1.34000003    2.51999998
   14.51249981  137.27999878    1.34000003    2.51999998
   14.51305580  136.99000549    1.34000003    2.51999998
   14.51805496  136.99000549    1.36000001    2.51999998
   14.52222157  132.59399414    1.38000000    2.51999998
   14.52555561  140.74200439    1.38000000    2.51999998
   14.52888870  132.48899841    1.38000000    2.51999998
   14.53194427  135.76199341    1.38000000    2.51999998
   14.53527832  146.80799866    1.38000000    2.51999998
   14.53861141  142.90400696    1.39999998    2.51999998
   14.54166698  138.91099548    1.39999998    2.51999998
   14.54500008  130.89100647    1.39999998    2.51999998
   14.54638958  138.99800110    1.39999998    2.51999998
   14.54861164  133.49699402    1.41999996    2.51999998
   14.55194473  126.94899750    1.41999996    2.51999998
   14.55500031  137.99400330    1.41999996    2.51999998
   14.56111145  137.99400330    1.39999998    2.51999998
   14.56527805  138.94400024    1.38000000    2.51999998
   14.56833363  127.50499725    1.36000001    2.51999998
   14.57166672  143.29800415    1.36000001    2.51999998
   14.57472229  148.96800232    1.36000001    2.51999998
   14.57805538  142.41000366    1.34000003    2.53999996
   14.57972240  126.47000122    1.36000001    2.51999998
   14.58166695  140.24400330    1.36000001    2.51999998
   14.58500004  134.78799438    1.36000001    2.53999996
   14.58805561  132.83000183    1.36000001    2.51999998
   14.59138870  141.20199585    1.36000001    2.51999998
   14.59472179  142.25399780    1.34000003    2.51999998
   14.59777737  145.94299316    1.36000001    2.51999998
   14.60388947  145.94299316    1.34000003    2.51999998
   14.60805607  140.17100525    1.34000003    2.51999998
   14.61111164  143.05099487    1.34000003    2.51999998
   14.61305618  135.33999634    1.34000003    2.51999998
   14.61472225  136.23899841    1.34000003    2.51999998
   14.61805534  144.76300049    1.34000003    2.51999998
   14.62138939  137.57099915    1.34000003    2.51999998
   14.62444496  141.87199402    1.34000003    2.53999996
   14.62777805  140.86999512    1.34000003    2.53999996
   14.63083363  136.63200378    1.34000003    2.53999996
   14.63444424  136.54100037    1.34000003    2.53999996
   14.63749981  143.73699951    1.33000004    2.53999996
   14.64083290  132.38900757    1.34000003    2.53999996
   14.64666653  132.38900757    1.34000003    2.51999998
   14.65083313  138.36300659    1.34000003    2.51999998
   14.65416622  134.57299805    1.34000003    2.53999996
   14.65722179  140.69200134    1.34000003    2.53999996
   14.66055489  133.93899536    1.34000003    2.53999996
   14.66388893  141.62199402    1.34000003    2.53999996
   14.66722298  145.87899780    1.33000004    2.53999996
   14.67027855  141.50900269    1.33000004    2.53999996
   14.67361164  143.56900024    1.33000004    2.53999996
   14.67694473  137.66700745    1.33000004    2.53999996
   14.67972279  146.16700745    1.33000004    2.53999996
   14.68027782  147.41400146    1.33000004    2.53999996
   14.68361092  138.00399780    1.33000004    2.53999996
   14.68944454  138.00399780    1.28999996    2.53999996
   14.69361115  142.16999817    1.30999994    2.53999996
   14.69694424  144.39999390    1.30999994    2.53999996
   14.70027733  133.01400757    1.33000004    2.53999996
   14.70333290  136.52499390    1.33000004    2.53999996
   14.70666695  137.83700562    1.33000004    2.53999996
   14.71000004  133.66000366    1.33000004    2.53999996
   14.71305561  147.79200745    1.34000003    2.53999996
   14.71361065  133.67500305    1.34000003    2.53999996
   14.71694374  137.61999512    1.34000003    2.53999996
   14.71999931  134.41499329    1.36000001    2.53999996
   14.72333336  130.27999878    1.34000003    2.53999996
   14.72666645  138.44700623    1.36000001    2.53999996
   14.73249912  138.44700623    1.36000001    2.53999996
   14.73638916  134.44999695    1.38000000    2.53999996
   14.73972225  131.98599243    1.34000003    2.53999996
   14.74305534  135.94299316    1.34000003    2.53999996
   14.74638939  133.50700378    1.30999994    2.53999996
   14.74666691  139.44999695    1.30999994    2.53999996
   14.75000000  128.18600464    1.30999994    2.53999996
   14.75305557  136.26199341    1.33000004    2.53999996
   14.75638866  138.74200439    1.33000004    2.53999996
   14.75972176  134.27099609    1.33000004    2.53999996
   14.76277733  137.38099670    1.33000004    2.53999996
   14.76611137  136.74000549    1.28999996    2.53999996
   14.76944447  132.81599426    1.28999996    2.53999996
   14.77527714  132.81599426    1.28999996    2.55999994
   14.77944374  139.76699829    1.28999996    2.53999996
   14.77999973  131.30400085    1.28999996    2.53999996
   14.78333378  135.55099487    1.26999998    2.53999996
   14.78666687  133.83999634    1.28999996    2.53999996
   14.78972244  126.62899780    1.28999996    2.53999996
   14.79305553  132.61700439    1.25000000    2.55999994
   14.79611111  137.12199402    1.25000000    2.55999994
   14.79944515  135.03799438    1.26999998    2.55999994
   14.80277824  137.63499451    1.26999998    2.53999996
   14.80583382  137.82000732    1.25000000    2.55999994
   14.80916691  140.23899841    1.25000000    2.55999994
   14.81250000  140.35200500    1.23000002    2.53999996
   14.81333351  137.54699707    1.21000004    2.55999994
   14.81805515  137.54699707    1.21000004    2.55999994
   14.82222176  132.96899414    1.21000004    2.55999994
   14.82555580  136.39399719    1.21000004    2.55999994
   14.82861137  140.06199646    1.21000004    2.55999994
   14.83194447  132.94200134    1.19000006    2.55999994
   14.83527756  136.44299316    1.19000006    2.55999994
   14.83833313  145.97900391    1.19000006    2.55999994
   14.84166622  136.56700134    1.16999996    2.55999994
   14.84499931  138.50999451    1.16999996    2.55999994
   14.84666634  141.21000671    1.19000006    2.55999994
   14.84833336  139.42399597    1.19000006    2.55999994
   14.85166740  144.88000488    1.19000006    2.55999994
   14.85500050  140.94099426    1.19000006    2.55999994
   14.86083412  140.94099426    1.21000004    2.55999994
   14.86500072  136.00100708    1.23000002    2.55999994
   14.86833382  145.02699280    1.26999998    2.55999994
   14.87138939  144.02999878    1.28999996    2.55999994
   14.87472248  141.13499451    1.25000000    2.55999994
   14.87805557  139.86199951    1.25000000    2.55999994
   14.88000011  138.23399353    1.25000000    2.55999994
   14.88138866  146.86000061    1.25000000    2.55999994
   14.88472176  135.00000000    1.25000000    2.55999994
   14.88805580  142.19200134    1.21000004    2.55999994
   14.89111137  135.27799988    1.21000004    2.55999994
   14.89444447  139.93800354    1.21000004    2.55999994
   14.89750004  141.03999329    1.19000006    2.55999994
   14.90388870  141.03999329    1.19000006    2.55999994
   14.90805531  137.13999939    1.21000004    2.55999994
   14.91111088  137.77000427    1.21000004    2.55999994
   14.91333294  138.34700012    1.21000004    2.55999994
   14.91472149  142.53300476    1.19000006    2.55999994
   14.91805553  130.60099792    1.21000004    2.55999994
   14.92138958  130.40400696    1.28999996    2.55999994
   14.92444515  141.56300354    1.28999996    2.55999994
   14.92777824  141.51600647    1.30999994    2.53999996
   14.93111134  140.54499817    1.30999994    2.55999994
   14.93416691  141.14399719    1.33000004    2.55999994
   14.93750000  138.94200134    1.34000003    2.55999994
   14.94055557  132.78100586    1.36000001    2.55999994
   14.94666672  132.78100586    1.38000000    2.55999994
   14.95083332  137.69999695    1.38000000    2.55999994
   14.95388889  133.97799683    1.39999998    2.55999994
   14.95722198  136.16200256    1.39999998    2.55999994
   14.96055508  144.55000305    1.38000000    2.55999994
   14.96361065  138.33700562    1.38000000    2.55999994
   14.96694374  138.82000732    1.38000000    2.55999994
   14.97027779  136.58999634    1.39999998    2.55999994
   14.97333336  137.98399353    1.39999998    2.55999994
   14.97666645  136.56799316    1.39999998    2.55999994
   14.97972202  139.79899597    1.39999998    2.55999994
   14.98027706  140.94200134    1.39999998    2.55999994
   14.98361111  141.55000305    1.41999996    2.55999994
   14.98944473  141.55000305    1.41999996    2.55999994
   14.99361134  139.87399292    1.44000006    2.55999994
   14.99694443  141.12699890    1.44000006    2.55999994
   15.00000000  139.23199463    1.44000006    2.55999994
   15.00333309  145.84100342    1.44000006    2.55999994
   15.00666714  151.01800537    1.41999996    2.55999994
   15.00972176  148.02699280    1.39999998    2.55999994
   15.01305580  146.83399963    1.39999998    2.55999994
   15.01388931  141.67500305    1.41999996    2.55999994
   15.01666641  155.91499329    1.41999996    2.55999994
   15.01999950  144.80900574    1.41999996    2.55999994
   15.02305508  147.47799683    1.41999996    2.55999994
   15.02638817  151.33700562    1.39999998    2.55999994
   15.03222179  151.33700562    1.39999998    2.55999994
   15.03638935  146.26400757    1.36000001    2.55999994
   15.03972244  131.60899353    1.36000001    2.55999994
   15.04305553  142.45799255    1.36000001    2.55999994
   15.04611111  143.02799988    1.38000000    2.55999994
   15.04694462  142.89399719    1.36000001    2.55999994
   15.04972267  146.69400024    1.36000001    2.55999994
   15.05305576  144.74400330    1.34000003    2.55999994
   15.05611134  142.11900330    1.33000004    2.55999994
   15.05944443  141.24200439    1.30999994    2.55999994
   15.06277752  146.11000061    1.30999994    2.55999994
   15.06583309  142.94200134    1.28999996    2.55999994
   15.06916618  148.72999573    1.28999996    2.55999994
   15.07527733  148.72999573    1.25000000    2.55999994
   15.07916641  143.01199341    1.25000000    2.55999994
   15.08027744  144.74800110    1.25000000    2.55999994
   15.08277798  151.86700439    1.23000002    2.55999994
   15.08611107  149.21099854    1.21000004    2.55999994
   15.08916664  147.29100037    1.21000004    2.55999994
   15.09249973  147.74600220    1.16999996    2.55999994
   15.09583282  144.79299927    1.16999996    2.55999994
   15.09888840  146.36500549    1.14999998    2.55999994
   15.10222244  144.96699524    1.14999998    2.55999994
   15.10555553  152.20399475    1.14999998    2.55999994
   15.10861111  150.96600342    1.13000000    2.55999994
   15.11194515  137.70700073    1.14999998    2.57999992
   15.11361122  156.61000061    1.14999998    2.57999992
   15.11805534  156.61000061    1.11000001    2.55999994
   15.12222195  148.66000366    1.07000005    2.57999992
   15.12527752  149.85800171    1.07000005    2.57999992
   15.12861156  150.39199829    1.07000005    2.57999992
   15.13194466  147.17100525    1.05999994    2.57999992
   15.13500023  152.11399841    1.05999994    2.57999992
   15.13833332  155.16200256    1.07000005    2.57999992
   15.14166641  157.28599548    1.09000003    2.57999992
   15.14472198  155.12699890    1.13000000    2.57999992
   15.14694405  141.05999756    1.13000000    2.57999992
   15.14833355  154.54600525    1.13000000    2.57999992
   15.15166664  159.73199463    1.13000000    2.57999992
   15.15472221  160.01300049    1.11000001    2.57999992
   15.16083336  160.01300049    1.13000000    2.57999992
   15.16499996  157.81300354    1.14999998    2.57999992
   15.16833401  179.44200134    1.14999998    2.57999992
   15.17138958  167.49000549    1.14999998    2.57999992
   15.17472267  163.99299622    1.14999998    2.57999992
   15.17805576  158.66999817    1.16999996    2.57999992
   15.18027782  174.33399963    1.16999996    2.57999992
   15.18166733  159.49800110    1.16999996    2.57999992
   15.18500042  151.59199524    1.16999996    2.57999992
   15.18805599  174.68899536    1.21000004    2.57999992
   15.34833336   -1.00000000   -1.00000000   -1.00000000
   15.44944477   -1.00000000   -1.00000000   -1.00000000
   15.55138874   -1.00000000   -1.00000000   -1.00000000
   15.61888885  175.37100220    3.01999998    2.55999994
   15.62222195  172.71400452    3.16000009    2.55999994
   15.62555599  170.19200134    3.28999996    2.55999994
   15.62861156  169.97200012    3.36999989    2.55999994
   15.63194466  179.13800049    3.30999994    2.55999994
   15.63527775  163.63600159    3.28999996    2.53999996
   15.63944435  163.63600159    3.43000007    2.55999994
   15.64333344  160.49600220    3.51999998    2.55999994
   15.64666653  168.76899719    3.59999990    2.55999994
   15.64999962  169.73500061    3.68000007    2.55999994
   15.65222168  165.01199341    3.70000005    2.53999996
   15.65361118  156.44599915    3.68000007    2.53999996
   15.65666676  162.63499451    3.72000003    2.55999994
   15.65999985  157.58799744    3.70000005    2.53999996
   15.66333294  156.77799988    3.66000009    2.53999996
   15.66638851  178.53900146    3.68000007    2.55999994
   15.66972256  156.92900085    3.73000002    2.55999994
   15.67277813  166.91000366    3.78999996    2.53999996
   15.67611122  173.81500244    3.91000009    2.53999996
   15.68222237  173.81500244    4.90999985    2.55999994
   15.68638897  159.56500244    4.90999985    2.55999994
   15.68944454  162.39300537    4.90999985    2.55999994
   15.69277763  154.60800171    4.90999985    2.53999996
   15.69583321  167.06700134    4.61999989    2.53999996
   15.69916630  168.85899353    4.61999989    2.51999998
   15.70249939  170.57000732    4.67999983    2.53999996
   15.70555496  166.59399414    4.80000019    2.51999998
   15.70888901  160.66000366    4.90999985    2.53999996
   15.71222210  172.46299744    4.90999985    2.51999998
   15.71555519  174.64999390    4.90999985    2.48000002
   15.71888828  175.86199951    4.90999985    2.46000004
   15.71944427  176.42399597    4.90999985    2.42000008
   15.72499943  176.42399597    4.90999985    2.44000006
   15.72916603  173.10899353    4.90999985    2.46000004
   15.73222160  169.32499695    4.90999985    2.46000004
   15.73555565  156.78500366    4.90999985    2.46000004
   15.73888874  168.63200378    4.90999985    2.48000002
   15.74194431  165.23399353    4.90999985    2.50000000
   15.74527836  160.34500122    4.90999985    2.51999998
   15.74861145  165.40699768    4.90999985    2.50000000
   15.75166702  165.41700745    4.90999985    2.48000002
   15.75222206  171.24400330    4.90999985    2.48000002
   15.75527763  166.16999817    4.90999985    2.50000000
   15.75833321  156.59899902    4.90999985    2.55999994
   15.76166630  162.34199524    4.90999985    2.53999996
   15.76777744  162.34199524    4.90999985    2.55999994
   15.77194405  178.30900574    4.90999985    2.51999998
   15.77527714  164.21499634    4.90999985    2.53999996
   15.77833271  161.10499573    4.90999985    2.57999992
   15.78166676  160.65800476    4.01999998    2.55999994
   15.78500080  152.87100220    3.75000000    2.57999992
   15.78555584  156.04699707    3.82999992    2.57999992
   15.78861141  163.86399841    3.95000005    2.57999992
   15.79194450  168.68600464    3.93000007    2.57999992
   15.79500008  164.58399963    3.72000003    2.57999992
   15.79833412  156.35299683    3.36999989    2.55999994
   15.80138874  167.34300232    3.32999992    2.57999992
   15.80472279  157.39399719    2.91000009    2.59999990
   15.81083393  157.39399719    2.32999992    2.59999990
   15.81500053  158.30400085    2.17000008    2.59999990
   15.81805515  158.44999695    2.17000008    2.57999992
   15.81888866  155.54100037    2.19000006    2.59999990
   15.82166672  155.55799866    2.07999992    2.57999992
   15.82499981  160.88099670    2.17000008    2.59999990
   15.82805538  164.43299866    2.40000010    2.59999990
   15.83138847  143.07600403    2.69000006    2.59999990
   15.83444405  159.11999512    4.23999977    2.59999990
   15.83777714  160.50900269    4.90999985    2.57999992
   15.84111118  170.98699951    4.90999985    2.50000000
   15.84416676  186.94000244    4.90999985    2.42000008
   15.84749985  169.92199707    4.90999985    2.30999994
   15.85361195  169.92199707    4.90999985    2.40000010
   15.85777855  176.22399902    4.90999985    2.42000008
   15.86083412  174.82000732    4.90999985    2.46000004
   15.86416721  194.92599487    4.90999985    2.46000004
   15.86750031  191.39799500    4.90999985    2.23000002
   15.87055588  180.66099548    4.90999985    2.25000000
   15.87388897  168.90499878    4.90999985    2.28999996
   15.87694454  167.43499756    4.90999985    2.32999992
   15.88027763  167.98599243    4.90999985    2.36999989
   15.88361073  164.53999329    4.90999985    2.46000004
   15.88555527  170.05799866    4.90999985    2.46000004
   15.88722229  166.07000732    4.90999985    2.44000006
   15.89027786  178.73599243    4.90999985    2.48000002
   15.89638901  178.73599243    4.90999985    2.32999992
   15.90055561  193.60000610    4.90999985    2.25000000
   15.90361118  191.74000549    4.90999985    2.17000008
   15.90694427  172.06900024    4.90999985    2.15000010
   15.91027737  205.29899597    4.90999985    2.26999998
   15.91333294  167.91200256    4.90999985    2.21000004
   15.91666698  169.28300476    4.90999985    2.34999990
   15.91888905  154.05999756    4.90999985    2.42000008
   15.92027855  157.89900208    4.90999985    2.44000006
   15.92361164  154.89599609    4.90999985    2.50000000
   15.92666721  160.56399536    4.90999985    2.51999998
   15.93000031  170.92300415    4.90999985    2.36999989
   15.93305588  167.67399597    4.90999985    2.44000006
   15.93916702  167.67399597    4.90999985    2.46000004
   15.94333363  173.68299866    4.90999985    2.55999994
   15.94666672  165.40699768    4.90999985    2.53999996
   15.94972229  165.52400208    4.90999985    2.50000000
   15.95222187  162.46000671    4.90999985    2.53999996
   15.95361137  167.69099426    4.90999985    2.55999994
   15.95666695  168.14300537    4.90999985    2.57999992
   15.96000004  157.24000549    4.90999985    2.59999990
   15.96333313  159.89599609    4.90999985    2.55999994
   15.96638870  172.34700012    4.90999985    2.57999992
   15.96972179  161.67300415    4.90999985    2.53999996
   15.97305489  167.99600220    4.90999985    2.48000002
   15.97611046  165.46899414    4.90999985    2.46000004
   15.98222160  165.46899414    4.90999985    2.48000002
   15.98611164  162.05299377    4.90999985    2.46000004
   15.98944473  182.09500122    4.90999985    2.46000004
   15.99277782  155.77900696    4.90999985    2.44000006
   15.99583340  170.89999390    4.90999985    2.48000002
   15.99916649  156.48800659    4.90999985    2.59999990
   16.00222206  171.20399475    4.90999985    2.53999996
   16.00555611  159.95599365    4.90999985    2.57999992
   16.00888824  152.80299377    4.90999985    2.61999989
   16.01194382  151.54299927    4.90999985    2.59999990
   16.01527786  149.11000061    4.21999979    2.59999990
   16.01861000  159.47700500    3.05999994    2.59999990
   16.01916695  155.41299438    2.89000010    2.59999990
   16.02499962  155.41299438    3.11999989    2.57999992
   16.02916718  150.67500305    3.48000002    2.57999992
   16.03222275  155.55499268    4.00000000    2.57999992
   16.03555489  150.17399597    4.32999992    2.59999990
   16.03861046  160.25799561    4.59999990    2.55999994
   16.04194450  151.11999512    4.51000023    2.55999994
   16.04527664  157.10800171    4.38999987    2.59999990
   16.04833221  160.61000061    4.03999996    2.59999990
   16.05166626  156.12600708    4.28999996    2.57999992
   16.05249977  151.80999756    4.42999983    2.57999992
   16.05527687  166.30200195    4.80999994    2.59999990
   16.05861092  164.26199341    4.90999985    2.57999992
   16.06166649  149.76899719    4.90999985    2.57999992
   16.06777954  149.76899719    4.90999985    2.57999992
   16.07194519  142.85299683    4.90999985    2.57999992
   16.07500076  153.49000549    4.90999985    2.53999996
   16.07833481  160.56599426    4.90999985    2.59999990
   16.08166695  156.14799500    4.90999985    2.55999994
   16.08472252  157.96499634    4.90999985    2.55999994
   16.08583450  155.80499268    4.90999985    2.55999994
   16.08833313  167.91400146    4.90999985    2.59999990
   16.09166718  156.96099854    4.90999985    2.55999994
   16.09472275  154.57499695    4.90999985    2.53999996
   16.09805679  162.54800415    4.90999985    2.53999996
   16.10138893  158.18099976    4.90999985    2.53999996
   16.10444450  160.59100342    4.90999985    2.53999996
   16.11055565  160.59100342    4.90999985    2.53999996
   16.11472321  151.65600586    4.90999985    2.55999994
   16.11805534  161.80299377    4.90999985    2.59999990
   16.11916733  156.17799377    4.90999985    2.59999990
   16.12166595  153.64999390    4.90999985    2.57999992
   16.12500000  164.91000366    4.90999985    2.57999992
   16.12805557  152.05400085    4.90999985    2.53999996
   16.13138962  155.75799561    4.90999985    2.55999994
   16.13472176  149.86599731    4.90999985    2.57999992
   16.13777733  148.88299561    4.90999985    2.57999992
   16.14111137  157.69700623    4.90999985    2.57999992
   16.14444351  168.99200439    4.90999985    2.57999992
   16.14749908  160.89599609    4.90999985    2.55999994
   16.15361023  160.89599609    4.90999985    2.57999992
   16.15749931  158.82400513    4.90999985    2.57999992
   16.16083336  158.66600037    4.90999985    2.55999994
   16.16416550  161.36199951    4.84999990    2.57999992
   16.16722107  159.06599426    4.82999992    2.57999992
   16.17055511  155.36999512    4.90999985    2.57999992
   16.17361069  168.83999634    4.90999985    2.55999994
   16.17694473  167.24600220    4.90999985    2.55999994
   16.18027687  163.72300720    4.90999985    2.57999992
   16.18333244  158.17700195    4.84999990    2.57999992
   16.18583298  158.63299561    4.80999994    2.59999990
   16.18694305  176.43200684    4.84999990    2.59999990
   16.19027710  162.11999512    4.88999987    2.57999992
   16.19638824  162.11999512    4.90999985    2.57999992
   16.20055580  159.92300415    4.90999985    2.57999992
   16.20361137  157.27799988    4.90999985    2.53999996
   16.20694542  164.93800354    4.90999985    2.50000000
   16.21000099  153.08500671    4.90999985    2.55999994
   16.21333504  153.22599792    4.90999985    2.55999994
   16.21666718  169.31700134    4.90999985    2.57999992
   16.21916771  170.71499634    4.90999985    2.57999992
   16.22027779  153.72500610    4.90999985    2.55999994
   16.22361183  156.07299805    4.90999985    2.53999996
   16.22666740  173.39599609    4.90999985    2.55999994
   16.23000145  156.31799316    4.90999985    2.57999992
   16.23333359  155.55200195    4.26999998    2.59999990
   16.23916626  155.55200195    3.45000005    2.59999990
   16.24333382  147.28599548    3.50000000    2.59999990
   16.24638939  150.36599731    3.91000009    2.57999992
   16.24972153  152.73300171    4.42999983    2.57999992
   16.25250053  157.94299316    4.53999996    2.55999994
   16.25333405  173.54499817    4.59999990    2.55999994
   16.25666618  159.53700256    4.65999985    2.59999990
   16.25972176  157.23800659    4.46999979    2.57999992
   16.26305580  147.21299744    4.01999998    2.59999990
   16.26638794  161.39199829    3.46000004    2.59999990
   16.26944351  161.31100464    3.03999996    2.59999990
   16.27277756  153.27299500    2.94000006    2.61999989
   16.27611160  149.62100220    3.20000005    2.59999990
   16.28194427  149.62100220    4.13999987    2.59999990
   16.28610992  170.25100708    4.86999989    2.59999990
   16.28944397  160.70899963    4.82999992    2.57999992
   16.29249954  160.90199280    4.84999990    2.59999990
   16.29583359  170.49099731    4.90999985    2.57999992
   16.29916573  157.21600342    4.90999985    2.57999992
   16.30222130  165.08399963    4.90999985    2.55999994
   16.30555534  161.82099915    4.90999985    2.55999994
   16.30861092  161.62899780    4.90999985    2.55999994
   16.31194305  149.10699463    4.88999987    2.55999994
   16.31527710  162.03799438    4.59999990    2.59999990
   16.31833458  161.58299255    4.80999994    2.57999992
   16.31916809  156.60299683    4.78000021    2.57999992
   16.32472229  156.60299683    4.53999996    2.57999992
   16.32888985  167.44000244    3.70000005    2.59999990
   16.33222389  165.57200623    3.93000007    2.59999990
   16.33555603  151.34800720    4.30999994    2.59999990
   16.33861160  166.29499817    4.90999985    2.55999994
   16.34194565  158.27499390    4.90999985    2.53999996
   16.34500122  152.29699707    4.90999985    2.57999992
   16.34833336  141.58099365    4.90999985    2.53999996
   16.35166740  165.71099854    4.90999985    2.55999994
   16.35250092  162.97000122    4.90999985    2.57999992
   16.35499954  159.18499756    4.90999985    2.53999996
   16.35833359  168.96099854    4.90999985    2.57999992
   16.36166763  166.28100586    4.90999985    2.57999992
   16.36777878  166.28100586    4.90999985    2.50000000
   16.37222290  158.66900635    4.90999985    2.51999998
   16.37527847  152.19400024    4.90999985    2.42000008
   16.37861061  163.59800720    4.90999985    2.51999998
   16.38194466  167.29299927    4.90999985    2.55999994
   16.38500023  172.58200073    4.90999985    2.59999990
   16.38583374  162.10200500    4.90999985    2.59999990
   16.38861084  173.80099487    4.90999985    2.53999996
   16.39194489  166.26300049    4.90999985    2.53999996
   16.39527702  167.57299805    4.90999985    2.50000000
   16.39833260  181.83999634    4.90999985    2.46000004
   16.40166664  171.26800537    4.90999985    2.48000002
   16.40472221  180.24800110    4.90999985    2.42000008
   16.41055489  180.24800110    4.90999985    2.42000008
   16.41472244  168.36099243    4.90999985    2.50000000
   16.41805458  177.75300598    4.90999985    2.44000006
   16.41916656  171.86999512    4.90999985    2.42000008
   16.42138863  197.40499878    4.90999985    2.51999998
   16.42472076  172.31900024    4.90999985    2.44000006
   16.42805481  195.89300537    4.90999985    2.46000004
   16.43111038  191.34800720    4.90999985    2.36999989
   16.43444443  196.15299988    4.90999985    2.34999990
   16.43750000  189.82600403    4.90999985    2.34999990
   16.44083214  169.02699280    4.90999985    2.44000006
   16.44416618  220.71800232    4.90999985    2.25000000
   16.44722176  183.68400574    4.90999985    2.30999994
   16.45333481  183.68400574    4.90999985    2.32999992
   16.45750046  180.79899597    4.90999985    2.46000004
   16.46083450  176.66299438    4.90999985    2.39000010
   16.46389008  197.63400269    4.90999985    2.34999990
   16.46722221  172.88400269    4.90999985    2.42000008
   16.47055626  179.30799866    4.90999985    2.51999998
   16.47361183  211.62699890    4.90999985    2.40000010
   16.47694588  185.18200684    4.90999985    2.30999994
   16.48000145  172.23199463    4.90999985    2.40000010
   16.48333359  174.08000183    4.90999985    2.44000006
   16.48583412  173.60800171    4.90999985    2.42000008
   16.48694420  192.55200195    4.90999985    2.42000008
   16.49027824  193.42999268    4.90999985    2.39000010
   16.49638939  193.42999268    4.90999985    2.51999998
   16.50027847  222.06100464    4.90999985    2.34999990
   16.50361061  442.12100220    4.90999985    2.19000006
   16.50555611  183.11000061    4.90999985    2.01999998
   16.50583267  222.06100464    4.90999985    2.34999990
   16.50583267  442.12100220    4.90999985    2.19000006
   16.50611115  179.30799866    4.90999985    2.51999998
   16.50611115  211.62699890    4.90999985    2.40000010
   16.50611115  185.18200684    4.90999985    2.30999994
   16.50638962  172.23199463    4.90999985    2.40000010
   16.50638962  174.08000183    4.90999985    2.44000006
   16.50638962  192.55200195    4.90999985    2.42000008
   16.50666618  193.42999268    4.90999985    2.39000010
   16.50861168  239.18499756    4.90999985    2.44000006
   16.51166725  234.86900330    4.90999985    2.21000004
   16.51499939  323.84201050    4.90999985    2.17000008
   16.51833344  210.67599487    4.90999985    2.13000011
   16.52138901  188.32299805    4.90999985    2.23000002
   16.52638817  188.32299805    4.90999985    2.19000006
   16.53055573  173.42500305    4.90999985    2.51999998
   16.53388786  175.83500671    4.90999985    2.50000000
   16.53694344  199.58500671    4.90999985    2.44000006
   16.53944397  202.35499573    4.90999985    2.28999996
   16.54083252  189.94599915    4.90999985    2.36999989
   16.54416656  177.82200623    4.90999985    2.40000010
   16.54722214  167.00700378    4.90999985    2.51999998
   16.55055428  168.46899414    4.90999985    2.53999996
   16.55388832  229.00199890    4.90999985    2.50000000
   16.55694389  243.87100220    4.90999985    2.19000006
   16.56027794  219.02400208    4.90999985    2.23000002
   16.56333351  232.06199646    4.90999985    2.32999992
   16.56944466  232.06199646    4.90999985    2.09999990
   16.57333374  265.07501221    4.90999985    2.15000010
   16.57666779  238.30200195    4.90999985    2.21000004
   16.58000183  247.01400757    4.90999985    2.19000006
   16.58305550  263.91900635    4.90999985    2.17000008
   16.58638954  368.07901001    4.90999985    2.13000011
   16.58972359  373.83499146    4.90999985    2.01999998
   16.59277916  250.81199646    4.90999985    1.96000004
   16.59611130  212.96499634    4.90999985    2.19000006
   16.59916687  259.55398560    4.90999985    2.13000011
   16.60250092  220.58299255    4.90999985    2.19000006
   16.60583305  235.39199829    4.90999985    2.32999992
   16.60639000  209.72000122    4.90999985    2.23000002
   16.61222267  209.72000122    4.90999985    2.30999994
   16.61638832  189.77400208    4.90999985    2.40000010
   16.61944389  251.95100403    4.90999985    2.28999996
   16.63888931   75.84570313    4.90999985    1.94000006
   16.63972282   93.93109894    4.90999985    1.80999994
   16.64277840  221.00000000    4.90999985    1.69000006
   16.64611053  177.39999390    4.90999985    2.34999990
   16.64916611  216.86900330    4.90999985    2.46000004
   16.65499878  216.86900330    4.90999985    2.05999994
   16.65916634  109.97100067    4.90999985    1.98000002
   16.66250038  333.61300659    4.90999985    1.71000004
   16.66555595   -1.00000000    4.90999985    2.17000008
   16.66888809  110.13500214    4.90999985    1.50000000
   16.67222214  108.46099854    4.90999985    1.80999994
   16.67305565  128.19599915    4.90999985    1.88000000
   16.67583275  190.98800659    4.90999985    1.76999998
   16.67916679  123.58000183    4.90999985    1.80999994
   16.68222237   67.80580139    4.90999985    1.71000004
   16.68555450   81.27929688    4.90999985    1.55999994
   16.68861008  134.69099426    4.90999985    1.63000000
   16.69194412   80.11599731    4.90999985    1.86000001
   16.69777679   80.11599731    4.90999985    1.78999996
   16.70194435   88.76969910    4.90999985    1.86000001
   16.70527840   94.32800293    4.90999985    1.63000000
   16.70639038   81.07379913    4.90999985    1.73000002
   16.70888901  137.06900024    4.90999985    1.78999996
   16.71222305  109.02400208    4.90999985    1.73000002
   16.71527863   22.94160080    4.90999985    1.63000000
   16.71861076  166.52099609    4.90999985    1.60000002
   16.72166634   -1.00000000    4.90999985    1.69000006
   16.72500038   -1.00000000   -1.00000000   -1.00000000
   16.72833443   73.88780212    4.90999985    1.60000002
   16.73139000  441.35101318    4.90999985    1.86000001
   16.73361206  282.85101318    4.90999985    1.96000004
   16.73361206   94.32800293    4.90999985    1.63000000
   16.73361206  137.06900024    4.90999985    1.78999996
   16.73388863  109.02400208    4.90999985    1.73000002
   16.73388863   22.94160080    4.90999985    1.63000000
   16.73388863  166.52099609    4.90999985    1.60000002
   16.73416710   -1.00000000    4.90999985    1.69000006
   16.73416710   -1.00000000   -1.00000000   -1.00000000
   16.73444557   73.88780212    4.90999985    1.60000002
   16.73444557  441.35101318    4.90999985    1.86000001
   16.73611069  139.35499573    4.90999985    1.75000000
   16.73944473  457.32901001    4.90999985    1.85000002
   16.74138832  419.48599243    4.90999985    1.94000006
   16.74277878  415.44799805    4.90999985    2.00000000
   16.74416733  274.56399536    4.90999985    1.91999996
   16.74416733  139.35499573    4.90999985    1.75000000
   16.74444389  457.32901001    4.90999985    1.85000002
   16.74500084  265.88101196    4.90999985    1.91999996
   16.74805641  394.82598877    4.90999985    2.01999998
   16.75138855  237.26400757    4.90999985    1.98000002
   16.75444412  245.33399963    4.90999985    2.09999990
   16.75777817  196.95500183    4.90999985    2.21000004
   16.76111031  209.44900513    4.90999985    2.21000004
   16.76527786  209.44900513    4.90999985    2.13000011
   16.76916695  183.07800293    4.90999985    2.19000006
   16.77249908  177.39399719    4.90999985    2.30999994
   16.77583313  173.21000671    4.90999985    2.39000010
   16.77805519  156.63699341    4.90999985    2.42000008
   16.77944374  163.76199341    4.90999985    2.44000006
   16.78277779  180.11999512    4.90999985    2.46000004
   16.78610992  181.06399536    4.90999985    2.50000000
   16.78916550  176.64500427    4.90999985    2.34999990
   16.79249954  204.25700378    4.90999985    2.40000010
   16.79583359  204.72200012    4.90999985    2.25000000
   16.79888916  220.49600220    4.90999985    2.36999989
   16.80222130  226.93899536    4.90999985    2.21000004
   16.80833244  226.93899536    4.90999985    2.05999994
   16.81250000  257.06201172    4.90999985    2.25000000
   16.81583214  214.53500366    4.90999985    2.28999996
   16.81916809  223.90699768    4.90999985    2.28999996
   16.82222366  227.76600647    4.90999985    2.23000002
   16.82555580  291.57400513    4.90999985    2.17000008
   16.82888985  229.07299805    4.90999985    2.15000010
   16.83194542  217.67999268    4.90999985    2.28999996
   16.83527756  215.18699646    4.90999985    2.25000000
   16.83833313  193.57499695    4.90999985    2.15000010
   16.84166718  285.05300903    4.90999985    2.42000008
   16.84472275  247.72599792    4.90999985    2.21000004
   16.84527779  270.68200684    4.90999985    2.21000004
   16.85083389  270.68200684    4.90999985    2.03999996
   16.85499954  123.79499817    4.90999985    1.96000004
   16.85833359  264.04299927    4.90999985    1.71000004
   16.86138916  227.18800354    4.90999985    1.98000002
   16.86472321  116.76300049    4.90999985    1.85000002
   16.86777878  249.27699280    4.90999985    1.66999996
   16.87111092  111.61699677    4.90999985    2.23000002
   16.87444496  365.00000000    4.90999985    1.76999998
   16.87750053  292.81698608    4.90999985    2.00000000
   16.87805557  274.64700317    4.90999985    2.00000000
   16.88111115  305.26800537    4.90999985    2.21000004
   16.88444519  296.23901367    4.90999985    2.11999989
   16.88750076  386.52499390    4.90999985    2.00000000
   16.89361191  386.52499390    4.90999985    1.83000004
   16.89777756  317.81600952    4.90999985    2.03999996
   16.90111160  310.50698853    4.90999985    2.07999992
   16.90444374  285.06100464    4.90999985    2.01999998
   16.90749931  237.11999512    4.90999985    2.09999990
   16.91083336  242.51600647    4.90999985    2.13000011
   16.91138840  249.76600647    4.90999985    2.11999989
   16.91444397  243.43600464    4.90999985    2.11999989
   16.91777802  197.18299866    4.90999985    2.21000004
   16.92083359  190.57400513    4.90999985    2.34999990
   16.92416573  171.37800598    4.90999985    2.39000010
   16.92722130  193.44000244    4.90999985    2.32999992
   16.93055534  187.68899536    4.90999985    2.34999990
   16.93666649  187.68899536    4.90999985    2.46000004
   16.94083214  169.00500488    4.90999985    2.51999998
   16.94388771  163.61700439    4.90999985    2.51999998
   16.94472122  166.43400574    4.90999985    2.53999996
   16.94749832  163.04299927    4.90999985    2.57999992
   16.95083427  161.88499451    4.90999985    2.57999992
   16.95388985  162.87500000    4.90999985    2.55999994
   16.95722389  160.24400330    4.90999985    2.53999996
   16.96027946  160.04499817    4.90999985    2.57999992
   16.96361160  151.36500549    4.90999985    2.59999990
   16.96694565  149.21800232    4.90999985    2.61999989
   16.97000122  151.22700500    4.90999985    2.61999989
   16.97333336  153.64199829    4.82999992    2.57999992
   16.97944450  153.64199829    4.90999985    2.57999992
   16.98361206  151.57400513    4.90999985    2.57999992
   16.98666763  148.53500366    4.59999990    2.55999994
   16.98999977  155.86399841    4.80999994    2.57999992
   16.99333382  146.97999573    4.90999985    2.59999990
   16.99638939  151.68699646    4.11999989    2.59999990
   16.99972153  167.27299500    3.53999996    2.59999990
   17.00333405  169.79200745    3.34999990    2.59999990
   17.00638962  162.83000183    3.39000010    2.59999990
   17.00972176  159.17100525    3.66000009    2.59999990
   17.01138878  155.61700439    3.78999996    2.59999990
   17.01333427  161.14500427    3.95000005    2.57999992
   17.01666641  160.59300232    4.51000023    2.57999992
   17.02222252  160.59300232    4.80000019    2.59999990
   17.02638817  159.04100037    3.23000002    2.59999990
   17.02972221  160.99000549    3.09999990    2.59999990
   17.03277779  159.86199951    3.05999994    2.59999990
   17.03610992  158.06500244    3.57999992    2.59999990
   17.03916550  157.60699463    4.03999996    2.57999992
   17.04249954  164.75000000    4.90999985    2.57999992
   17.04472160  155.26499939    4.90999985    2.55999994
   17.04611015  156.89599609    4.90999985    2.53999996
   17.04944420  163.84700012    4.90999985    2.57999992
   17.05249977  159.74400330    4.90999985    2.57999992
   17.05583191  149.64199829    4.90999985    2.53999996
   17.05888748  157.40100098    4.90999985    2.55999994
   17.06499863  157.40100098    4.57999992    2.57999992
   17.06916809  156.37600708    3.73000002    2.59999990
   17.07250023  142.50500488    3.18000007    2.59999990
   17.07583427  155.81199646    2.80999994    2.59999990
   17.07805634  153.67999268    2.57999992    2.59999990
   17.07944489  154.46800232    2.53999996    2.59999990
   17.08277893  154.23300171    2.46000004    2.59999990
   17.08583450  157.27799988    2.50000000    2.59999990
   17.08916664  156.66299438    2.78999996    2.59999990
   17.09222221  157.05700684    3.46000004    2.55999994
   17.09555626  162.86099243    4.90999985    2.55999994
   17.09889030  164.85099792    4.90999985    2.48000002
   17.10194397  148.88600159    4.90999985    2.46000004
   17.10805511  148.88600159    4.90999985    2.53999996
   17.11194420  166.59700012    4.90999985    2.55999994
   17.11527824  162.66799927    4.90999985    2.57999992
   17.11861038  165.82699585    4.90999985    2.50000000
   17.12166595  179.60000610    4.90999985    2.53999996
   17.12500000  154.64399719    4.90999985    2.36999989
   17.12833405  155.71600342    4.90999985    2.61999989
   17.13138962  169.44799805    4.90999985    2.59999990
   17.13472176  168.26699829    4.90999985    2.59999990
   17.13777733  161.77400208    4.32999992    2.57999992
   17.14111137  189.87600708    3.89000010    2.57999992
   17.14444351  177.12300110    3.99000001    2.57999992
   17.14500046  176.92199707    3.99000001    2.57999992
   17.15083313  176.92199707    4.09999990    2.55999994
   17.15499878  166.09599304    3.82999992    2.59999990
   17.15805435  167.50599670    3.28999996    2.59999990
   17.16138840  166.13600159    3.05999994    2.59999990
   17.16472244  176.66600037    3.09999990    2.59999990
   17.16777802  211.14900208    4.90999985    2.64000010
   17.17111015  236.30200195    4.90999985    2.36999989
   17.17444420  271.16900635    4.90999985    1.88000000
   17.17749977  240.16600037    4.90999985    2.36999989
   17.17833328  209.21699524    4.90999985    2.36999989
   17.18111038  203.13099670    4.90999985    2.40000010
   17.18444443  333.25000000    4.90999985    2.40000010
   17.18777657  278.87799072    4.90999985    2.15000010
   17.19361115  278.87799072    4.90999985    2.30999994
   17.19777679  257.19500732    4.90999985    2.46000004
   17.20111275  203.29699707    4.90999985    2.30999994
   17.20416832  246.60499573    4.90999985    2.28999996
   17.20750046  273.18301392    4.90999985    2.25000000
   17.21055603  242.57200623    4.90999985    2.17000008
   17.21166801  234.03199768    4.90999985    2.17000008
   17.21416664  220.36000061    4.90999985    2.42000008
   17.21750069  216.42900085    4.90999985    2.57999992
   17.22083473  202.33700562    3.41000009    2.59999990
   17.22389030  212.80700684    3.51999998    2.59999990
   17.22722244  206.19200134    4.84999990    2.53999996
   17.23027802  188.61500549    4.90999985    2.55999994
   17.23638916  188.61500549    3.80999994    2.59999990
   17.24055672  206.58900452    3.46000004    2.59999990
   17.24388885  204.67900085    4.90999985    2.59999990
   17.24500084  233.15499878    4.90999985    2.57999992
   17.24749947  221.47700500    4.90999985    2.50000000
   17.25083351  222.63000488    4.90999985    2.40000010
   17.25416756  213.55999756    4.90999985    2.34999990
   17.25722313  220.65699768    4.90999985    2.59999990
   17.26055527  214.05099487    4.90999985    2.61999989
   17.26361084  219.76100159    4.90999985    2.32999992
   17.26694489  232.53799438    4.90999985    2.39000010
   17.27027702  261.35198975    4.90999985    2.30999994
   17.27333260  200.50799561    4.90999985    2.39000010
   17.27944374  200.50799561    4.90999985    2.55999994
   17.28333282  189.89900208    4.90999985    2.53999996
   17.28666687  247.81500244    4.90999985    2.50000000
   17.28999901  202.44799805    4.90999985    2.26999998
   17.29305458  193.62399292    4.90999985    2.61999989
   17.29638863  209.24000549    4.90999985    2.57999992
   17.29972076  192.66299438    4.90999985    2.55999994
   17.30277634  204.11799622    4.90999985    2.53999996
   17.30611038  188.84700012    4.90999985    2.48000002
   17.30916595  201.63800049    4.90999985    2.50000000
   17.31166649  207.88600159    4.90999985    2.61999989
   17.31277657  204.65600586    4.90999985    2.57999992
   17.31611061  201.08200073    4.90999985    2.64000010
   17.32222366  201.08200073    4.90999985    2.46000004
   17.32638931  194.05299377    4.90999985    2.57999992
   17.32944489  199.54499817    4.90999985    2.64000010
   17.33277893  263.20901489    4.90999985    2.53999996
   17.33611107  370.20300293    4.90999985    2.25000000
   17.33916664  383.03100586    4.90999985    2.00000000
   17.34250069  134.61399841    4.90999985    1.75000000
   17.34500122  268.13500977    4.90999985    1.55999994
   17.34611130  277.60800171    4.90999985    1.94000006
   17.34944534  152.98699951    4.90999985    1.94000006
   17.35277748   -1.00000000    4.90999985    1.51999998
   17.35583305   95.05809784    4.90999985    1.39999998
   17.35916710   -1.00000000    4.90999985    1.50000000
   17.36499977   -1.00000000    4.90999985    1.73000002
   17.36916733  137.97300720    4.90999985    1.98000002
   17.37249947  286.64700317    4.90999985    1.55999994
   17.37555504  204.71699524    4.90999985    2.03999996
   17.37833405  263.81500244    4.90999985    2.53999996
   17.37916756   -1.00000000    4.90999985    2.34999990
   17.38249969  275.01800537    4.90999985    1.23000002
   17.38583374  321.95199585    4.90999985    1.88000000
   17.38888931   -1.00000000    4.90999985    1.98000002
   17.39222145  310.20098877    4.90999985    1.69000006
   17.39527702  336.11898804    4.90999985    2.13000011
   17.39861107  374.40499878    4.90999985    2.07999992
   17.40194321  226.24200439    4.90999985    2.17000008
   17.40777779  226.24200439    4.90999985    2.28999996
   17.41194344  225.60000610    4.90999985    2.51999998
   17.41527748  194.72300720    4.90999985    2.42000008
   17.41833305  219.81900024    4.90999985    2.44000006
   17.42166519  215.25300598    4.90999985    2.46000004
   17.42499924  260.95498657    4.90999985    2.30999994
   17.42833328  193.71099854    4.90999985    2.15000010
   17.43138885  244.29400635    4.90999985    2.26999998
   17.43472099  251.40100098    4.90999985    2.40000010
   17.43777657  202.74699402    4.90999985    2.30999994
   17.44111061  208.86099243    4.90999985    2.25000000
   17.44444275  254.70599365    4.90999985    2.53999996
   17.44499969  232.77499390    4.90999985    2.34999990
   17.45083427  232.77499390    4.90999985    2.53999996
   17.45472336  194.34399414    4.90999985    2.46000004
   17.45805550  222.30200195    4.90999985    2.51999998
   17.46138954  171.94700623    4.90999985    2.42000008
   17.46444511  212.56100464    4.90999985    2.46000004
   17.46777916  213.85299683    4.90999985    2.32999992
   17.47111130  265.97299194    4.90999985    2.39000010
   17.47416687  263.82000732    4.90999985    2.30999994
   17.47750092  221.09899902    4.90999985    2.13000011
   17.47833443  219.63600159    4.90999985    2.13000011
   17.48083305  195.12300110    4.90999985    2.46000004
   17.48416710  201.98699951    4.90999985    2.50000000
   17.48750114  195.16900635    4.90999985    2.39000010
   17.49361229  195.16900635    4.90999985    2.36999989
   17.49777794  193.78300476    4.90999985    2.48000002
   17.50083351  192.82200623    4.90999985    2.48000002
   17.50416756  186.12100220    4.90999985    2.44000006
   17.50749969  172.44700623    4.90999985    2.46000004
   17.51083374  195.47599792    4.90999985    2.48000002
   17.51166725  196.83099365    4.90999985    2.50000000
   17.51416588  192.04699707    4.90999985    2.48000002
   17.51749992  184.33000183    4.90999985    2.46000004
   17.52083397  198.47799683    4.90999985    2.48000002
   17.52388954  182.34399414    4.90999985    2.48000002
   17.52722168  196.33299255    4.90999985    2.48000002
   17.53055573  200.15499878    4.90999985    2.44000006
   17.53638840  200.15499878    4.90999985    2.48000002
   17.54055595  202.47200012    4.90999985    2.51999998
   17.54388809  181.16799927    4.90999985    2.53999996
   17.54500008  165.53199768    4.90999985    2.55999994
   17.54722214  163.82899475    4.90999985    2.55999994
   17.55055428  176.33099365    4.90999985    2.55999994
   17.55388832  187.67500305    4.90999985    2.55999994
   17.55694389  201.79299927    4.90999985    2.57999992
   17.56027794  186.58299255    4.90999985    2.55999994
   17.56361008  189.48699951    4.90999985    2.57999992
   17.56666756  186.81599426    4.36999989    2.59999990
   17.57000160  178.32099915    4.53000021    2.59999990
   17.57305717  192.99299622    4.90999985    2.57999992
   17.57916832  192.99299622    4.90999985    2.57999992
   17.58333397  160.68600464    4.90999985    2.57999992
   17.58666801  168.49800110    4.90999985    2.48000002
   17.59000015  181.64500427    4.90999985    2.59999990
   17.59305573  192.52900696    4.90999985    2.59999990
   17.59638977  189.45100403    4.90999985    2.55999994
   17.59944534  181.14599609    4.90999985    2.53999996
   17.60277748  187.18400574    4.90999985    2.64000010
   17.60611153  131.24400330    4.90999985    2.30999994
   17.60916710  169.48300171    4.90999985    2.66000009
   17.61166763  170.99000549    4.90999985    2.61999989
   17.61277771  161.24299622    4.90999985    2.61999989
   17.61611176  188.38900757    2.78999996    2.59999990
   17.62222290  188.38900757    2.76999998    2.59999990
   17.62638855  190.20500183    3.14000010    2.61999989
   17.62944412  187.91900635    3.76999998    2.61999989
   17.63277817  201.00599670    2.80999994    2.59999990
   17.63583374  179.59300232    3.93000007    2.59999990
   17.65333366  189.21499634    4.90999985    2.57999992
   17.65583229  167.46200562    4.90999985    2.55999994
   17.65916634  170.13999939    4.90999985    2.59999990
   17.66499901  170.13999939    4.73999977    2.61999989
   17.66916656  178.87800598    3.82999992    2.59999990
   17.67222214  175.40699768    3.97000003    2.59999990
   17.67555428  174.25700378    4.90999985    2.59999990
   17.67888832  160.53199768    4.90999985    2.51999998
   17.68194389  178.94000244    4.90999985    2.57999992
   17.68527603  180.47399902    4.90999985    2.61999989
   17.68666649  182.30900574    4.90999985    2.61999989
   17.68888855  161.34500122    4.65999985    2.59999990
   17.69194412  173.13000488    4.59999990    2.59999990
   17.69527626  163.79200745    4.38999987    2.57999992
   17.69861031  176.58599854    4.34999990    2.55999994
   17.70166779  182.89700317    4.01999998    2.59999990
   17.70777893  182.89700317    2.82999992    2.59999990
   17.71194458  191.37600708    2.78999996    2.59999990
   17.71527863  174.96000671    2.67000008    2.59999990
   17.71833420  162.25999451    2.55999994    2.59999990
   17.72027779  186.36999512    2.59999990    2.59999990
   17.72194481  181.40499878    2.66000009    2.59999990
   17.72527885  183.80400085    2.91000009    2.59999990
   17.72861099  169.88800049    3.16000009    2.59999990
   17.73166656  189.23599243    3.59999990    2.57999992
   17.73500061  165.13099670    3.55999994    2.59999990
   17.73833275  177.22399902    3.36999989    2.59999990
   17.74138832  182.95300293    3.16000009    2.59999990
   17.74472237  174.95899963    3.25000000    2.59999990
   17.75055504  174.95899963    2.75000000    2.59999990
   17.75472260  181.99299622    2.91000009    2.59999990
   17.75805473  181.17300415    2.55999994    2.59999990
   17.76138878  170.29100037    2.32999992    2.59999990
   17.76444435  177.03300476    2.30999994    2.59999990
   17.76777840  184.08200073    2.32999992    2.59999990
   17.77083397  166.45799255    2.42000008    2.59999990
   17.77416611  174.33099365    2.55999994    2.59999990
   17.77750015  183.50199890    2.80999994    2.57999992
   17.78055573  173.47500610    3.16000009    2.57999992
   17.78388786  181.10099792    3.51999998    2.59999990
   17.78694344  176.82899475    3.41000009    2.57999992
   17.78750038  173.63200378    3.32999992    2.57999992
   17.79361153  173.63200378    3.34999990    2.57999992
   17.79749870  167.81399536    3.48000002    2.57999992
   17.80083275  162.06500244    3.51999998    2.57999992
   17.80416679  173.40199280    3.36999989    2.57999992
   17.80722237  180.06900024    3.41000009    2.57999992
   17.81055450  176.81599426    3.30999994    2.57999992
   17.81388855  186.13499451    3.43000007    2.57999992
   17.81694603  174.77499390    3.39000010    2.57999992
   17.82027817  175.55999756    3.73000002    2.57999992
   17.82055664  189.28399658    3.93000007    2.55999994
   17.82389069  181.37699890    4.32999992    2.55999994
   17.82722282  178.86500549    4.53000021    2.53999996
   17.83027840  173.22500610    4.55999994    2.55999994
   17.83638954  173.22500610    4.23999977    2.57999992
   17.84055710  186.53999329    4.19999981    2.55999994
   17.84361267  187.25700378    4.05999994    2.55999994
   17.84694481  175.20799255    3.72000003    2.55999994
   17.85055542  174.65699768    3.01999998    2.57999992
   17.85361099  172.90699768    2.86999989    2.57999992
   17.85388947  187.75500488    2.82999992    2.57999992
   17.85722351  164.58900452    2.80999994    2.57999992
   17.86055565  181.90899658    2.78999996    2.57999992
   17.86388969  175.37600708    2.91000009    2.57999992
   17.86722183  173.68400574    2.76999998    2.57999992
   17.87055588  174.17300415    2.73000002    2.59999990
   17.87361145  183.97300720    2.69000006    2.59999990
   17.87916756  183.97300720    2.67000008    2.59999990
   17.88333321  170.64900208    2.75000000    2.57999992
   17.88666725  179.23399353    2.67000008    2.57999992
   17.88694382  181.96400452    2.67000008    2.57999992
   17.89027786  174.03100586    2.73000002    2.57999992
   17.89361191  177.77600098    2.75000000    2.57999992
   17.89666748  173.37500000    2.76999998    2.57999992
   17.89999962  180.37300110    2.76999998    2.57999992
   17.90333366  178.88600159    2.76999998    2.57999992
   17.90638924  176.33399963    2.80999994    2.57999992
   17.90972137  181.26600647    2.89000010    2.59999990
   17.91305542  178.54499817    2.89000010    2.59999990
   17.91611099  175.59599304    2.96000004    2.57999992
   17.92194366  175.59599304    3.07999992    2.57999992
   17.92611122  177.45899963    3.11999989    2.57999992
   17.92944336  183.16900635    3.11999989    2.57999992
   17.93249893  179.83399963    3.18000007    2.57999992
   17.93583298  175.01400757    3.26999998    2.57999992
   17.93916512  181.00199890    3.46000004    2.55999994
   17.94222069  171.11700439    3.78999996    2.55999994
   17.94555473  176.97700500    4.11999989    2.55999994
   17.94888878  160.99200439    4.19999981    2.55999994
   17.95194435  167.50000000    3.76999998    2.55999994
   17.95388985  151.58399963    3.66000009    2.55999994
   17.95555687  177.94299316    3.51999998    2.55999994
   17.95888901  174.64199829    3.45000005    2.55999994
   17.96500015  174.64199829    3.46000004    2.57999992
   17.96916771  178.20500183    3.45000005    2.57999992
   17.97222328  163.79899597    3.39000010    2.57999992
   17.97555542  172.64100647    3.48000002    2.57999992
   17.97861099  166.33900452    3.46000004    2.57999992
   17.98194504  158.60200500    3.43000007    2.55999994
   17.98527718  167.73300171    3.43000007    2.57999992
   17.98722267  155.54899597    3.41000009    2.57999992
   17.98888969  155.18499756    3.43000007    2.55999994
   17.99222183  159.10800171    3.48000002    2.57999992
   17.99527740  169.80900574    3.61999989    2.55999994
   17.99861145  146.58900452    4.01999998    2.55999994
   18.00194359  160.18899536    4.48999977    2.55999994
   18.00777817  160.18899536    4.53000021    2.55999994
   18.01194382  155.58099365    4.15999985    2.55999994
   18.01499939  155.45199585    4.00000000    2.55999994
   18.01833344  156.14300537    3.82999992    2.55999994
   18.02055550  168.17199707    3.68000007    2.55999994
   18.02194405  162.52699280    3.64000010    2.55999994
   18.02527809  164.52499390    3.64000010    2.55999994
   18.02833366  162.57499695    3.66000009    2.55999994
   18.03166580  158.61500549    3.66000009    2.55999994
   18.03499985  162.24699402    3.72000003    2.55999994
   18.03805542  168.14199829    3.84999990    2.55999994
   18.04138756  171.77200317    4.03999996    2.55999994
   18.04472160  167.85800171    4.01999998    2.55999994
   18.05055428  167.85800171    3.97000003    2.55999994
   18.05472183  167.21299744    3.95000005    2.55999994
   18.05805397  174.86000061    3.99000001    2.55999994
   18.06110954  173.97599792    3.99000001    2.57999992
   18.06444359  165.98199463    3.73000002    2.55999994
   18.06750107  155.84899902    3.66000009    2.55999994
   18.07083511  162.29800415    3.80999994    2.55999994
   18.07416725  173.85400391    4.17999983    2.57999992
   18.07722282  163.84399414    4.55999994    2.55999994
   18.08055687  160.46200562    4.80999994    2.55999994
   18.08388901  168.58000183    4.53999996    2.55999994
   18.08694458  157.32400513    3.99000001    2.55999994
   18.08750153  165.92599487    3.86999989    2.57999992
   18.09333420  165.92599487    3.93000007    2.55999994
   18.09749985  169.51300049    4.32999992    2.55999994
   18.10083389  161.95399475    4.28999996    2.55999994
   18.10388947  163.97500610    3.95000005    2.55999994
   18.10722351  161.94400024    3.68000007    2.57999992
   18.11055565  168.77200317    3.75000000    2.55999994
   18.11361122  175.92900085    4.03999996    2.55999994
   18.11694527  175.46699524    4.34999990    2.55999994
   18.12027740  162.04299927    4.61999989    2.53999996
   18.12083435  160.49899292    4.82999992    2.53999996
   18.12388992  101.68099976    4.90999985    2.55999994
   18.12694550  157.84800720    4.90999985    2.46000004
   18.13027763  162.08399963    4.90999985    2.55999994
   18.13638878  162.08399963    4.88999987    2.51999998
   18.14027786  159.70899963    4.90999985    2.55999994
   18.14361191  155.98599243    4.63999987    2.55999994
   18.14694405  155.69400024    4.34999990    2.55999994
   18.14999962  153.15400696    4.40999985    2.55999994
   18.15333366  160.60299683    4.55999994    2.55999994
   18.15416718  164.77200317    4.57999992    2.55999994
   18.15694427  165.19999695    4.63999987    2.55999994
   18.15999985  163.95599365    4.82999992    2.55999994
   18.16333389  153.28700256    4.69999981    2.55999994
   18.16666603  151.84899902    4.53999996    2.55999994
   18.16972160  157.07200623    4.21999979    2.55999994
   18.17305565  163.86799622    4.07999992    2.57999992
   18.17916679  163.86799622    3.99000001    2.55999994
   18.18333244  161.47999573    4.07999992    2.55999994
   18.18638802  163.71600342    4.53999996    2.51999998
   18.18750000  159.60200500    4.88999987    2.55999994
   18.19027710  269.14001465    4.90999985    2.53999996
   18.19333267  165.44999695    4.90999985    1.41999996
   18.19666672  158.83599854    4.90999985    2.61999989
   18.20000076  161.12199402    4.90999985    2.59999990
   18.20305634  163.77099609    4.82999992    2.55999994
   18.20639038  162.70300293    4.63999987    2.55999994
   18.20972252  153.24899292    4.90999985    2.55999994
   18.21277809  148.23500061    4.90999985    2.55999994
   18.21611214  155.66600037    4.90999985    2.53999996
   18.22194481  155.66600037    4.90999985    2.53999996
   18.22611237  148.68899536    4.90999985    2.53999996
   18.22944450  164.95199585    4.90999985    2.51999998
   18.23250008  166.06700134    4.90999985    2.51999998
   18.23583412  157.10499573    4.90999985    2.53999996
   18.23888969  161.27000427    4.90999985    2.53999996
   18.24222183  155.33700562    4.90999985    2.53999996
   18.24555588  157.99400330    4.90999985    2.53999996
   18.24861145  152.56199646    4.90999985    2.53999996
   18.25194359  149.74699402    4.90999985    2.53999996
   18.25416756  154.01300049    4.90999985    2.53999996
   18.25555611  154.33500671    4.90999985    2.53999996
   18.25861168  159.78300476    4.90999985    2.53999996
   18.26472282  159.78300476    4.53999996    2.55999994
   18.26888847  155.03900146    4.44999981    2.55999994
   18.27222252  151.80000305    4.11999989    2.55999994
   18.27527809  151.56900024    3.91000009    2.55999994
   18.27861023  144.76600647    4.01999998    2.55999994
   18.28194427  146.67900085    3.86999989    2.55999994
   18.28499985  154.36799622    3.70000005    2.51999998
   18.28750038  158.71499634    4.00000000    2.50000000
   18.28888893  154.26400757    4.26999998    2.50000000
   18.29222107  149.30099487    4.90999985    2.57999992
   18.29527664  108.05699921    4.90999985    2.15000010
   18.29861069  102.16200256    4.90999985    1.48000002
   18.30166626  123.39399719    4.90999985    2.59999990
   18.30777740  123.39399719    4.90999985    2.51999998
   18.31166649  150.23899841    4.05999994    2.59999990
   18.31499863  148.96299744    3.43000007    2.57999992
   18.31833458  163.63299561    3.99000001    2.55999994
   18.32083511  156.39300537    3.95000005    2.55999994
   18.32194519  155.41299438    3.73000002    2.55999994
   18.32527924  161.16099548    3.93000007    2.55999994
   18.32833481  152.13999939    4.82999992    2.55999994
   18.33166695  160.41600037    4.88999987    2.53999996
   18.33472252  150.32299805    4.90999985    2.53999996
   18.33805656  162.30900574    4.53999996    2.53999996
   18.34138870  156.07600403    3.82999992    2.55999994
   18.34444427  158.40600586    3.64000010    2.55999994
   18.35055542  158.40600586    4.15999985    2.55999994
   18.35472298  164.66900635    3.48000002    2.55999994
   18.35777855  158.24099731    3.59999990    2.55999994
   18.36111069  160.42900085    3.57999992    2.55999994
   18.36444473  146.87100220    4.26999998    2.55999994
   18.36750031  169.78100586    4.01999998    2.55999994
   18.37083435  170.05700684    4.38999987    2.55999994
   18.37416649  148.01600647    4.30999994    2.55999994
   18.37722206  146.78199768    4.21999979    2.55999994
   18.38055611  161.05400085    3.91000009    2.55999994
   18.38361168  156.27900696    3.91000009    2.55999994
   18.38694382  168.50999451    3.21000004    2.55999994
   18.38750076  161.50599670    2.96000004    2.55999994
   18.39333344  161.50599670    4.53999996    2.55999994
   18.39749908  157.11300659    4.51000023    2.55999994
   18.40083313  146.81100464    4.17999983    2.55999994
   18.40388870  148.87800598    4.48999977    2.55999994
   18.40722275  161.69799805    4.67999983    2.53999996
   18.41027832  156.99000549    4.90999985    2.55999994
   18.41361046  161.11099243    4.71999979    2.55999994
   18.41694450  155.23500061    4.30999994    2.55999994
   18.42000008  153.75199890    4.51000023    2.55999994
   18.42083359  157.09800720    4.44999981    2.55999994
   18.42361069  144.27299500    4.36999989    2.55999994
   18.42694473  169.02900696    4.28999996    2.55999994
   18.43000031  152.77900696    4.34999990    2.55999994
   18.43610954  152.77900696    4.67999983    2.55999994
   18.44027710  155.49499512    4.26000023    2.53999996
   18.44361115  154.55900574    4.78000021    2.53999996
   18.44666672  153.53300476    4.59999990    2.51999998
   18.45000076  153.87100220    4.63999987    2.55999994
   18.45333481  150.03700256    4.69999981    2.53999996
   18.45416832  159.16999817    4.57999992    2.55999994
   18.45694542  163.23199463    4.05999994    2.55999994
   18.46027946  160.14399719    3.78999996    2.55999994
   18.46333504  150.88200378    3.64000010    2.55999994
   18.46666718  157.71600342    3.73000002    2.53999996
   18.46972275  157.06700134    3.68000007    2.55999994
   18.47305679  157.33500671    4.63999987    2.53999996
   18.47888947  157.33500671    4.90999985    2.53999996
   18.48305511  164.45500183    4.90999985    2.53999996
   18.48638916  153.33999634    4.90999985    2.53999996
   18.48750114  158.35499573    4.90999985    2.53999996
   18.48999977  160.92999268    4.90999985    2.53999996
   18.49333382  166.38299561    4.90999985    2.51999998
   18.49638939  138.27900696    4.90999985    2.51999998
   18.49972153  155.36000061    4.90999985    2.53999996
   18.50277710  160.34700012    4.84999990    2.53999996
   18.50611115  162.61300659    4.90999985    2.53999996
   18.50944519  160.46600342    4.90999985    2.53999996
   18.51250076  158.67100525    4.03999996    2.55999994
   18.51583290  150.58700562    4.51000023    2.53999996
   18.52194405  150.58700562    4.30999994    2.55999994
   18.52611160  153.98399353    4.05999994    2.55999994
   18.52916718  143.31399536    4.03999996    2.57999992
   18.53249931  155.60099792    4.07999992    2.53999996
   18.53555489  159.43099976    4.09999990    2.55999994
   18.53888893  154.45500183    4.11999989    2.55999994
   18.54222107  154.84700012    4.17999983    2.55999994
   18.54527664  158.36199951    4.19999981    2.55999994
   18.54861069  154.22099304    4.36999989    2.57999992
   18.55194283  143.28799438    4.28999996    2.57999992
   18.55416679  160.26899719    4.19999981    2.55999994
   18.55555534  155.27900696    4.23999977    2.57999992
   18.55888748  154.28399658    4.90999985    2.57999992
   18.56472206  154.28399658    4.90999985    2.57999992
   18.56888962  169.54499817    4.90999985    2.57999992
   18.57194519  150.69500732    4.90999985    2.57999992
   18.57527924  155.13099670    4.90999985    2.57999992
   18.57861137  144.50000000    4.90999985    2.57999992
   18.58166695  159.68600464    4.90999985    2.59999990
   18.58500099  161.71299744    4.90999985    2.59999990
   18.58750153  152.59199524    4.90999985    2.59999990
   18.58861160  155.32800293    4.90999985    2.59999990
   18.59194565  154.52099609    4.90999985    2.57999992
   18.59500122  160.00700378    4.90999985    2.61999989
   18.59833336  148.87399292    4.90999985    2.59999990
   18.60166740  143.68899536    4.90999985    2.61999989
   18.60750008  143.68899536    4.90999985    2.59999990
   18.61166763  154.28799438    4.90999985    2.59999990
   18.61499977  164.19200134    4.90999985    2.57999992
   18.61805534  163.26699829    4.90999985    2.57999992
   18.62083435  168.16000366    4.90999985    2.55999994
   18.62166595  148.12600708    4.90999985    2.55999994
   18.62500000  149.97799683    4.90999985    2.57999992
   18.62805557  157.99499512    4.90999985    2.55999994
   18.63138962  163.58299255    4.90999985    2.46000004
   18.63444519  173.46499634    4.90999985    2.50000000
   18.63777733  170.74600220    4.90999985    2.46000004
   18.64111137  167.86399841    4.90999985    2.42000008
   18.64416695  150.64700317    4.90999985    2.46000004
   18.65055466  150.64700317    4.90999985    2.40000010
   18.67055511  173.89500427    4.90999985    2.30999994
   18.67388916  186.35200500    4.90999985    2.46000004
   18.67694473  186.20199585    4.90999985    2.28999996
   18.68027687  183.40699768    4.90999985    2.32999992
   18.68333244  205.94999695    4.90999985    2.34999990
   18.68666649  315.81698608    4.90999985    2.05999994
   18.69333267  315.81698608    4.90999985    1.85000002
   18.69749832  328.98999023    4.90999985    1.89999998
   18.70055580  323.76599121    4.90999985    1.80999994
   18.70361137  300.14498901    4.90999985    1.96000004
   18.70444489  293.11199951    4.90999985    2.00000000
   18.70750046  293.18798828    4.90999985    1.96000004
   18.71083450  362.91900635    4.90999985    1.91999996
   18.71416664  289.40200806    4.90999985    1.78999996
   18.71722221  322.07299805    4.90999985    1.98000002
   18.72055626  377.04000854    4.90999985    1.91999996
   18.72389030  250.14700317    4.90999985    1.83000004
   18.72694588  142.05799866    4.90999985    1.63000000
   18.73027802  151.06100464    4.90999985    1.69000006
   18.73611069  151.06100464    4.90999985    1.61000001
   18.74027824  109.12699890    4.90999985    1.66999996
   18.74361229   96.13009644    4.90999985    1.60000002
   18.74666786  110.83100128    4.90999985    1.39999998
   18.75000000   84.86869812    4.90999985    1.39999998
   18.75305557  105.87999725    4.90999985    1.44000006
   18.75638962   89.08159637    4.90999985    1.38000000
   18.75972176  110.43800354    4.90999985    1.39999998
   18.76277733  104.33200073    4.90999985    1.58000004
   18.76611137  127.47599792    4.90999985    1.64999998
   18.76944351   95.09999847    4.90999985    1.69000006
   18.77305603   -1.00000000    4.90999985    1.30999994
   18.77888870   -1.00000000    4.90999985    1.07000005
   18.78305435  100.80899811    4.90999985    1.53999996
   18.78638840   86.40769958    4.90999985    1.50000000
   18.78944397   -1.00000000    4.90999985    1.19000006
   18.79277802   -1.00000000    4.90999985    1.05999994
   18.79611015   -1.00000000    4.90999985    1.09000003
   18.79916573   -1.00000000    4.90999985    1.09000003
   18.80249977   -1.00000000    4.90999985    1.07000005
   18.80611038   -1.00000000    4.90999985    1.07000005
   18.80916595   99.76930237    4.90999985    1.30999994
   18.81250000   87.02629852    4.90999985    1.36000001
   18.81583214   95.27169800    4.90999985    1.41999996
   18.82194519   95.27169800    4.90999985    1.38000000
   18.82583427  110.97699738    4.90999985    1.66999996
   18.82916832   -1.00000000    4.90999985    1.55999994
   18.83250046   -1.00000000    4.90999985    0.75000000
   18.83555603   -1.00000000    4.90999985    0.40000001
   18.83916664   -1.00000000    4.90999985    0.25000000
   18.84250069   -1.00000000    4.90999985    0.25000000
   18.84555626   -1.00000000    4.90999985    0.30000001
   18.84889030   -1.00000000    4.90999985    0.28000000
   18.85222244   -1.00000000    4.90999985    0.25000000
   18.85527802   -1.00000000    4.90999985    0.25999999
   18.85861206   -1.00000000    4.90999985    0.44000000
   18.86472321   -1.00000000    4.90999985    1.78999996
   18.86888885   -1.00000000    4.90999985    1.58000004
   18.87222290   -1.00000000    4.90999985    1.14999998
   18.87555504   26.48290062    4.90999985    1.16999996
   18.87861061   -1.00000000    4.90999985    1.58000004
   18.88194466   -1.00000000    4.90999985    0.88000000
   18.88527679   -1.00000000    4.90999985    0.63000000
   18.88833237   -1.00000000    4.90999985    0.51999998
   18.89166641   -1.00000000    4.90999985    0.50000000
   18.89500046   -1.00000000    4.90999985    0.50000000
   18.89805603   -1.00000000    4.90999985    0.40000001
   18.90138817   -1.00000000    4.90999985    0.50000000
   18.91166687   -1.00000000    4.90999985    0.55000001
   18.91472244   -1.00000000    4.90999985    0.56999999
   18.91805458   -1.00000000    4.90999985    0.61000001
   18.92138863   -1.00000000    4.90999985    0.63000000
   18.92444420   -1.00000000    4.90999985    0.55000001
   18.92777634   -1.00000000    4.90999985    0.52999997
   18.93083191   -1.00000000    4.90999985    0.50000000
   18.93416595   -1.00000000    4.90999985    0.56999999
   18.93750000   -1.00000000    4.90999985    0.46000001
   18.94111061   -1.00000000    4.90999985    0.31999999
   18.94416618   -1.00000000    4.90999985    0.25999999
   18.95444489   -1.00000000    4.90999985    0.47999999
   18.95750046   -1.00000000    4.90999985    0.51999998
   18.96083450   -1.00000000    4.90999985    0.56999999
   18.96416664   -1.00000000    4.90999985    0.55000001
   18.96722221   -1.00000000    4.90999985    0.40000001
   18.97055626   -1.00000000    4.90999985    0.25999999
   18.97416687   -1.00000000    4.90999985    0.30000001
   18.97722244   -1.00000000    4.90999985    0.15000001
   18.98055649   -1.00000000    4.90999985    0.11000000
   18.98361206   -1.00000000    4.90999985    0.11000000
   18.98694420   -1.00000000    4.90999985    0.11000000
   18.99722290   -1.00000000    4.90999985    0.09000000
   19.00055504   -1.00000000    4.90999985    0.07000000
   19.00361061   -1.00000000    4.90999985    0.09000000
   19.00722313   -1.00000000    4.90999985    0.09000000
   19.01055527   -1.00000000    4.90999985    0.11000000
   19.01388931   -1.00000000    4.90999985    0.11000000
   19.01694489   -1.00000000    4.90999985    0.17000000
   19.02027702   -1.00000000    4.90999985    0.17000000
   19.02333260   -1.00000000    4.90999985    0.20999999
   19.02666664   -1.00000000    4.90999985    0.25999999
   19.03000069   -1.00000000    4.90999985    0.50000000
   19.03999901   -1.00000000    4.90999985    0.64999998
   19.04333305   -1.00000000    4.90999985    0.64999998
   19.04666710   -1.00000000    4.90999985    0.70999998
   19.04972076   -1.00000000    4.90999985    0.83999997
   19.05305481   -1.00000000    4.90999985    0.83999997
   19.05611038   -1.00000000    4.90999985    0.79000002
   19.05944443   -1.00000000    4.90999985    0.75000000
   19.06277657   -1.00000000    4.90999985    0.86000001
   19.06583214   -1.00000000    4.90999985    1.09000003
   19.06916809   -1.00000000    4.90999985    1.05999994
   19.07250023   -1.00000000    4.90999985    1.03999996
   19.08305550   -1.00000000    4.90999985    0.83999997
   19.08611107   -1.00000000    4.90999985    0.70999998
   19.08944511   -1.00000000    4.90999985    0.63000000
   19.09250069   -1.00000000    4.90999985    0.58999997
   19.09583473   -1.00000000    4.90999985    0.63000000
   19.09916687   -1.00000000    4.90999985    0.70999998
   19.10222244   -1.00000000    4.90999985    0.79000002
   19.10583305   -1.00000000    4.90999985    0.83999997
   19.10916710   -1.00000000    4.90999985    0.47999999
   19.11250114   -1.00000000    4.90999985    0.40000001
   19.11555672   -1.00000000    4.90999985    0.50000000
   19.12583351   -1.00000000    4.90999985    0.86000001
   19.12888908   -1.00000000    4.90999985    0.89999998
   19.13222313   -1.00000000    4.90999985    1.07000005
   19.13555527   -1.00000000    4.90999985    1.21000004
   19.13888931   -1.00000000    4.90999985    1.16999996
   19.14222145   -1.00000000    4.90999985    1.13000000
   19.14555550   -1.00000000    4.90999985    1.28999996
   19.14861107   -1.00000000    4.90999985    1.41999996
   19.15194321   -1.00000000    4.90999985    1.34000003
   19.15499878   -1.00000000    4.90999985    1.25000000
   19.15833282   -1.00000000    4.90999985    1.25000000
   19.16472244   -1.00000000    4.90999985    1.39999998
   19.16860962   -1.00000000    4.90999985    1.33000004
   19.17222214   -1.00000000    4.90999985    1.25000000
   19.17555428   -1.00000000    4.90999985    1.26999998
   19.17888832   -1.00000000    4.90999985    1.05999994
   19.18194389   -1.00000000    4.90999985    1.00000000
   19.18527603   -1.00000000    4.90999985    1.05999994
   19.18833160   -1.00000000    4.90999985    1.07000005
   19.19166565   -1.00000000    4.90999985    0.67000002
   19.19499969   -1.00000000    4.90999985    0.73000002
   19.19805527   -1.00000000    4.90999985    0.55000001
   19.20138931   -1.00000000    4.90999985    0.46000001
   19.21138954   -1.00000000    4.90999985    0.28000000
   19.21472359   -1.00000000    4.90999985    0.28000000
   19.21777916   -1.00000000    4.90999985    0.31999999
   19.22111130   -1.00000000    4.90999985    0.40000001
   19.22444534   -1.00000000    4.90999985    0.40000001
   19.22750092   -1.00000000    4.90999985    0.34000000
   19.23083305   -1.00000000    4.90999985    0.25999999
   19.23416710   -1.00000000    4.90999985    0.15000001
   19.23722267   -1.00000000    4.90999985    0.11000000
   19.24083328   -1.00000000    4.90999985    0.11000000
   19.24416733   -1.00000000    4.90999985    0.11000000
   19.25444412   -1.00000000    4.90999985    0.03000000
   19.25749969   -1.00000000    4.90999985    0.01000000
   19.26083374   -1.00000000    4.90999985    0.01000000
   19.26388931   -1.00000000    4.90999985    0.01000000
   19.26722145   -1.00000000    4.90999985    0.01000000
   19.27055550   -1.00000000    4.90999985    0.01000000
   19.27388954   -1.00000000    4.90999985    0.01000000
   19.27722168   -1.00000000    4.90999985    0.01000000
   19.28055573   -1.00000000    4.90999985    0.01000000
   19.28361130   -1.00000000    4.90999985    0.01000000
   19.28694344   -1.00000000    4.90999985    0.01000000
   19.29722214   -1.00000000    4.90999985    0.01000000
   19.30027771   -1.00000000    4.90999985    0.01000000
   19.30360985   -1.00000000    4.90999985    0.01000000
   19.30722237   -1.00000000    4.90999985    0.01000000
   19.31055450   -1.00000000    4.90999985    0.01000000
   19.31361008   -1.00000000    4.90999985    0.01000000
   19.31694603   -1.00000000    4.90999985    0.01000000
   19.32027817   -1.00000000    4.90999985    0.01000000
   19.32333374   -1.00000000    4.90999985    0.01000000
   19.32666779   -1.00000000    4.90999985    0.01000000
   19.33000183   -1.00000000    4.90999985    0.01000000
   19.34000015   -1.00000000    4.90999985    0.01000000
   19.34333420   -1.00000000    4.90999985    0.01000000
   19.34638977   -1.00000000    4.90999985    0.01000000
   19.34972191   -1.00000000    4.90999985    0.01000000
   19.35277748   -1.00000000    4.90999985    0.01000000
   19.35611153   -1.00000000    4.90999985    0.01000000
   19.35944557   -1.00000000    4.90999985    0.01000000
   19.36250114   -1.00000000    4.90999985    0.01000000
   19.36583328   -1.00000000    4.90999985    0.01000000
   19.36916733   -1.00000000    4.90999985    0.01000000
   19.37249947   -1.00000000    4.90999985    0.01000000
   19.38277817   -1.00000000    4.90999985    0.01000000
   19.38611031   -1.00000000    4.90999985    0.01000000
   19.38916588   -1.00000000    4.90999985    0.01000000
   19.39249992   -1.00000000    4.90999985    0.01000000
   19.39583397   -1.00000000    4.90999985    0.01000000
   19.39888954   -1.00000000    4.90999985    0.01000000
   19.40222168   -1.00000000    4.90999985    0.01000000
   19.40583229   -1.00000000    4.90999985    0.01000000
   19.40916634   -1.00000000    4.90999985    0.01000000
   19.41222191   -1.00000000    4.90999985    0.01000000
   19.41555595   -1.00000000    4.90999985    0.01000000
   19.42555428   -1.00000000    4.90999985    0.01000000
   19.42888832   -1.00000000    4.90999985    0.01000000
   19.43222237   -1.00000000    4.90999985    0.01000000
   19.43527603   -1.00000000    4.90999985    0.01000000
   19.43861008   -1.00000000    4.90999985    0.01000000
   19.44222069   -1.00000000    4.90999985    0.01000000
   19.44555473   -1.00000000    4.90999985    0.01000000
   19.44861031   -1.00000000    4.90999985    0.01000000
   19.45194435   -1.00000000    4.90999985    0.01000000
   19.45527840   -1.00000000    4.90999985    0.01000000
   19.45833397   -1.00000000    4.90999985    0.01000000
   19.46861076   -1.00000000    4.90999985    0.01000000
   19.47166634   -1.00000000    4.90999985    0.01000000
   19.47527885   -1.00000000    4.90999985    0.01000000
   19.47861099   -1.00000000    4.90999985    0.01000000
   19.48166656   -1.00000000    4.90999985    0.01000000
   19.48500061   -1.00000000    4.90999985    0.01000000
   19.48833275   -1.00000000    4.90999985    0.01000000
   19.49138832   -1.00000000    4.90999985    0.01000000
   19.49472237   -1.00000000    4.90999985    0.01000000
   19.49805641   -1.00000000    4.90999985    0.01000000
   19.50111198   -1.00000000    4.90999985    0.01000000
   19.51138878   -1.00000000    4.90999985    0.01000000
   19.51472282   -1.00000000    4.90999985    0.01000000
   19.51777840   -1.00000000    4.90999985    0.01000000
   19.52111053   -1.00000000    4.90999985    0.01000000
   19.52416611   -1.00000000    4.90999985    0.01000000
   19.52750015   -1.00000000    4.90999985    0.01000000
   19.53083229   -1.00000000    4.90999985    0.01000000
   19.53388786   -1.00000000    4.90999985    0.01000000
   19.53722191   -1.00000000    4.90999985    0.01000000
   19.54083252   -1.00000000    4.90999985    0.01000000
   19.54416656   -1.00000000    4.90999985    0.01000000
   19.55416679   -1.00000000    4.90999985    0.01000000
   19.55749893   -1.00000000    4.90999985    0.01000000
   19.56055450   -1.00000000    4.90999985    0.01000000
   19.56388855   -1.00000000    4.90999985    0.01000000
   19.56722260   -1.00000000    4.90999985    0.01000000
   19.57027817   -1.00000000    4.90999985    0.01000000
   19.57389069   -1.00000000    4.90999985    0.03000000
   19.66944313  241.44599915    4.90999985    1.94000006
   19.67277718  240.22399902    4.90999985    2.17000008
   19.67583275  228.30900574    4.90999985    2.09999990
   19.67916679  395.60101318    4.90999985    1.94000006
   19.68249893  326.67401123    4.90999985    1.91999996
   19.68555450  107.40599823    4.90999985    1.83000004
   19.69388771   -1.00000000    4.90999985    0.98000002
   19.69694328   -1.00000000    4.90999985    0.98000002
   19.70027924   -1.00000000    4.90999985    1.14999998
   19.70361137   -1.00000000    4.90999985    1.51999998
   19.70694542   -1.00000000    4.90999985    1.48000002
   19.71000099   -1.00000000    4.90999985    1.34000003
   19.71333504   -1.00000000    4.90999985    1.13000000
   19.71666718   -1.00000000    4.90999985    1.25000000
