    HOUR (UT)   FLARE FACTOR    SKY TESTER    SUN TESTER
   11.75027752   -1.00000000   -1.00000000   -1.00000000
   11.80583382  142.35200500    4.90999985    2.23000002
   11.80916691  126.58799744    4.90999985    2.23000002
   11.81222248  184.39199829    4.90999985    2.23000002
   11.81555557  162.04200745    4.90999985    2.23000002
   11.81861115  162.84500122    4.90999985    2.23000002
   11.82194424  150.60699463    4.90999985    2.23000002
   11.82611084  150.60699463    4.90999985    2.23000002
   11.83027744  142.11999512    4.90999985    2.23000002
   11.83333302  179.56100464    4.90999985    2.25000000
   11.83666611  137.34599304    4.90999985    2.23000002
   11.83916664  161.32699585    4.90999985    2.25000000
   11.84055519  170.34199524    4.90999985    2.25000000
   11.84388828  156.15400696    4.90999985    2.25000000
   11.85611153  147.05299377    0.00000000    0.00000000
   11.85944462  152.95399475    4.90999985    2.25000000
   11.86250019  172.43499756    4.90999985    2.25000000
   11.86888885  172.43499756    4.90999985    2.25000000
   11.87333393  149.44200134    4.90999985    2.26999998
   11.87666702  159.69599915    4.90999985    2.25000000
   11.87972260  149.72900391    4.90999985    2.26999998
   11.89166641  162.17599487    0.00000000    0.00000000
   11.89499950  161.51800537    4.90999985    2.26999998
   11.89805508  152.46499634    4.90999985    2.26999998
   11.90138817  142.53999329    4.90999985    2.26999998
   11.90472221  122.37999725    4.90999985    2.26999998
   11.90722179  144.37399292    4.90999985    2.26999998
   11.90833282  132.70100403    4.90999985    2.26999998
   11.91166592  149.69999695    4.90999985    2.28999996
   11.91499996  152.20199585    4.90999985    2.26999998
   11.92027855  152.20199585    4.90999985    2.26999998
   11.92416668  146.68499756    4.90999985    2.28999996
   11.92750072  149.72700500    4.90999985    2.28999996
   11.93694496  139.13499451    0.00000000    0.00000000
   11.94027805  155.48899841    4.90999985    2.28999996
   11.94083309  147.15600586    4.90999985    2.28999996
   11.94361115  148.68800354    4.90999985    2.28999996
   11.94694424  130.11300659    4.90999985    2.30999994
   11.95027733  138.12800598    4.90999985    2.28999996
   11.95333290  126.84100342    4.90999985    2.30999994
   11.95666695  125.15299988    4.90999985    2.30999994
   11.95972157  144.17500305    4.90999985    2.30999994
   11.96444416  144.17500305    4.90999985    2.30999994
   11.96861076  129.96899414    4.90999985    2.30999994
   11.97194386  138.20399475    4.90999985    2.30999994
   11.97416592  140.50799561    4.90999985    2.30999994
   11.97555542  131.33599854    4.90999985    2.30999994
   11.97888851  131.74000549    4.90999985    2.32999992
   11.98222160  121.89399719    4.90999985    2.32999992
   11.98527813  129.95399475    4.90999985    2.32999992
   11.98861122  123.07399750    4.90999985    2.30999994
   11.99194431  121.91100311    4.90999985    2.32999992
   11.99499989  124.60800171    4.90999985    2.30999994
   11.99833393  121.59200287    4.90999985    2.32999992
   12.00166702  121.35500336    4.90999985    2.32999992
   12.00749969  121.35500336    4.90999985    2.32999992
   12.01166630  107.56500244    4.90999985    2.32999992
   12.01472187  115.98400116    4.90999985    2.32999992
   12.01805496  127.31300354    4.90999985    2.34999990
   12.02111053  128.49899292    4.90999985    2.34999990
   12.02444458  117.83300018    4.90999985    2.34999990
   12.02777767  121.44400024    4.90999985    2.34999990
   12.03111076  124.92800140    4.90999985    2.34999990
   12.03416729  110.97899628    4.90999985    2.34999990
   12.03750038  118.51399994    4.90999985    2.36999989
   12.04083347  134.33700562    4.90999985    2.34999990
   12.04111195  134.50599670    4.90999985    2.34999990
   12.04444504  116.02799988    4.90999985    2.34999990
   12.05027771  116.02799988    4.90999985    2.34999990
   12.05500031  124.03800201    4.90999985    2.36999989
   12.05805588  127.68900299    4.90999985    2.36999989
   12.06138897  111.38400269    4.90999985    2.36999989
   12.06472206  121.60299683    4.90999985    2.34999990
   12.06777763  128.22799683    4.90999985    2.34999990
   12.07111073  115.49199677    4.90999985    2.34999990
   12.07416630  112.01599884    4.90999985    2.34999990
   12.07499981  114.25199890    4.90999985    2.34999990
   12.07833290  107.28199768    4.90999985    2.34999990
   12.08166695  110.25700378    4.90999985    2.36999989
   12.08472157  117.93699646    4.90999985    2.36999989
   12.09722233  107.78500366    0.00000000    0.00000000
   12.10138893  107.78500366    4.90999985    2.36999989
   12.10555553  128.40699768    4.90999985    2.36999989
   12.10888958  117.39099884    4.90999985    2.39000010
   12.11194515  115.09799957    4.90999985    2.39000010
   12.11277771  130.43400574    4.90999985    2.36999989
   12.11555576  132.04899597    4.90999985    2.36999989
   12.11888885  126.66100311    4.90999985    2.39000010
   12.12194443  118.07499695    4.90999985    2.39000010
   12.12527752  116.05100250    4.90999985    2.39000010
   12.12861156  119.85099792    4.90999985    2.39000010
   12.13166714  116.38500214    4.90999985    2.39000010
   12.13500023  119.80599976    4.90999985    2.39000010
   12.13805580  128.89599609    4.90999985    2.39000010
   12.14416695  128.89599609    4.90999985    2.39000010
   12.14833355  112.22299957    4.90999985    2.39000010
   12.15166664  109.67400360    4.90999985    2.40000010
   12.15472221  113.44300079    4.90999985    2.40000010
   12.15805531  117.88300323    4.90999985    2.39000010
   12.16138840  123.89199829    4.90999985    2.40000010
   12.16444397  131.29499817    4.90999985    2.39000010
   12.16777802  107.90299988    4.90999985    2.40000010
   12.17944431  119.87100220    0.00000000    0.00000000
   12.18000031  116.96800232    4.90999985    2.40000010
   12.18305588  127.99900055    4.90999985    2.40000010
   12.18888855  127.99900055    4.90999985    2.40000010
   12.20166683  128.12800598    0.00000000    0.00000000
   12.20499992  116.20400238    4.90999985    2.40000010
   12.20805550  116.39600372    4.90999985    2.42000008
   12.21138859  123.46499634    4.90999985    2.40000010
   12.21472168  124.42199707    4.90999985    2.40000010
   12.21749973  129.91999817    4.90999985    2.40000010
   12.21861076  121.88800049    4.90999985    2.40000010
   12.22166634  119.00599670    4.90999985    2.40000010
   12.22499943  113.94400024    4.90999985    2.40000010
   12.23583317  113.94400024    4.90999985    2.42000008
   12.24000072  120.24199677    4.90999985    2.42000008
   12.26055527  116.23500061    0.00000000    0.00000000
   12.26972198  128.36399841    4.90999985    2.42000008
   12.27250004  119.58699799    4.90999985    2.44000006
   12.27583313  125.49500275    4.90999985    2.42000008
   12.27888870  130.27799988    4.90999985    2.42000008
   12.28222179  126.50399780    4.90999985    2.42000008
   12.28805637  126.50399780    4.90999985    2.44000006
   12.29222298  127.67800140    4.90999985    2.42000008
   12.29444504  135.29600525    4.90999985    2.42000008
   12.29611111  138.92799377    4.90999985    2.44000006
   12.29916668  130.37500000    4.90999985    2.44000006
   12.30249977  122.48600006    4.90999985    2.42000008
   12.30555534  115.15299988    4.90999985    2.44000006
   12.30888939  131.02600098    4.90999985    2.44000006
   12.31222248  125.67400360    4.90999985    2.44000006
   12.31555557  126.23699951    4.90999985    2.44000006
   12.31861115  122.04100037    4.90999985    2.46000004
   12.32194424  123.24400330    4.90999985    2.42000008
   12.32499981  134.47500610    4.90999985    2.46000004
   12.33138847  134.47500610    4.90999985    2.46000004
   12.33555508  110.05799866    4.90999985    2.46000004
   12.33861065  125.51599884    4.90999985    2.44000006
   12.34194374  121.11499786    4.90999985    2.46000004
   12.34527779  132.23800659    4.90999985    2.44000006
   12.34833336  136.64599609    4.90999985    2.46000004
   12.35166740  124.14099884    4.90999985    2.46000004
   12.35472298  121.61499786    4.90999985    2.46000004
   12.35805607  120.56999969    4.90999985    2.46000004
   12.36777782  127.25299835    0.00000000    0.00000000
   12.36833382  124.34100342    4.90999985    2.46000004
   12.37111092  125.88899994    4.90999985    2.46000004
   12.37722206  125.88899994    4.90999985    2.48000002
   12.39055538  124.13099670    0.00000000    0.00000000
   12.39388847  133.24200439    4.90999985    2.48000002
   12.39694405  127.27999878    4.90999985    2.46000004
   12.40027714  131.64799500    4.90999985    2.48000002
   12.40361118  129.44299316    4.90999985    2.48000002
   12.40638828  115.18199921    4.90999985    2.48000002
   12.40722179  116.64299774    4.90999985    2.48000002
   12.41055489  110.99400330    4.90999985    2.48000002
   12.41388893  129.36099243    4.90999985    2.48000002
   12.42833328  129.36099243    4.90999985    2.48000002
   12.43249989  118.65299988    4.90999985    2.48000002
   12.43583298  116.26599884    4.90999985    2.48000002
   12.43916702  122.30899811    4.90999985    2.48000002
   12.44222260  134.58399963    4.90999985    2.48000002
   12.44416714  118.53800201    4.90999985    2.50000000
   12.44583321  121.01599884    4.90999985    2.48000002
   12.44916630  111.71700287    4.90999985    2.48000002
   12.45249939  107.10199738    4.90999985    2.48000002
   12.45555496  115.63700104    4.90999985    2.50000000
   12.45888901  121.27899933    4.90999985    2.50000000
   12.46333313  121.27899933    4.90999985    2.48000002
   12.46749973  113.25800323    4.90999985    2.50000000
   12.47083282  112.11199951    4.90999985    2.50000000
   12.47388840  114.56300354    4.90999985    2.48000002
   12.47722149  119.45099640    4.90999985    2.48000002
   12.47777748  119.35500336    4.90999985    2.50000000
   12.48111057  119.07199860    4.90999985    2.50000000
   12.48416710  120.63400269    4.90999985    2.50000000
   12.48750019  113.60399628    4.90999985    2.50000000
   12.49055576  122.82399750    4.90999985    2.50000000
   12.49388885  120.61299896    4.90999985    2.50000000
   12.49833393  114.36699677    4.90999985    2.50000000
   12.50166702  118.35500336    4.90999985    2.51999998
   12.50583363  118.35500336    4.90999985    2.50000000
   12.51249981  121.19899750    4.90999985    2.50000000
   12.51305580  121.16600037    4.90999985    2.50000000
   12.51583290  129.25999451    4.90999985    2.50000000
   12.52833271  128.54100037    0.00000000    0.00000000
   12.53166676  118.63099670    4.90999985    2.50000000
   12.53472233  114.44300079    4.90999985    2.50000000
   12.53805637  120.77400208    4.90999985    2.51999998
   12.54138947  116.92700195    4.90999985    2.50000000
   12.54444504  114.43099976    4.90999985    2.51999998
   12.54638958  117.69000244    4.90999985    2.51999998
   12.54805565  121.63999939    4.90999985    2.51999998
   12.55138874  114.29299927    4.90999985    2.50000000
   12.55583382  114.29299927    4.90999985    2.50000000
   12.56000042  114.48500061    4.90999985    2.51999998
   12.56333351  116.26399994    4.90999985    2.51999998
   12.56666660  120.61900330    4.90999985    2.51999998
   12.56972218  116.66100311    4.90999985    2.51999998
   12.57305527  121.86000061    4.90999985    2.51999998
   12.57611084  117.98200226    4.90999985    2.51999998
   12.57944393  109.63999939    4.90999985    2.51999998
   12.57999992  124.19400024    4.90999985    2.51999998
   12.58333302  113.14499664    4.90999985    2.53999996
   12.58638859  122.15000153    4.90999985    2.51999998
   12.58972168  110.17500305    4.90999985    2.51999998
   12.59305477  111.04799652    4.90999985    2.53999996
   12.59888840  111.04799652    4.90999985    2.51999998
   12.60305595  113.49299622    4.90999985    2.53999996
   12.60611153  111.07599640    4.90999985    2.51999998
   12.60944462  119.68099976    4.90999985    2.53999996
   12.61250019  118.62799835    4.90999985    2.53999996
   12.61333370  116.89099884    4.90999985    2.53999996
   12.61638927  133.34899902    4.90999985    2.53999996
   12.61944485  122.62000275    4.90999985    2.53999996
   12.62277794  115.58899689    4.90999985    2.53999996
   12.62611103  112.19200134    4.90999985    2.53999996
   12.62916660  133.48699951    4.90999985    2.51999998
   12.63249969  124.10700226    4.90999985    2.53999996
   12.63555527  124.26799774    4.90999985    2.53999996
   12.64166641  124.26799774    4.90999985    2.53999996
   12.64583302  120.24900055    4.90999985    2.53999996
   12.64666653  122.19300079    4.90999985    2.53999996
   12.64944458  127.89900208    4.90999985    2.53999996
   12.65249920  119.98500061    4.90999985    2.53999996
   12.65583324  137.39199829    4.90999985    2.53999996
   12.65916634  128.06100464    4.90999985    2.53999996
   12.66222191  129.82600403    4.90999985    2.53999996
   12.66555500  134.87800598    4.90999985    2.53999996
   12.66861153  120.90399933    4.90999985    2.53999996
   12.67194462  126.48300171    4.90999985    2.53999996
   12.67527771  136.88000488    4.90999985    2.53999996
   12.67833328  123.26799774    4.90999985    2.53999996
   12.68000031  131.96899414    4.90999985    2.53999996
   12.68444443  131.96899414    4.90999985    2.53999996
   12.68861103  124.60399628    4.90999985    2.53999996
   12.69194412  126.59400177    4.90999985    2.53999996
   12.69499969  125.99400330    4.90999985    2.53999996
   12.69833374  125.15399933    4.90999985    2.53999996
   12.70138836  142.15600586    4.90999985    2.55999994
   12.70472240  120.78299713    4.90999985    2.55999994
   12.70805550  122.09799957    4.90999985    2.55999994
   12.71111107  134.61000061    4.90999985    2.55999994
   12.71333313  135.83200073    4.90999985    2.55999994
   12.71500015  128.61399841    4.90999985    2.55999994
   12.71805477  127.55899811    4.90999985    2.55999994
   12.72138882  130.88499451    4.90999985    2.55999994
   12.72722149  130.88499451    4.90999985    2.55999994
   12.73138809  122.56500244    4.90999985    2.55999994
   12.73472214  132.33000183    4.90999985    2.55999994
   12.73777771  127.86599731    4.90999985    2.55999994
   12.74111176  130.91900635    4.90999985    2.55999994
   12.74444485  133.76699829    4.90999985    2.55999994
   12.74666691  118.56600189    4.90999985    2.55999994
   12.74805546  133.22599792    4.90999985    2.55999994
   12.75111103  123.18099976    4.90999985    2.55999994
   12.75444412  127.18499756    4.90999985    2.55999994
   12.75777817  127.41500092    4.90999985    2.55999994
   12.76083374  121.11499786    4.90999985    2.55999994
   12.76416683  116.79100037    4.90999985    2.55999994
   12.77027798  116.79100037    4.90999985    2.55999994
   12.77416611  126.75299835    4.90999985    2.55999994
   12.77750015  127.66000366    4.90999985    2.55999994
   12.77999973  133.12300110    4.90999985    2.57999992
   12.78111076  128.58099365    4.90999985    2.55999994
   12.78416729  129.89599609    4.90999985    2.57999992
   12.78750038  124.67900085    4.90999985    2.55999994
   12.79083347  138.24200439    4.90999985    2.57999992
   12.79388905  135.90400696    4.90999985    2.55999994
   12.79722309  112.55799866    4.90999985    2.57999992
   12.80027771  132.84500122    4.90999985    2.57999992
   12.80361176  121.96600342    4.90999985    2.55999994
   12.80694485  133.68499756    4.90999985    2.57999992
   12.81305599  133.68499756    4.90999985    2.57999992
   12.81722260  131.08299255    4.90999985    2.57999992
   12.82027817  132.87199402    4.90999985    2.57999992
   12.82361126  137.43499756    4.90999985    2.57999992
   12.82694435  129.58700562    4.90999985    2.57999992
   12.82999992  122.08100128    4.90999985    2.57999992
   12.83333302  128.49200439    4.90999985    2.57999992
   12.83666611  140.48300171    4.90999985    2.57999992
   12.85388947  131.38000488    4.90999985    2.59999990
   12.85805607  131.38000488    4.90999985    2.59999990
   12.86222267  133.69900513    4.90999985    2.57999992
   12.87527752  132.27600098    0.00000000    0.00000000
   12.87861156  132.44500732    4.90999985    2.57999992
   12.88166714  122.44799805    4.90999985    2.59999990
   12.88500023  121.25399780    4.90999985    2.59999990
   12.88805580  126.79399872    4.90999985    2.59999990
   12.89111137  121.62500000    4.90999985    2.59999990
   12.89194393  127.11599731    4.90999985    2.59999990
   12.89527798  133.65699768    4.90999985    2.57999992
   12.89861107  138.75100708    4.90999985    2.61999989
   12.90277767  138.75100708    4.90999985    2.57999992
   12.90694427  125.95800018    4.90999985    2.59999990
   12.91027737  133.16999817    4.90999985    2.59999990
   12.92277813  123.92299652    0.00000000    0.00000000
   12.92416668  117.31700134    4.90999985    2.59999990
   12.92638874  126.11299896    4.90999985    2.59999990
   12.92972279  114.61199951    4.90999985    2.61999989
   12.93277836  118.50700378    4.90999985    2.59999990
   12.93666649  117.87899780    4.90999985    2.61999989
   12.93972206  116.47599792    4.90999985    2.59999990
   12.94305515  131.96299744    4.90999985    2.59999990
   12.94638920  136.39900208    4.90999985    2.59999990
   12.95055580  136.39900208    4.90999985    2.61999989
   12.95444393  119.41300201    4.90999985    2.61999989
   12.95749950  127.10500336    4.90999985    2.59999990
   12.95805550  131.46499634    4.90999985    2.61999989
   12.96138859  125.43800354    4.90999985    2.61999989
   12.96444416  122.40499878    4.90999985    2.61999989
   12.96777725  123.91100311    4.90999985    2.59999990
   12.97083282  119.23000336    4.90999985    2.61999989
   12.97416592  132.21899414    4.90999985    2.59999990
   12.97749996  118.78099823    4.90999985    2.61999989
   12.98055553  124.63500214    4.90999985    2.59999990
   12.98388958  127.83399963    4.90999985    2.61999989
   12.98722267  124.54900360    4.90999985    2.61999989
   12.99333382  124.54900360    4.90999985    2.61999989
   12.99750042  110.95999908    4.90999985    2.61999989
   13.00055599  119.08899689    4.90999985    2.61999989
   13.00388908  121.72599792    4.90999985    2.61999989
   13.00722218  110.19100189    4.90999985    2.61999989
   13.01055527  122.11599731    4.90999985    2.61999989
   13.01388931  130.79200745    4.90999985    2.61999989
   13.01722240  135.11000061    4.90999985    2.61999989
   13.02027798  120.27700043    4.90999985    2.61999989
   13.02361107  115.28700256    4.90999985    2.61999989
   13.03333378  119.42900085    4.90999985    2.61999989
   13.03638935  126.68599701    4.90999985    2.61999989
   13.04277802  126.68599701    4.90999985    2.61999989
   13.05611134  137.34399414    0.00000000    0.00000000
   13.05749989  124.54599762    4.90999985    2.61999989
   13.05972195  117.33899689    4.90999985    2.64000010
   13.06305599  117.06300354    4.90999985    2.61999989
   13.06611156  122.90299988    4.90999985    2.64000010
   13.06944466  127.98699951    4.90999985    2.64000010
   13.07277775  127.87200165    4.90999985    2.64000010
   13.07583332  119.91400146    4.90999985    2.64000010
   13.07916641  120.59100342    4.90999985    2.61999989
   13.08555508  120.59100342    4.90999985    2.64000010
   13.08972168  125.11199951    4.90999985    2.61999989
   13.09083271  116.36199951    4.90999985    2.61999989
   13.09333324  129.44799805    4.90999985    2.64000010
   13.09666634  127.80200195    4.90999985    2.64000010
   13.09972191  117.26300049    4.90999985    2.64000010
   13.11166668  113.35299683    0.00000000    0.00000000
   13.11500072  134.57000732    4.90999985    2.64000010
   13.11833382  120.24800110    4.90999985    2.64000010
   13.12138939  133.81799316    4.90999985    2.64000010
   13.12916660  133.81799316    4.90999985    2.64000010
   13.13305569  121.30699921    4.90999985    2.61999989
   13.13638878  141.70799255    4.90999985    2.64000010
   13.13972187  127.20600128    4.90999985    2.64000010
   13.14277744  124.93399811    4.90999985    2.64000010
   13.14611053  122.37999725    4.90999985    2.64000010
   13.14999962  121.45800018    4.90999985    2.64000010
   13.15305519  125.31400299    4.90999985    2.64000010
   13.15638828  120.08300018    4.90999985    2.64000010
   13.15972137  119.80699921    4.90999985    2.64000010
   13.16083336  120.17700195    4.90999985    2.66000009
   13.16305542  139.79499817    4.90999985    2.64000010
   13.16638851  131.71099854    4.90999985    2.64000010
   13.17111111  131.71099854    4.90999985    2.64000010
   13.17527771  120.90100098    4.90999985    2.64000010
   13.17861176  122.15100098    4.90999985    2.64000010
   13.18194485  128.44000244    4.90999985    2.64000010
   13.18500042  131.57699585    4.90999985    2.64000010
   13.18833351  124.26699829    4.90999985    2.66000009
   13.19166660  139.08000183    4.90999985    2.64000010
   13.19416714  127.50299835    4.90999985    2.64000010
   13.19499969  125.45099640    4.90999985    2.64000010
   13.19833374  118.03399658    4.90999985    2.66000009
   13.20166683  124.37799835    4.90999985    2.64000010
   13.20472240  116.22100067    4.90999985    2.64000010
   13.20805550  108.66799927    4.90999985    2.66000009
   13.21416664  108.66799927    4.90999985    2.64000010
   13.21833324  122.40899658    4.90999985    2.66000009
   13.22138882  126.14499664    4.90999985    2.66000009
   13.22472191  130.44999695    4.90999985    2.64000010
   13.22777748  124.95600128    4.90999985    2.66000009
   13.22861099  130.16900635    4.90999985    2.66000009
   13.23194408  127.74099731    4.90999985    2.66000009
   13.23500061  120.87100220    4.90999985    2.66000009
   13.23833370  129.79499817    4.90999985    2.66000009
   13.24166679  115.18900299    4.90999985    2.64000010
   13.24499989  118.44300079    4.90999985    2.66000009
   13.24805546  135.60000610    4.90999985    2.67000008
   13.26055527  120.85299683    0.00000000    0.00000000
   13.26472187  120.85299683    4.90999985    2.66000009
   13.26888847  126.43599701    4.90999985    2.66000009
   13.27194405  119.29499817    4.90999985    2.67000008
   13.27527714  134.62399292    4.90999985    2.66000009
   13.27861118  132.57699585    4.90999985    2.66000009
   13.28166676  124.91000366    4.90999985    2.66000009
   13.28500080  120.63400269    4.90999985    2.66000009
   13.28833389  127.80000305    4.90999985    2.66000009
   13.29138947  124.69000244    4.90999985    2.66000009
   13.29472256  140.75100708    4.90999985    2.66000009
   13.29555607  119.38999939    4.90999985    2.66000009
   13.29833412  136.40100098    4.90999985    2.66000009
   13.30166721  133.04100037    4.90999985    2.66000009
   13.30749989  133.04100037    4.90999985    2.66000009
   13.31222248  124.79599762    4.90999985    2.66000009
   13.31527805  126.07399750    4.90999985    2.67000008
   13.31861115  133.12199402    4.90999985    2.66000009
   13.32166672  122.04900360    4.90999985    2.67000008
   13.32499981  118.50199890    4.90999985    2.67000008
   13.32833290  126.58300018    4.90999985    2.66000009
   13.32888889  128.06399536    4.90999985    2.66000009
   13.33194447  120.73300171    4.90999985    2.66000009
   13.33527756  136.00999451    4.90999985    2.67000008
   13.33833313  124.00399780    4.90999985    2.67000008
   13.34166622  129.56500244    4.90999985    2.66000009
   13.34472179  137.78900146    4.90999985    2.67000008
   13.35027790  137.78900146    4.90999985    2.66000009
   13.35444450  125.89399719    4.90999985    2.67000008
   13.35777855  127.55400085    4.90999985    2.67000008
   13.36111164  132.41099548    4.90999985    2.67000008
   13.36250019  121.04100037    4.90999985    2.67000008
   13.36472225  117.80300140    4.90999985    2.67000008
   13.37722206  118.94799805    0.00000000    0.00000000
   13.38055611  121.12100220    4.90999985    2.66000009
   13.38361073  121.65000153    4.90999985    2.67000008
   13.38694477  124.35900116    4.90999985    2.67000008
   13.39333344  124.35900116    4.90999985    2.67000008
   13.39750004  124.21800232    4.90999985    2.67000008
   13.40055561  128.84300232    4.90999985    2.67000008
   13.40416622  123.57399750    4.90999985    2.67000008
   13.40722179  126.96600342    4.90999985    2.67000008
   13.41055489  119.30200195    4.90999985    2.67000008
   13.41388893  141.83399963    4.90999985    2.67000008
   13.41694450  135.86900330    4.90999985    2.67000008
   13.42027855  118.42400360    4.90999985    2.67000008
   13.42361164  133.55700684    4.90999985    2.67000008
   13.42666721  126.37400055    4.90999985    2.67000008
   13.42916679  133.47000122    4.90999985    2.67000008
   13.43055630  115.83399963    4.90999985    2.67000008
   13.43611145  115.83399963    4.90999985    2.67000008
   13.44027805  113.08599854    4.90999985    2.67000008
   13.44333363  128.59100342    4.90999985    2.67000008
   13.44666672  147.41099548    4.90999985    2.67000008
   13.44999981  129.37399292    4.90999985    2.69000006
   13.45333290  145.32200623    4.90999985    2.67000008
   13.45638847  134.91799927    4.90999985    2.69000006
   13.46000004  134.38299561    4.90999985    2.69000006
   13.46249962  141.73699951    4.90999985    2.69000006
   13.46361065  134.98899841    4.90999985    2.67000008
   13.46666622  112.93199921    4.90999985    2.69000006
   13.46999931  145.81799316    4.90999985    2.69000006
   13.47305489  124.06199646    4.90999985    2.69000006
   13.47888851  124.06199646    4.90999985    2.67000008
   13.48305511  154.50300598    4.90999985    2.69000006
   13.48638916  120.72799683    4.90999985    2.67000008
   13.48944473  139.36599731    4.90999985    2.69000006
   13.49277782  127.71499634    4.90999985    2.69000006
   13.49583340  146.87899780    4.90999985    2.69000006
   13.49638939  139.74299622    4.90999985    2.69000006
   13.49944496  139.26199341    4.90999985    2.69000006
   13.50277805  135.61300659    4.90999985    2.69000006
   13.50583363  140.99200439    4.90999985    2.69000006
   13.50916672  143.35499573    4.90999985    2.69000006
   13.51249981  146.01400757    4.90999985    2.69000006
   13.51555538  136.11199951    4.90999985    2.69000006
   13.52166653  136.11199951    4.90999985    2.69000006
   13.52583313  134.98599243    4.90999985    2.69000006
   13.52916622  146.05599976    4.90999985    2.71000004
   13.52972221  128.80799866    4.90999985    2.71000004
   13.53277779  137.88400269    4.90999985    2.69000006
   13.53611183  129.21200562    4.90999985    2.69000006
   13.53944492  125.12699890    4.90999985    2.69000006
   13.54250050  166.14700317    4.90999985    2.69000006
   13.54583359  118.02899933    4.90999985    2.69000006
   13.55833340  124.05200195    0.00000000    0.00000000
   13.56166649  152.02000427    4.90999985    2.71000004
   13.56277752  150.17500305    4.90999985    2.69000006
   13.56777763  150.17500305    4.90999985    2.69000006
   13.57194424  116.56600189    4.90999985    2.71000004
   13.57499981  122.69799805    4.90999985    2.71000004
   13.57833290  112.11900330    4.90999985    2.69000006
   13.58166695  139.56500244    4.90999985    2.69000006
   13.59388828  141.74200439    0.00000000    0.00000000
   13.59583282  119.48000336    4.90999985    2.69000006
   13.59749985  110.81800079    4.90999985    2.69000006
   13.60055637  130.99299622    4.90999985    2.69000006
   13.60388947  144.60699463    4.90999985    2.71000004
   13.61944485  144.60699463    4.90999985    2.69000006
   13.62361145  129.76600647    4.90999985    2.69000006
   13.62694454  143.66700745    4.90999985    2.71000004
   13.63027763  120.19799805    4.90999985    2.71000004
   13.63638878  136.67700195    4.90999985    2.69000006
   13.63694477  141.15800476    4.90999985    2.69000006
   13.63972187  131.26400757    4.90999985    2.71000004
   13.64305496  126.98899841    4.90999985    2.69000006
   13.64611053  140.18200684    4.90999985    2.71000004
   13.64944458  114.44300079    4.90999985    2.71000004
   13.65361118  114.44300079    4.90999985    2.71000004
   13.65777779  137.84800720    4.90999985    2.71000004
   13.66083336  130.56399536    4.90999985    2.71000004
   13.66416645  128.89399719    4.90999985    2.71000004
   13.66750050  131.91600037    4.90999985    2.71000004
   13.67027855  127.43000031    4.90999985    2.71000004
   13.67111111  131.63699341    4.90999985    2.71000004
   13.67444515  135.21299744    4.90999985    2.69000006
   13.67750072  130.00399780    4.90999985    2.71000004
   13.68083382  115.50900269    4.90999985    2.71000004
   13.68416691  131.52600098    4.90999985    2.71000004
   13.68805599  133.06199646    4.90999985    2.71000004
   13.69111156  125.19999695    4.90999985    2.71000004
   13.69638920  125.19999695    4.90999985    2.71000004
   13.70055580  139.74200439    4.90999985    2.69000006
   13.70361137  134.06799316    4.90999985    2.71000004
   13.70444393  126.75099945    4.90999985    2.71000004
   13.70749950  153.43299866    4.90999985    2.71000004
   13.71083355  154.13900757    4.90999985    2.71000004
   13.71388912  206.45300293    4.90999985    2.71000004
   13.71722221  163.92900085    4.90999985    2.71000004
   13.73805618  153.93299866    0.00000000    0.00000000
   13.74111176  142.74499512    4.90999985    2.71000004
   13.74722290  142.74499512    4.90999985    2.75000000
   13.75166702  161.88900757    4.90999985    2.84999990
   13.76277733  127.25900269    0.00000000    0.00000000
   13.76444435  115.03199768    1.13000000    2.71000004
   13.76777744  126.90499878    1.13000000    2.71000004
   13.77083302  136.81100464    1.13000000    2.71000004
   13.77416611  117.94000244    1.13000000    2.69000006
   13.77722168  118.56999969    1.14999998    2.71000004
   13.78055573  139.67599487    1.14999998    2.71000004
   13.78388977  130.45399475    1.14999998    2.71000004
   13.79944515  130.45399475    1.14999998    2.71000004
   13.80361176  143.32099915    1.14999998    2.71000004
   13.80694485  145.53900146    1.14999998    2.71000004
   13.81027794  123.92299652    1.13000000    2.71000004
   13.81333351  127.72399902    1.13000000    2.71000004
   13.81666660  133.55099487    1.13000000    2.71000004
   13.81972218  135.83900452    1.14999998    2.71000004
   13.82138920  127.53500366    1.14999998    2.71000004
   13.82361126  124.45300293    1.13000000    2.71000004
   13.82666683  130.61999512    1.13000000    2.71000004
   13.83444405  130.61999512    1.13000000    2.71000004
   13.83861065  118.69200134    1.13000000    2.71000004
   13.84194374  136.82299805    1.11000001    2.71000004
   13.84499931  133.82000732    1.13000000    2.71000004
   13.84833336  123.23999786    1.11000001    2.69000006
   13.85138893  124.72299957    1.11000001    2.73000002
   13.85583401  120.06500244    1.11000001    2.71000004
   13.85638905  127.83799744    1.11000001    2.71000004
   13.85972214  135.48100281    1.11000001    2.71000004
   13.86277771  124.81099701    1.11000001    2.71000004
   13.86694431  114.44599915    1.13000000    2.73000002
   13.86999989  119.57599640    1.11000001    2.73000002
   13.87611103  119.57599640    1.11000001    2.71000004
   13.88027763  132.30000305    1.11000001    2.71000004
   13.88361073  119.47799683    1.11000001    2.73000002
   13.88694477  122.20300293    1.11000001    2.73000002
   13.88833332  115.29100037    1.09000003    2.71000004
   13.90694427  115.25099945    0.00000000    0.00000000
   13.91027737  119.86199951    1.07000005    2.73000002
   13.91333294  127.37100220    1.07000005    2.71000004
   13.91944504  127.37100220    1.05999994    2.71000004
   13.93277836  120.75199890    0.00000000    0.00000000
   13.93611145  113.99900055    1.05999994    2.73000002
   13.93916702  119.64700317    1.05999994    2.73000002
   13.94250011  125.47000122    1.05999994    2.73000002
   13.94583321  129.53700256    1.05999994    2.73000002
   13.94916630  122.69000244    1.05999994    2.75000000
   13.95249939  115.09999847    1.05999994    2.75000000
   13.95499992  135.79899597    1.05999994    2.73000002
   13.95611095  125.79199982    1.05999994    2.73000002
   13.97083282  125.79199982    1.03999996    2.71000004
   13.97499943  124.31099701    1.05999994    2.73000002
   13.97833252  134.39399719    1.05999994    2.73000002
   13.98138809  134.05799866    1.03999996    2.73000002
   13.98472214  122.10500336    1.03999996    2.75000000
   13.98777771  143.23100281    1.03999996    2.75000000
   13.98833370  140.37100220    1.03999996    2.73000002
   13.99138927  140.37500000    1.03999996    2.73000002
   14.00249958  141.61099243    0.00000000    0.00000000
   14.00555515  145.64700317    1.03999996    2.73000002
   14.01194477  145.64700317    1.05999994    2.75000000
   14.01583290  118.01599884    1.03999996    2.75000000
   14.01916599  144.82299805    1.03999996    2.73000002
   14.02166653  134.25700378    1.03999996    2.73000002
   14.02277756  160.12199402    1.03999996    2.73000002
   14.02611065  130.93800354    1.05999994    2.73000002
   14.02944374  154.89399719    1.03999996    2.73000002
   14.03277779  144.78399658    1.03999996    2.73000002
   14.03583336  135.11500549    1.03999996    2.73000002
   14.03916740  114.46499634    1.03999996    2.75000000
   14.04250050  138.94000244    1.03999996    2.73000002
   14.04555607  125.16300201    1.03999996    2.73000002
   14.04888916  135.86500549    1.03999996    2.75000000
   14.05472279  135.86500549    1.03999996    2.73000002
   14.05888939  121.23899841    1.03999996    2.73000002
   14.06194496  165.35600281    1.03999996    2.73000002
   14.06527805  147.36900330    1.03999996    2.73000002
   14.06861115  154.89100647    1.03999996    2.73000002
   14.07166672  139.20300293    1.03999996    2.73000002
   14.08388901  130.22300720    0.00000000    0.00000000
   14.08722210  162.56900024    1.05999994    2.75000000
   14.08972168  153.90499878    1.03999996    2.73000002
   14.09083271  124.15699768    1.03999996    2.75000000
   14.09749985  124.15699768    1.03999996    2.73000002
   14.11055565  130.97099304    0.00000000    0.00000000
   14.11388969  172.97300720    1.01999998    2.73000002
   14.11694431  161.41200256    1.01999998    2.75000000
   14.12027836  141.93499756    1.01999998    2.75000000
   14.12361145  131.35400391    1.01999998    2.75000000
   14.12666702  150.91099548    1.01999998    2.75000000
   14.12750053  141.81399536    1.01999998    2.75000000
   14.13083363  153.33399963    1.01999998    2.75000000
   14.13416672  155.44500732    1.00000000    2.75000000
   14.14888859  155.44500732    1.00000000    2.75000000
   14.15305519  151.99099731    1.00000000    2.75000000
   14.15638828  146.62100220    1.00000000    2.75000000
   14.15972137  141.33900452    1.00000000    2.75000000
   14.16277695  139.03900146    1.00000000    2.73000002
   14.16472149  134.49699402    1.00000000    2.73000002
   14.16666698  115.41000366    1.00000000    2.75000000
   14.16972256  151.92999268    1.00000000    2.75000000
   14.17305565  112.85700226    0.98000002    2.75000000
   14.17611122  146.04299927    0.98000002    2.75000000
   14.17944431  153.59500122    0.98000002    2.75000000
   14.18361092  153.59500122    1.00000000    2.75000000
   14.18777752  137.26400757    1.00000000    2.73000002
   14.19083309  132.53700256    0.98000002    2.75000000
   14.19416714  125.21900177    0.98000002    2.75000000
   14.19750023  127.64600372    0.98000002    2.75000000
   14.19805527  131.15499878    0.98000002    2.75000000
   14.20111084  128.73699951    0.98000002    2.75000000
   14.20416641  152.38800049    0.98000002    2.73000002
   14.20749950  149.58000183    0.98000002    2.75000000
   14.21055508  106.97899628    0.98000002    2.75000000
   14.21388912  147.85800171    0.98000002    2.75000000
   14.21722221  121.96399689    0.98000002    2.75000000
   14.22027779  133.62500000    0.98000002    2.75000000
   14.22638798  133.62500000    0.98000002    2.75000000
   14.23055553  118.53099823    0.98000002    2.75000000
   14.23138809  148.87100220    0.98000002    2.75000000
   14.23444462  109.80699921    0.98000002    2.76999998
   14.23777771  147.66000366    0.98000002    2.75000000
   14.24944496  109.04000092    0.00000000    0.00000000
   14.25277805  128.00700378    0.98000002    2.75000000
   14.25583363  119.05100250    1.00000000    2.76999998
   14.25916672  123.47899628    0.98000002    2.75000000
   14.26249981  123.08899689    1.00000000    2.75000000
   14.26555538  118.78700256    1.00000000    2.75000000
   14.26666641  121.11299896    1.00000000    2.75000000
   14.26972198  133.69200134    0.98000002    2.75000000
   14.27305508  117.65100098    0.98000002    2.75000000
   14.28611183  117.65100098    1.00000000    2.75000000
   14.29027843  110.09899902    1.00000000    2.75000000
   14.29361153  124.34500122    0.98000002    2.76999998
   14.29694462  111.16999817    0.98000002    2.76999998
   14.30000019  129.28100586    0.98000002    2.75000000
   14.30194473  116.88800049    0.98000002    2.75000000
   14.30388927  118.25599670    0.98000002    2.76999998
   14.30694485  114.94400024    0.98000002    2.75000000
   14.31138897  128.69200134    0.95999998    2.76999998
   14.31472206  133.49000549    0.95999998    2.75000000
   14.32138920  133.49000549    0.95999998    2.76999998
   14.32555580  120.85099792    0.95999998    2.76999998
   14.32888889  115.63500214    0.94000000    2.76999998
   14.33277798  106.50800323    0.94000000    2.76999998
   14.33527756  110.40499878    0.94000000    2.76999998
   14.33611107  123.37799835    0.94000000    2.75000000
   14.33944416  123.38300323    0.94000000    2.75000000
   14.34277725   98.55130005    0.94000000    2.76999998
   14.34583282  114.67800140    0.94000000    2.75000000
   14.34916592  117.37500000    0.95999998    2.75000000
   14.35249996  126.34899902    0.95999998    2.76999998
   14.35583401  124.23100281    0.95999998    2.76999998
   14.35888958  122.31199646    0.95999998    2.75000000
   14.36361122  122.31199646    0.95999998    2.76999998
   14.36777782  120.88700104    0.95999998    2.76999998
   14.36861134  120.98799896    0.95999998    2.76999998
   14.37166691  114.42600250    0.95999998    2.75000000
   14.37472248  113.86900330    0.95999998    2.76999998
   14.37805557  122.66699982    0.95999998    2.76999998
   14.38111115  117.67199707    0.95999998    2.76999998
   14.38444424  119.80100250    0.95999998    2.75000000
   14.38777733  112.73200226    0.95999998    2.76999998
   14.39111137  118.62500000    0.95999998    2.76999998
   14.39416695  119.87699890    0.95999998    2.76999998
   14.39750004  115.93900299    0.95999998    2.75000000
   14.40944386  114.34400177    0.00000000    0.00000000
   14.41361046  114.34400177    0.95999998    2.76999998
   14.41777802  123.78099823    0.95999998    2.76999998
   14.42111111  118.06900024    0.95999998    2.75000000
   14.42416668  120.50399780    0.95999998    2.76999998
   14.43611145  122.37699890    0.00000000    0.00000000
   14.43944454  134.16400146    0.95999998    2.76999998
   14.44250011  120.61000061    0.95999998    2.75000000
   14.44583321  120.94999695    0.95999998    2.75000000
   14.44916630  126.36900330    0.94000000    2.76999998
   14.45194435  126.45899963    0.94000000    2.76999998
   14.45277786  106.91600037    0.94000000    2.76999998
   14.45611095  102.73600006    0.94000000    2.76999998
   14.45916653  113.71099854    0.94000000    2.76999998
   14.46388912  113.71099854    0.94000000    2.76999998
   14.46777725  143.16900635    0.94000000    2.76999998
   14.47111034  121.48000336    0.94000000    2.76999998
   14.47444439  116.03399658    0.92000002    2.78999996
   14.47749996  123.43399811    0.92000002    2.76999998
   14.48083305  117.78600311    0.92000002    2.75000000
   14.48416710  124.70999908    0.92000002    2.76999998
   14.48500061  125.76599884    0.92000002    2.75000000
   14.48750019  114.75199890    0.92000002    2.75000000
   14.49083328  111.12699890    0.92000002    2.76999998
   14.49388885  126.09200287    0.92000002    2.76999998
   14.49722290  124.87699890    0.89999998    2.76999998
   14.50055599  114.45099640    0.89999998    2.76999998
   14.50666714  114.45099640    0.89999998    2.76999998
   14.51055527  129.73300171    0.88000000    2.76999998
   14.51388931  119.81999969    0.88000000    2.76999998
   14.51722240  125.85399628    0.89999998    2.78999996
   14.51861095  128.92799377    0.89999998    2.78999996
   14.52083302  130.09899902    0.88000000    2.78999996
   14.52388859  118.75599670    0.88000000    2.78999996
   14.52722168  117.24600220    0.88000000    2.76999998
   14.53055573  113.05799866    0.88000000    2.76999998
   14.53361130  129.09800720    0.88000000    2.76999998
   14.53694534  124.83899689    0.88000000    2.76999998
   14.54027843  131.80400085    0.88000000    2.76999998
   14.54333401  110.42299652    0.88000000    2.76999998
   14.54944515  110.42299652    0.88000000    2.76999998
   14.55361176  132.37100220    0.88000000    2.76999998
   14.55666733  119.70300293    0.88000000    2.76999998
   14.56000042  118.42500305    0.88000000    2.76999998
   14.56333351  121.38999939    0.86000001    2.78999996
   14.56638908  130.53399658    0.86000001    2.76999998
   14.56972218  130.86799622    0.86000001    2.76999998
   14.57305527  123.60299683    0.86000001    2.76999998
   14.57638836  131.62899780    0.86000001    2.76999998
   14.57944393  136.02299500    0.86000001    2.78999996
   14.58277798  120.69699860    0.86000001    2.78999996
   14.58527756  146.85800171    0.86000001    2.78999996
   14.58638859  126.02799988    0.86000001    2.78999996
   14.59222221  126.02799988    0.86000001    2.78999996
   14.59638882  122.57099915    0.86000001    2.76999998
   14.59972191  127.40200043    0.86000001    2.78999996
   14.60277843  123.89399719    0.83999997    2.78999996
   14.60611153  131.53599548    0.83999997    2.78999996
   14.60944462  125.61799622    0.83999997    2.78999996
   14.61250019  121.84799957    0.83999997    2.76999998
   14.61583328  125.58100128    0.83999997    2.76999998
   14.61861134  132.78100586    0.83999997    2.76999998
   14.61944485  108.54100037    0.83999997    2.78999996
   14.62277794  110.99600220    0.83999997    2.78999996
   14.62583351  127.19799805    0.83999997    2.78999996
   14.62916660  126.00900269    0.83999997    2.78999996
   14.63500023  126.00900269    0.81999999    2.76999998
   14.63916683  115.05300140    0.81999999    2.78999996
   14.64249992  122.73400116    0.81999999    2.76999998
   14.64583302  115.72799683    0.81999999    2.76999998
   14.64888859  132.61000061    0.81999999    2.78999996
   14.65194416  122.25599670    0.81999999    2.78999996
   14.65249920  126.27700043    0.81999999    2.78999996
   14.65583324  115.44999695    0.81999999    2.78999996
   14.65888882  105.73699951    0.81999999    2.80999994
   14.66222191  120.65399933    0.81999999    2.78999996
   14.66527748  122.49199677    0.81999999    2.78999996
   14.66861153  125.57900238    0.81999999    2.78999996
   14.67194462  131.92300415    0.83999997    2.78999996
   14.67805576  131.92300415    0.83999997    2.80999994
   14.68222237  123.57199860    0.81999999    2.78999996
   14.68527794  131.65600586    0.81999999    2.78999996
   14.68583298  114.83799744    0.81999999    2.78999996
   14.68916702  112.63800049    0.81999999    2.78999996
   14.69222260  124.29100037    0.81999999    2.78999996
   14.69555569  124.78500366    0.83999997    2.78999996
   14.69888878  138.67500305    0.83999997    2.78999996
   14.70194435  114.30500031    0.81999999    2.78999996
   14.70527744  119.79799652    0.81999999    2.78999996
   14.70861053  126.34899902    0.81999999    2.78999996
   14.71166611  140.08999634    0.81999999    2.78999996
   14.71527767  118.74400330    0.80000001    2.78999996
   14.72083282  118.74400330    0.80000001    2.78999996
   14.72499943  137.60200500    0.80000001    2.78999996
   14.72805500  126.97699738    0.80000001    2.78999996
   14.73138809  116.13899994    0.80000001    2.78999996
   14.73472214  131.54499817    0.80000001    2.78999996
   14.73777771  114.49299622    0.79000002    2.78999996
   14.74111176  112.67199707    0.79000002    2.78999996
   14.74444485  128.03900146    0.80000001    2.78999996
   14.74750042  128.69099426    0.79000002    2.78999996
   14.75083351  135.25199890    0.79000002    2.78999996
   14.76194477  128.26199341    0.76999998    2.78999996
   14.76416683  127.95500183    0.76999998    2.78999996
   14.76749992  126.66799927    0.76999998    2.78999996
   14.77166653  126.66799927    0.76999998    2.78999996
   14.77583313  131.00399780    0.76999998    2.80999994
   14.77888870  125.73200226    0.75000000    2.78999996
   14.78222179  129.31500244    0.75000000    2.78999996
   14.78527832  142.85200500    0.75000000    2.78999996
   14.78583336  132.11099243    0.75000000    2.78999996
   14.78916740  145.00100708    0.76999998    2.80999994
   14.79222298  123.69400024    0.75000000    2.78999996
   14.79555607  129.96800232    0.75000000    2.78999996
   14.79861164  122.70999908    0.75000000    2.80999994
   14.80194473  130.91400146    0.75000000    2.80999994
   14.80527782  129.62899780    0.75000000    2.80999994
   14.80833340  116.53900146    0.75000000    2.78999996
   14.81444454  116.53900146    0.75000000    2.78999996
   14.81861115  138.86500549    0.75000000    2.78999996
   14.81916618  123.31600189    0.75000000    2.78999996
   14.82250023  126.04599762    0.75000000    2.78999996
   14.82555580  122.34999847    0.75000000    2.78999996
   14.82888889  114.60900116    0.75000000    2.78999996
   14.83194447  113.88500214    0.76999998    2.78999996
   14.83527756  111.06900024    0.75000000    2.80999994
   14.83861065  118.75900269    0.75000000    2.78999996
   14.84166622  131.07600403    0.75000000    2.78999996
   14.84499931  114.03800201    0.76999998    2.80999994
   14.84833336  140.15899658    0.76999998    2.78999996
   14.85138893  106.29199982    0.76999998    2.78999996
   14.85249996  100.71600342    0.76999998    2.78999996
   14.85722256  100.71600342    0.79000002    2.78999996
   14.86138916  113.45400238    0.80000001    2.78999996
   14.86472225  118.44999695    0.80000001    2.78999996
   14.86777782  119.51499939    0.80000001    2.78999996
   14.87111092  116.27600098    0.80000001    2.78999996
   14.87444496  109.54900360    0.80000001    2.80999994
   14.87750053  112.51399994    0.80000001    2.78999996
   14.88083363  123.28399658    0.80000001    2.78999996
   14.88416672  120.18499756    0.80000001    2.80999994
   14.88583279  121.73899841    0.80000001    2.80999994
   14.88777733  115.88600159    0.81999999    2.78999996
   14.89083290  114.69000244    0.81999999    2.78999996
   14.89416695  115.01599884    0.81999999    2.78999996
   14.90027714  115.01599884    0.81999999    2.78999996
   14.90444374  119.94899750    0.81999999    2.78999996
   14.90749931  108.68499756    0.81999999    2.78999996
   14.91083336  114.98799896    0.81999999    2.78999996
   14.91388893  111.83200073    0.81999999    2.78999996
   14.91722298  117.08300018    0.80000001    2.78999996
   14.91916656  113.14299774    0.81999999    2.78999996
   14.92111111  113.42700195    0.81999999    2.78999996
   14.92416668  130.41299438    0.80000001    2.78999996
   14.92750072  126.90499878    0.80000001    2.78999996
   14.93083382  121.35500336    0.80000001    2.78999996
   14.93388939  112.29399872    0.81999999    2.80999994
   14.93722248  122.71700287    0.81999999    2.80999994
   14.94305515  122.71700287    0.80000001    2.80999994
   14.96222210  112.18399811    0.80000001    2.78999996
   14.96527767  121.97299957    0.80000001    2.78999996
   14.96861076  113.46900177    0.80000001    2.78999996
   14.97194386  111.43800354    0.80000001    2.80999994
   14.97499943  110.81400299    0.80000001    2.78999996
   14.97833252  123.23799896    0.80000001    2.80999994
   14.98138809  116.78500366    0.80000001    2.80999994
   14.98611164  116.78500366    0.80000001    2.78999996
   14.99027824  114.05699921    0.80000001    2.80999994
   14.99333382  126.40799713    0.80000001    2.78999996
   14.99527836  124.48500061    0.80000001    2.78999996
   14.99694443  123.37200165    0.80000001    2.78999996
   15.00027752  122.15399933    0.80000001    2.78999996
   15.00361156  112.43299866    0.80000001    2.78999996
   15.00666714  120.70200348    0.80000001    2.78999996
   15.01000023  122.95300293    0.80000001    2.78999996
   15.01305580  121.47399902    0.80000001    2.78999996
   15.01638889  117.38999939    0.80000001    2.80999994
   15.01972198  111.81900024    0.80000001    2.78999996
   15.02277756  120.52300262    0.80000001    2.78999996
   15.02888870  120.52300262    0.79000002    2.80999994
   15.03305531  117.51499939    0.79000002    2.80999994
   15.03611183  109.72799683    0.79000002    2.80999994
   15.03944492  112.42900085    0.79000002    2.78999996
   15.04277802  119.67600250    0.79000002    2.80999994
   15.04583359  112.29000092    0.79000002    2.80999994
   15.04916668  113.97399902    0.79000002    2.78999996
   15.05249977  108.94599915    0.79000002    2.80999994
   15.05555534  101.20700073    0.79000002    2.80999994
   15.05888939  110.75199890    0.79000002    2.80999994
   15.06194496  112.16600037    0.79000002    2.80999994
   15.06250000  108.70899963    0.79000002    2.80999994
   15.06583309  119.68499756    0.79000002    2.80999994
   15.07166672  119.68499756    0.79000002    2.78999996
   15.07583332  120.14499664    0.79000002    2.80999994
   15.07888889  122.87999725    0.79000002    2.78999996
   15.08222198  118.16699982    0.79000002    2.78999996
   15.08555508  126.25299835    0.79000002    2.80999994
   15.08888817  125.45300293    0.79000002    2.80999994
   15.09194374  117.16100311    0.79000002    2.82999992
   15.09527779  114.90299988    0.79000002    2.82999992
   15.09555531  116.80999756    0.79000002    2.82999992
   15.09888840  117.82499695    0.79000002    2.82999992
   15.10222244  119.57700348    0.79000002    2.78999996
   15.10527802  113.82900238    0.79000002    2.80999994
   15.10861111  122.97100067    0.76999998    2.80999994
   15.13138866  122.97100067    0.79000002    2.78999996
   15.13555527  121.16200256    0.79000002    2.80999994
   15.13888836  111.78399658    0.79000002    2.80999994
   15.14222240  114.67400360    0.79000002    2.80999994
   15.14555550  121.34999847    0.79000002    2.80999994
   15.14888859  119.35600281    0.79000002    2.80999994
   15.15194416  117.21199799    0.79000002    2.80999994
   15.15527725  114.84500122    0.79000002    2.80999994
   15.15944386  114.84500122    0.76999998    2.80999994
   15.16361046  115.48300171    0.76999998    2.80999994
   15.16666698  117.55000305    0.76999998    2.80999994
   15.16722298  128.29699707    0.76999998    2.80999994
   15.17055607  114.83799744    0.79000002    2.80999994
   15.17388916  121.82299805    0.76999998    2.82999992
   15.17750072  113.09100342    0.76999998    2.80999994
   15.18083382  114.48400116    0.76999998    2.80999994
   15.18416691  109.23600006    0.76999998    2.80999994
   15.18722248  117.19200134    0.76999998    2.80999994
   15.19055557  123.67900085    0.75000000    2.82999992
   15.19388866  122.47299957    0.76999998    2.80999994
   15.19694424  115.13400269    0.75000000    2.80999994
   15.20249939  115.13400269    0.76999998    2.80999994
   15.20666695  102.54599762    0.75000000    2.80999994
   15.20972157  119.85800171    0.76999998    2.80999994
   15.21305561  114.04399872    0.75000000    2.80999994
   15.21611118  115.23600006    0.75000000    2.82999992
   15.21944427  118.19200134    0.75000000    2.82999992
   15.22277737  108.08499908    0.76999998    2.80999994
   15.22583294  112.50499725    0.79000002    2.80999994
   15.22916603  123.33200073    0.76999998    2.80999994
   15.23249912  110.51100159    0.76999998    2.78999996
   15.23333359   99.78880310    0.76999998    2.78999996
   15.23611164  111.05000305    0.76999998    2.80999994
   15.23916721  117.29699707    0.79000002    2.80999994
   15.24638939  117.29699707    0.79000002    2.82999992
   15.25055599  116.77500153    0.76999998    2.80999994
   15.25388908  114.63500214    0.76999998    2.80999994
   15.25722218  105.00900269    0.76999998    2.80999994
   15.26027775  115.23300171    0.76999998    2.80999994
   15.26361084  108.43699646    0.79000002    2.80999994
   15.26666641  117.92500305    0.79000002    2.80999994
   15.26722240  114.41300201    0.79000002    2.80999994
   15.27055550  116.78199768    0.79000002    2.82999992
   15.27361107  118.60199738    0.79000002    2.80999994
   15.28527832  106.09400177    0.00000000    0.00000000
   15.28833389  114.07299805    0.80000001    2.80999994
   15.29472256  114.07299805    0.80000001    2.80999994
   15.29861164  119.82900238    0.80000001    2.80999994
   15.30111122  116.75000000    0.80000001    2.80999994
   15.30277824  112.21499634    0.79000002    2.80999994
   15.30611134  126.25000000    0.79000002    2.80999994
   15.30916691  126.11199951    0.79000002    2.80999994
   15.40555477   -1.00000000   -1.00000000   -1.00000000
   15.51027775   -1.00000000   -1.00000000   -1.00000000
   15.63444424   -1.00000000   -1.00000000   -1.00000000
   15.68416691   73.48419952    0.81999999    2.80999994
   15.68750000  128.19000244    0.81999999    2.82999992
   15.69083309  128.26899719    0.81999999    2.82999992
   15.69388866  112.23400116    0.81999999    2.80999994
   15.69722271  121.60600281    0.81999999    2.80999994
   15.70027733  101.82299805    0.81999999    2.80999994
   15.70444393  101.82299805    0.81999999    2.80999994
   15.70861053  109.39900208    0.83999997    2.82999992
   15.71194458  103.41000366    0.83999997    2.82999992
   15.71500015  108.89099884    0.81999999    2.82999992
   15.71749973  113.59600067    0.83999997    2.82999992
   15.71888828  100.68299866    0.83999997    2.80999994
   15.72222137  108.22499847    0.81999999    2.80999994
   15.72527695  119.26399994    0.81999999    2.82999992
   15.72861099  107.79299927    0.81999999    2.80999994
   15.73166656  104.30000305    0.81999999    2.82999992
   15.73500061  110.93800354    0.81999999    2.82999992
   15.73833370  107.40000153    0.81999999    2.82999992
   15.74138927  110.16799927    0.81999999    2.82999992
   15.74750042  110.16799927    0.80000001    2.80999994
   15.75166702  106.25199890    0.80000001    2.80999994
   15.75472260  109.73899841    0.80000001    2.80999994
   15.75805569  113.80500031    0.81999999    2.82999992
   15.76111126  106.45200348    0.81999999    2.80999994
   15.76444435  107.95099640    0.81999999    2.80999994
   15.76777744  102.52200317    0.81999999    2.80999994
   15.77083302  101.33699799    0.83999997    2.80999994
   15.77416611  115.00299835    0.81999999    2.80999994
   15.77750015  110.60299683    0.83999997    2.80999994
   15.78055573  100.93599701    0.81999999    2.80999994
   15.78388977   93.20800018    0.81999999    2.82999992
   15.78444481  111.43900299    0.81999999    2.82999992
   15.79027843  111.43900299    0.81999999    2.82999992
   15.79444504  118.76999664    0.80000001    2.82999992
   15.79750061  114.09899902    0.80000001    2.82999992
   15.80083370  111.26899719    0.80000001    2.82999992
   15.80416679  118.83999634    0.80000001    2.80999994
   15.80722237  110.81700134    0.80000001    2.82999992
   15.81055546  121.59500122    0.81999999    2.80999994
   15.81361103  114.52300262    0.80000001    2.80999994
   15.81694412  116.20999908    0.80000001    2.82999992
   15.81777763  121.87200165    0.80000001    2.82999992
   15.82055569  122.26499939    0.80000001    2.82999992
   15.82361126  110.37599945    0.80000001    2.82999992
   15.82694435  130.88999939    0.80000001    2.82999992
   15.83305550  130.88999939    0.81999999    2.82999992
   15.83722210  112.38999939    0.81999999    2.82999992
   15.84055519  111.22499847    0.80000001    2.82999992
   15.84361076  120.54799652    0.80000001    2.82999992
   15.84694386  117.93499756    0.80000001    2.82999992
   15.85027790  114.14199829    0.80000001    2.82999992
   15.85111141  101.55500031    0.80000001    2.82999992
   15.85388947  122.51300049    0.80000001    2.82999992
   15.85694504  122.78700256    0.80000001    2.82999992
   15.86027813  112.02400208    0.80000001    2.82999992
   15.86361122  120.55100250    0.80000001    2.82999992
   15.86666679  106.90000153    0.80000001    2.82999992
   15.86999989  113.48500061    0.80000001    2.80999994
   15.87611103  113.48500061    0.80000001    2.80999994
   15.88000011  120.14299774    0.80000001    2.82999992
   15.88333321  119.13300323    0.80000001    2.82999992
   15.88444424  106.76999664    0.80000001    2.82999992
   15.88694477  109.55300140    0.80000001    2.82999992
   15.89000034  123.65799713    0.80000001    2.80999994
   15.89333344  115.62999725    0.80000001    2.82999992
   15.89666653  128.11900330    0.80000001    2.82999992
   15.89972210  109.92600250    0.79000002    2.82999992
   15.90305519  100.68699646    0.79000002    2.82999992
   15.90638828  111.77700043    0.79000002    2.82999992
   15.90944386  110.16699982    0.76999998    2.82999992
   15.91277695  112.88099670    0.76999998    2.82999992
   15.91888905  112.88099670    0.76999998    2.82999992
   15.92305565  117.63300323    0.76999998    2.82999992
   15.92611122  107.97599792    0.76999998    2.82999992
   15.92944431  110.86299896    0.76999998    2.82999992
   15.93249989  102.50499725    0.76999998    2.82999992
   15.93583298  115.59700012    0.76999998    2.84999990
   15.93916702  106.01200104    0.75000000    2.82999992
   15.94222260  113.65299988    0.76999998    2.82999992
   15.95611095  107.87699890    0.00000000    0.00000000
   15.96249962  112.19699860    0.75000000    2.82999992
   15.96666622  112.19699860    0.75000000    2.82999992
   15.97055531  116.69799805    0.75000000    2.82999992
   15.97388840  116.37899780    0.75000000    2.82999992
   15.97722149  115.78700256    0.75000000    2.82999992
   15.98055553  113.21800232    0.76999998    2.82999992
   15.98361111  109.43699646    0.76999998    2.82999992
   15.98694515  119.84500122    0.76999998    2.82999992
   15.99000072  112.79499817    0.75000000    2.82999992
   15.99055576  107.19200134    0.76999998    2.82999992
   15.99361134  103.66300201    0.76999998    2.82999992
   15.99694443  111.36799622    0.76999998    2.82999992
   16.00000000  102.82099915    0.75000000    2.82999992
   16.00333405  106.79799652    0.75000000    2.82999992
   16.00944519  106.79799652    0.75000000    2.82999992
   16.01361084  104.01000214    0.75000000    2.82999992
   16.01694489  108.16500092    0.76999998    2.82999992
   16.02027702  100.87200165    0.76999998    2.82999992
   16.02333260  104.26799774    0.80000001    2.82999992
   16.02388954  105.14199829    0.80000001    2.82999992
   16.02694511  111.02799988    0.83999997    2.82999992
   16.03027725  107.19200134    0.89999998    2.82999992
   16.03333282   99.02369690    0.89999998    2.80999994
   16.03694344  107.62599945    0.89999998    2.82999992
   16.04027748  112.33599854    0.89999998    2.82999992
   16.04333305  110.28700256    0.92000002    2.80999994
   16.04666710  117.12799835    0.94000000    2.80999994
   16.05222130  117.12799835    0.94000000    2.82999992
   16.05638885  121.15299988    0.94000000    2.80999994
   16.05694389  105.95899963    0.94000000    2.82999992
   16.05999947  122.21700287    0.94000000    2.80999994
   16.06333351  112.67299652    0.94000000    2.82999992
   16.06666756  126.58899689    0.94000000    2.82999992
   16.06972313  116.84500122    0.94000000    2.82999992
   16.07305717  107.62599945    0.92000002    2.80999994
   16.07638931  128.24000549    0.92000002    2.82999992
   16.07944489  128.35400391    0.89999998    2.80999994
   16.08277893  117.51200104    0.88000000    2.82999992
   16.08583450  116.86900330    0.88000000    2.82999992
   16.08916664  104.38899994    0.88000000    2.82999992
   16.09027863  117.68399811    0.86000001    2.82999992
   16.09500122  117.68399811    0.86000001    2.82999992
   16.09916687  103.77600098    0.86000001    2.84999990
   16.10250092  116.39700317    0.86000001    2.82999992
   16.10555649  125.17299652    0.86000001    2.82999992
   16.11861038  124.85299683    0.83999997    2.82999992
   16.12166595  104.39499664    0.83999997    2.82999992
   16.12361145  113.69000244    0.83999997    2.82999992
   16.12555504  116.17099762    0.83999997    2.82999992
   16.12861061  115.05100250    0.83999997    2.82999992
   16.13194466  124.51399994    0.83999997    2.82999992
   16.13527679  124.09999847    0.83999997    2.80999994
   16.13833237  115.48400116    0.83999997    2.80999994
   16.14194489  112.90299988    0.86000001    2.82999992
   16.14611053  112.90299988    0.86000001    2.82999992
   16.15027809  120.71800232    0.86000001    2.80999994
   16.15361023  116.08300018    0.83999997    2.82999992
   16.15666580  103.62100220    0.83999997    2.82999992
   16.15722275  118.95300293    0.83999997    2.82999992
   16.16055489  121.56199646    0.83999997    2.82999992
   16.16361046  101.54399872    0.83999997    2.82999992
   16.16694450  117.82399750    0.83999997    2.80999994
   16.17027664  107.10600281    0.83999997    2.82999992
   16.17333221  109.45600128    0.83999997    2.82999992
   16.17666626  110.76999664    0.83999997    2.82999992
   16.18000031  110.36799622    0.83999997    2.80999994
   16.18305397  104.61599731    0.83999997    2.82999992
   16.18916512  104.61599731    0.83999997    2.82999992
   16.19333267  113.50399780    0.83999997    2.82999992
   16.19666672  121.57800293    0.83999997    2.84999990
   16.19972038  109.63200378    0.83999997    2.82999992
   16.20305634  106.08300018    0.81999999    2.82999992
   16.20639038  109.27400208    0.83999997    2.82999992
   16.20972252  107.12699890    0.83999997    2.82999992
   16.21305656  111.84999847    0.86000001    2.80999994
   16.21611214  110.97699738    0.89999998    2.80999994
   16.21944427  107.05699921    0.89999998    2.80999994
   16.22249985  104.19699860    0.89999998    2.82999992
   16.22416687  107.84700012    0.89999998    2.82999992
   16.22611237  109.69999695    0.98000002    2.80999994
   16.23166656  109.69999695    1.03999996    2.80999994
   16.23583412  104.06099701    1.05999994    2.80999994
   16.23916626  110.78299713    1.05999994    2.80999994
   16.24250031  105.53800201    1.07000005    2.80999994
   16.24555588  111.42500305    1.07000005    2.78999996
   16.24888992  106.53600311    1.09000003    2.80999994
   16.25194359  102.78900146    1.11000001    2.80999994
   16.25527763  103.92700195    1.11000001    2.80999994
   16.25749969  110.45300293    1.13000000    2.78999996
   16.25888824  106.02600098    1.13000000    2.80999994
   16.26222229  104.50199890    1.13000000    2.80999994
   16.26527786  114.23799896    1.13000000    2.80999994
   16.26861000  114.50199890    1.13000000    2.80999994
   16.27472115  114.50199890    1.11000001    2.80999994
   16.27861023  117.31199646    1.11000001    2.80999994
   16.29083252  116.06300354    0.00000000    0.00000000
   16.30805397  110.75000000    1.03999996    2.82999992
   16.31083298  109.68399811    1.03999996    2.80999994
   16.31416512  119.58300018    1.05999994    2.80999994
   16.31833458  119.58300018    1.05999994    2.80999994
   16.33166695  107.66400146    0.00000000    0.00000000
   16.33222389  114.94599915    1.07000005    2.80999994
   16.33527756  128.26699829    1.07000005    2.80999994
   16.33833313  115.82800293    1.05999994    2.80999994
   16.34166718  122.22599792    1.03999996    2.80999994
   16.34500122  107.16200256    1.05999994    2.80999994
   16.34805679  113.78099823    1.07000005    2.80999994
   16.35138893  109.76599884    1.07000005    2.80999994
   16.35444450  117.07099915    1.07000005    2.80999994
   16.36111069  117.07099915    1.11000001    2.80999994
   16.36527824  112.40100098    1.16999996    2.82999992
   16.36583328  114.49400330    1.16999996    2.82999992
   16.36916733  113.84100342    1.16999996    2.82999992
   16.37249947  119.87599945    1.16999996    2.80999994
   16.37555504  103.07099915    1.23000002    2.78999996
   16.37888908  114.03600311    1.25000000    2.80999994
   16.38194466  101.03299713    1.25000000    2.78999996
   16.38527679  101.99600220    1.25000000    2.80999994
   16.38861084  105.33899689    1.28999996    2.78999996
   16.39194489  108.61100006    1.28999996    2.78999996
   16.39500046  109.09200287    1.30999994    2.78999996
   16.39833260  104.59700012    1.30999994    2.78999996
   16.39916611  103.16200256    1.30999994    2.78999996
   16.40416718  103.16200256    1.26999998    2.78999996
   16.40805435  120.27100372    1.23000002    2.78999996
   16.41138840  113.82499695    1.23000002    2.78999996
   16.41472244  114.84899902    1.25000000    2.80999994
   16.41777802  123.33599854    1.26999998    2.80999994
   16.42166519  109.77500153    1.25000000    2.78999996
   16.42499924  112.07199860    1.25000000    2.80999994
   16.42833328  111.36799622    1.25000000    2.78999996
   16.43138885  119.21199799    1.19000006    2.80999994
   16.43249893  121.16400146    1.19000006    2.80999994
   16.43499947  126.26799774    1.19000006    2.80999994
   16.43805504  127.35299683    1.16999996    2.80999994
   16.44138718  114.08000183    1.14999998    2.80999994
   16.44694328  114.08000183    1.13000000    2.80999994
   16.45111275  128.32899475    1.13000000    2.80999994
   16.46277809  125.69999695    0.00000000    0.00000000
   16.46583366  120.71800232    1.14999998    2.78999996
   16.46638870  116.67500305    1.14999998    2.78999996
   16.46972275  118.83899689    1.16999996    2.78999996
   16.47277832  104.61900330    1.14999998    2.78999996
   16.48500061  126.40599823    0.00000000    0.00000000
   16.48805618  119.42199707    1.19000006    2.80999994
   16.49444389  119.42199707    1.21000004    2.78999996
   16.49861145  112.15399933    1.19000006    2.80999994
   16.50055504  116.60199738    1.16999996    2.78999996
   16.50222206  120.22699738    1.14999998    2.80999994
   16.50527763  112.58599854    1.14999998    2.78999996
   16.50861168  118.93900299    1.14999998    2.80999994
   16.51194382  117.16500092    1.14999998    2.80999994
   16.51527786  121.75700378    1.09000003    2.80999994
   16.51833344  108.14099884    1.09000003    2.80999994
   16.52166557  110.40499878    1.07000005    2.80999994
   16.52472115  116.98200226    1.07000005    2.80999994
   16.52805519  117.63200378    1.07000005    2.80999994
   16.53138924  112.16999817    1.07000005    2.80999994
   16.54611015  112.16999817    1.03999996    2.80999994
   16.55027771  119.43299866    1.05999994    2.80999994
   16.55360985  123.10800171    1.03999996    2.80999994
   16.55694389  110.38700104    1.03999996    2.80999994
   16.55999947  109.45300293    1.05999994    2.80999994
   16.56333351  118.78199768    1.05999994    2.82999992
   16.56666756  125.03600311    1.05999994    2.82999992
   16.56805611  113.64800262    1.05999994    2.80999994
   16.57027817  118.33999634    1.05999994    2.80999994
   16.57333374  116.09100342    1.05999994    2.80999994
   16.58000183  116.09100342    1.05999994    2.80999994
   16.58416748  114.59799957    1.05999994    2.80999994
   16.58722305  113.00399780    1.09000003    2.80999994
   16.59083366  121.76300049    1.09000003    2.80999994
   16.59416771  119.04699707    1.09000003    2.80999994
   16.59722328  128.27999878    1.09000003    2.80999994
   16.60083389  118.49199677    1.07000005    2.80999994
   16.60138893  120.32399750    1.07000005    2.80999994
   16.60444450  122.77999878    1.09000003    2.80999994
   16.60750008  128.68099976    1.07000005    2.80999994
   16.61083412  132.61099243    1.05999994    2.78999996
   16.61416626  128.75999451    1.07000005    2.80999994
   16.61722183  130.72799683    1.05999994    2.80999994
   16.62277794  130.72799683    1.05999994    2.80999994
   16.63611031  125.99400330    0.00000000    0.00000000
   16.63666725  126.52100372    1.07000005    2.78999996
   16.63972282  126.73400116    1.07000005    2.80999994
   16.64277840  128.74499512    1.03999996    2.82999992
   16.64611053  113.44400024    1.03999996    2.80999994
   16.65833282  118.55400085    0.00000000    0.00000000
   16.66166687  125.88300323    1.05999994    2.80999994
   16.66777802  125.88300323    1.03999996    2.80999994
   16.67194366  120.50599670    1.03999996    2.80999994
   16.67388916  133.20599365    1.05999994    2.82999992
   16.67555428  130.40600586    1.05999994    2.82999992
   16.67888832  126.59400177    1.05999994    2.80999994
   16.68194389  131.55700684    1.05999994    2.80999994
   16.68527603  126.70400238    1.07000005    2.78999996
   16.68861008  133.35800171    1.07000005    2.78999996
   16.69166565  131.05299377    1.05999994    2.80999994
   16.69499969  136.70500183    1.05999994    2.80999994
   16.69805527  119.79100037    1.05999994    2.80999994
   16.70138931  125.62799835    1.01999998    2.80999994
   16.70472336  129.94000244    1.01999998    2.80999994
   16.71222305  129.94000244    0.94000000    2.80999994
   16.73055649  126.32299805    0.94000000    2.80999994
   16.73388863  131.72799683    0.95999998    2.80999994
   16.73722267  130.67999268    0.98000002    2.80999994
   16.74027824  136.42999268    0.98000002    2.80999994
   16.74166679  125.60700226    1.01999998    2.82999992
   16.74388885  132.21899414    1.01999998    2.82999992
   16.74722290  133.24000549    1.03999996    2.80999994
   16.75333405  133.24000549    1.07000005    2.80999994
   16.75749969  114.18299866    1.09000003    2.80999994
   16.76083374  118.67700195    1.13000000    2.78999996
   16.76416588  133.33000183    1.13000000    2.78999996
   16.76722145  116.62799835    1.21000004    2.78999996
   16.77055550  119.91999817    1.21000004    2.80999994
   16.77361107  125.27999878    1.21000004    2.80999994
   16.77472115  113.62899780    1.21000004    2.78999996
   16.77722168  122.41100311    1.21000004    2.78999996
   16.78055573  111.76999664    1.26999998    2.80999994
   16.78361130  122.19400024    1.28999996    2.78999996
   16.79611015  123.50099945    0.00000000    0.00000000
   16.80027771  123.50099945    1.28999996    2.80999994
   16.80444336  133.32000732    1.30999994    2.78999996
   16.80749893  137.56700134    1.30999994    2.78999996
   16.81083298  121.01399994    1.28999996    2.78999996
   16.81166649  132.40899658    1.28999996    2.78999996
   16.81444359  122.46600342    1.28999996    2.78999996
   16.81777954  119.28500366    1.26999998    2.78999996
   16.82083511  115.42900085    1.23000002    2.78999996
   16.83277893  124.43000031    0.00000000    0.00000000
   16.83611107  118.71399689    1.14999998    2.80999994
   16.83916664  121.28600311    1.14999998    2.78999996
   16.84333420  121.28600311    1.14999998    2.80999994
   16.84805679  123.40699768    1.14999998    2.80999994
   16.84861183  120.99900055    1.16999996    2.80999994
   16.85166740  116.00499725    1.16999996    2.80999994
   16.85472298  118.71099854    1.19000006    2.80999994
   16.85805511  121.12799835    1.19000006    2.78999996
   16.86111069  121.21600342    1.25000000    2.78999996
   16.86444473  120.25199890    1.28999996    2.80999994
   16.86777878  118.08499908    1.30999994    2.78999996
   16.87083435  111.98899841    1.30999994    2.78999996
   16.87416649  130.47599792    1.33000004    2.78999996
   16.87750053  122.13700104    1.34000003    2.78999996
   16.88055611  116.47899628    1.38000000    2.78999996
   16.88194466  118.22100067    1.38000000    2.78999996
   16.88611031  118.22100067    1.39999998    2.78999996
   16.89027786  118.69300079    1.46000004    2.78999996
   16.89361191  131.71499634    1.44000006    2.78999996
   16.89666748  126.12200165    1.44000006    2.78999996
   16.89999962  123.74600220    1.46000004    2.76999998
   16.90333366  123.55699921    1.39999998    2.78999996
   16.90666580  126.47799683    1.36000001    2.78999996
   16.90972137  135.53100586    1.36000001    2.78999996
   16.91305542  140.38499451    1.34000003    2.78999996
   16.91527748  138.12399292    1.33000004    2.78999996
   16.91666603  125.61900330    1.33000004    2.78999996
   16.91972160  125.93099976    1.30999994    2.78999996
   16.92305565  126.56500244    1.26999998    2.78999996
   16.92916679  126.56500244    1.23000002    2.80999994
   16.93305397  126.72000122    1.23000002    2.80999994
   16.93638802  112.41899872    1.23000002    2.80999994
   16.93972206  128.61000061    1.25000000    2.80999994
   16.94277763  130.01199341    1.26999998    2.80999994
   16.94610977  126.59100342    1.28999996    2.78999996
   16.94861031  115.82700348    1.38000000    2.78999996
   16.94972038  116.02100372    1.36000001    2.78999996
   16.95277786  126.87400055    1.36000001    2.78999996
   16.95611191  112.54699707    1.36000001    2.78999996
   16.95944595  126.32099915    1.36000001    2.78999996
   16.97166634  119.92700195    0.00000000    0.00000000
   16.97583389  119.92700195    1.41999996    2.78999996
   16.98000145  127.50099945    1.41999996    2.76999998
   16.98305511  131.11500549    1.44000006    2.78999996
   16.98638916  119.65399933    1.44000006    2.78999996
   16.98722267  116.83300018    1.44000006    2.78999996
   16.98999977  130.58599854    1.46000004    2.78999996
   16.99333382  132.97099304    1.46000004    2.76999998
   16.99638939  127.05999756    1.48000002    2.78999996
   17.00111198  127.19300079    1.44000006    2.78999996
   17.00416756  117.97699738    1.44000006    2.78999996
   17.00749969  109.86399841    1.44000006    2.78999996
   17.01083374  134.12899780    1.44000006    2.78999996
   17.01388931  144.25399780    1.41999996    2.76999998
   17.01861000  144.25399780    1.36000001    2.78999996
   17.03166580  121.48899841    0.00000000    0.00000000
   17.03499985  110.78199768    1.26999998    2.78999996
   17.03805542  123.96700287    1.26999998    2.78999996
   17.04138756  118.08200073    1.25000000    2.78999996
   17.04444313  122.17099762    1.25000000    2.78999996
   17.04861069   99.83560181    1.25000000    2.78999996
   17.05166626  119.39399719    1.25000000    2.78999996
   17.05388832  109.76300049    1.25000000    2.78999996
   17.05527687  115.25900269    1.25000000    2.80999994
   17.06277657  115.25900269    1.23000002    2.80999994
   17.06694603  115.86900330    1.25000000    2.80999994
   17.07027817  112.73699951    1.25000000    2.78999996
   17.07361221  112.88099670    1.28999996    2.80999994
   17.07666779  117.43000031    1.28999996    2.80999994
   17.08000183  126.75000000    1.28999996    2.80999994
   17.08305550  122.37899780    1.30999994    2.78999996
   17.08638954  118.66699982    1.30999994    2.80999994
   17.08722305  121.93099976    1.30999994    2.80999994
   17.09000015  120.64199829    1.30999994    2.78999996
   17.09333420  119.60900116    1.30999994    2.80999994
   17.09638977  130.20500183    1.30999994    2.80999994
   17.09972191  129.14500427    1.33000004    2.80999994
   17.10444450  129.14500427    1.33000004    2.78999996
   17.10833359  136.26800537    1.30999994    2.78999996
   17.11166763  136.16600037    1.30999994    2.78999996
   17.11499977  128.14999390    1.30999994    2.80999994
   17.11805534  137.02600098    1.30999994    2.78999996
   17.12083435  130.76100159    1.30999994    2.80999994
   17.12194443  134.83399963    1.30999994    2.80999994
   17.13388824  132.10899353    0.00000000    0.00000000
   17.13722229  133.79200745    1.25000000    2.80999994
   17.14027786  124.17700195    1.25000000    2.80999994
   17.14722252  124.17700195    1.23000002    2.78999996
   17.16055489  138.42900085    0.00000000    0.00000000
   17.16110992  141.96299744    1.25000000    2.78999996
   17.16416550  136.66700745    1.23000002    2.78999996
   17.16722107  156.26899719    1.21000004    2.80999994
   17.17055511  153.12500000    1.16999996    2.80999994
   17.18055534  153.38999939    0.00000000    0.00000000
   17.18388748  146.78500366    1.09000003    2.80999994
   17.18999863  146.78500366    1.07000005    2.80999994
   17.19416618  149.22500610    1.07000005    2.80999994
   17.19610977  145.70199585    1.07000005    2.80999994
   17.19777679  147.81500244    1.07000005    2.80999994
   17.20111275  137.95199585    1.07000005    2.80999994
   17.20416832  148.62600708    1.05999994    2.80999994
   17.20750046  149.95500183    1.03999996    2.80999994
   17.21055603  144.59899902    1.05999994    2.80999994
   17.21389008  143.75999451    1.01999998    2.82999992
   17.21722221  147.78999329    1.01999998    2.82999992
   17.22083473  140.50599670    1.01999998    2.82999992
   17.22389030  138.41900635    1.01999998    2.82999992
   17.22722244  135.11000061    0.98000002    2.80999994
   17.23277855  135.11000061    0.95999998    2.80999994
   17.23694420  135.91999817    0.95999998    2.80999994
   17.24027824  139.90800476    0.92000002    2.82999992
   17.24333382  133.76300049    0.89999998    2.82999992
   17.24666786  129.83799744    0.89999998    2.82999992
   17.25000000  148.89199829    0.92000002    2.82999992
   17.25333405  147.14799500    0.89999998    2.82999992
   17.25638962  123.95200348    0.89999998    2.82999992
   17.25972176  135.49299622    0.88000000    2.84999990
   17.26305580  128.38900757    0.86000001    2.82999992
   17.26388931  141.84500122    0.86000001    2.82999992
   17.26666641  141.38999939    0.83999997    2.82999992
   17.27000046  137.40299988    0.88000000    2.82999992
   17.27583313  137.40299988    0.88000000    2.82999992
   17.27972221  139.39500427    0.92000002    2.82999992
   17.28305435  136.77099609    0.94000000    2.80999994
   17.28638840  135.24200439    0.95999998    2.80999994
   17.28944397  140.57699585    0.95999998    2.82999992
   17.29277802  138.30499268    0.95999998    2.82999992
   17.29611015  141.48399353    0.95999998    2.82999992
   17.29722214  144.84599304    0.95999998    2.82999992
   17.29944420  135.23699951    0.98000002    2.80999994
   17.30277634  127.37400055    1.01999998    2.80999994
   17.30611038  132.89900208    1.01999998    2.80999994
   17.30916595  138.58500671    1.01999998    2.80999994
   17.31250000  164.22000122    1.01999998    2.80999994
   17.31861115  164.22000122    1.03999996    2.80999994
   17.32277870  129.85699463    1.01999998    2.82999992
   17.32583427  124.86499786    1.01999998    2.82999992
   17.32916832  124.69400024    1.03999996    2.80999994
   17.33055687  131.81700134    1.03999996    2.80999994
   17.33277893  130.72200012    1.01999998    2.80999994
   17.33611107  117.02400208    1.01999998    2.80999994
   17.33916664  131.81900024    1.00000000    2.82999992
   17.34250069  131.24600220    0.95999998    2.80999994
   17.34555626  130.20500183    0.95999998    2.80999994
   17.34889030  140.76899719    0.95999998    2.82999992
   17.35222244  122.19400024    0.95999998    2.82999992
   17.35527802  135.31799316    0.95999998    2.82999992
   17.36138916  135.31799316    0.95999998    2.80999994
   17.36555672  129.91999817    0.94000000    2.82999992
   17.36888885  135.26400757    0.94000000    2.82999992
   17.37194443  129.30000305    0.94000000    2.82999992
   17.37527847  113.74800110    0.89999998    2.82999992
   17.37833405  138.49899292    0.88000000    2.82999992
   17.38166618  134.61199951    0.88000000    2.82999992
   17.38500023  126.40299988    0.88000000    2.82999992
   17.38805580  140.19799805    0.88000000    2.82999992
   17.39138794  134.12800598    0.88000000    2.82999992
   17.39472198  126.74600220    0.88000000    2.82999992
   17.39722252  133.52400208    0.88000000    2.82999992
   17.39833260  146.07600403    0.89999998    2.82999992
   17.40416718  146.07600403    0.89999998    2.82999992
   17.40833282  132.58099365    0.92000002    2.82999992
   17.41166687  129.70599365    0.92000002    2.82999992
   17.41472244  128.39100647    0.89999998    2.80999994
   17.41805458  128.85899353    0.92000002    2.80999994
   17.42138863  131.47000122    0.89999998    2.80999994
   17.42444420  133.69999695    0.89999998    2.80999994
   17.42777634  132.74899292    0.89999998    2.80999994
   17.43055534  133.60899353    0.89999998    2.80999994
   17.43138885  137.78599548    0.88000000    2.82999992
   17.43472099  133.08700562    0.86000001    2.82999992
   17.43777657  133.31599426    0.86000001    2.82999992
   17.44111061  137.42599487    0.86000001    2.80999994
   17.44722176  137.42599487    0.83999997    2.84999990
   17.45111275  134.80700684    0.86000001    2.82999992
   17.45444489  130.70599365    0.83999997    2.82999992
   17.45777893  137.59599304    0.83999997    2.82999992
   17.46083450  132.51199341    0.88000000    2.82999992
   17.46389008  141.83799744    0.88000000    2.82999992
   17.46444511  136.42799377    0.88000000    2.82999992
   17.46777916  128.36799622    0.88000000    2.82999992
   17.47083473  133.52999878    0.89999998    2.82999992
   17.47416687  137.28399658    0.89999998    2.82999992
   17.47750092  137.33799744    0.89999998    2.82999992
   17.48055649  126.12699890    0.88000000    2.82999992
   17.48388863  142.48599243    0.86000001    2.82999992
   17.48999977  142.48599243    0.86000001    2.82999992
   17.49416733  131.66299438    0.86000001    2.82999992
   17.49722290  133.54800415    0.86000001    2.82999992
   17.49777794  132.26100159    0.86000001    2.82999992
   17.50111198  125.91600037    0.88000000    2.82999992
   17.50416756  133.09399414    0.89999998    2.82999992
   17.50749969  133.99699402    0.89999998    2.82999992
   17.51083374  131.68899536    0.89999998    2.82999992
   17.51388931  133.13499451    0.92000002    2.82999992
   17.51722145  131.90299988    0.92000002    2.82999992
   17.52027702  137.78399658    0.92000002    2.82999992
   17.52361107  133.96299744    0.92000002    2.82999992
   17.52694511  134.41200256    0.92000002    2.82999992
   17.53277779  134.41200256    0.89999998    2.82999992
   17.53694344  130.63499451    0.89999998    2.82999992
   17.54027748  128.15899658    0.89999998    2.82999992
   17.54333305  129.14100647    0.89999998    2.82999992
   17.54666710  136.96400452    0.89999998    2.82999992
   17.54972076  132.72599792    0.89999998    2.82999992
   17.55305481  135.91499329    0.89999998    2.82999992
   17.55638885  140.40699768    0.89999998    2.82999992
   17.55944443  129.90800476    0.86000001    2.82999992
   17.56277657  133.08900452    0.83999997    2.82999992
   17.56416512  134.07299805    0.83999997    2.82999992
   17.56638718  128.22099304    0.83999997    2.82999992
   17.56972313  135.60200500    0.81999999    2.82999992
   17.57555580  135.60200500    0.83999997    2.82999992
   17.57972336  136.60899353    0.81999999    2.82999992
   17.58305550  131.46000671    0.81999999    2.84999990
   17.58638954  131.16700745    0.81999999    2.84999990
   17.58944511  128.38499451    0.80000001    2.84999990
   17.59277916  134.96099854    0.79000002    2.84999990
   17.59583473  121.28600311    0.80000001    2.82999992
   17.59722328  135.59500122    0.80000001    2.82999992
   17.59944534  131.31500244    0.80000001    2.84999990
   17.60277748  136.15800476    0.80000001    2.84999990
   17.60583305  136.57200623    0.81999999    2.82999992
   17.60916710  138.33700562    0.80000001    2.82999992
   17.61250114  141.60400391    0.80000001    2.84999990
   17.61861038  141.60400391    0.80000001    2.84999990
   17.62249947  128.05900574    0.81999999    2.82999992
   17.62583351  141.24099731    0.83999997    2.82999992
   17.62916756  135.76699829    0.81999999    2.82999992
   17.63083267  140.23500061    0.81999999    2.82999992
   17.63277817  139.31599426    0.81999999    2.82999992
   17.63583374  137.96400452    0.81999999    2.82999992
   17.63916588  139.34300232    0.79000002    2.82999992
   17.64249992  145.83299255    0.79000002    2.82999992
   17.64583397  148.53100586    0.80000001    2.82999992
   17.64888954  144.06700134    0.80000001    2.82999992
   17.65250015  142.20799255    0.81999999    2.82999992
   17.65583229  161.61099243    0.80000001    2.82999992
   17.66138840  161.61099243    0.80000001    2.82999992
   17.66555595  161.00799561    0.83999997    2.82999992
   17.66860962  147.52400208    0.83999997    2.82999992
   17.67194366  152.32600403    0.92000002    2.82999992
   17.67527771  147.05099487    0.92000002    2.82999992
   17.67860985  158.01300049    0.92000002    2.82999992
   17.68166542  156.01899719    0.92000002    2.82999992
   17.68499947  143.43400574    0.94000000    2.82999992
   17.68805504  143.35499573    0.94000000    2.82999992
   17.69138718  154.00500488    0.95999998    2.82999992
   17.69472122  150.12699890    0.94000000    2.82999992
   17.69749832  139.87199402    0.94000000    2.82999992
   17.69833183  153.05400085    0.94000000    2.82999992
   17.70416832  153.05400085    0.94000000    2.84999990
   17.70833397  144.23899841    0.94000000    2.82999992
   17.71166801  142.96099854    0.94000000    2.82999992
   17.71500015  139.95300293    0.94000000    2.82999992
   17.72888947  151.85400391    0.00000000    0.00000000
   17.73083305  142.18800354    0.92000002    2.82999992
   17.73250008  146.57200623    0.92000002    2.82999992
   17.73583412  141.61399841    0.92000002    2.82999992
   17.73888969  139.17599487    0.92000002    2.82999992
   17.74222183  144.03399658    0.95999998    2.80999994
   17.74527740  141.45599365    0.98000002    2.82999992
   17.76638794  141.45599365    0.89999998    2.82999992
   17.77055550  136.69099426    0.86000001    2.82999992
   17.77388954  142.64599609    0.83999997    2.82999992
   17.77722168  144.88900757    0.83999997    2.84999990
   17.78027725  142.22599792    0.81999999    2.82999992
   17.78361130  139.37800598    0.81999999    2.82999992
   17.79166603  135.80599976    0.81999999    2.82999992
   17.79500008  139.60600281    0.83999997    2.82999992
   17.80638885  137.65400696    0.88000000    2.82999992
   17.80722237  141.85800171    0.88000000    2.82999992
   17.81916809  148.12100220    0.00000000    0.00000000
   17.82333374  148.12100220    0.83999997    2.84999990
   17.82750130  144.27600098    0.81999999    2.82999992
   17.83055687  140.97999573    0.80000001    2.84999990
   17.83388901  145.50599670    0.80000001    2.82999992
   17.83472252  140.92300415    0.80000001    2.82999992
   17.83750153  148.84899902    0.80000001    2.82999992
   17.84083366  141.62800598    0.80000001    2.82999992
   17.84388924  132.76699829    0.80000001    2.84999990
   17.85416794  138.64900208    0.00000000    0.00000000
   17.85750008  145.14399719    0.80000001    2.82999992
   17.86055565  152.88099670    0.80000001    2.82999992
   17.86638832  152.88099670    0.80000001    2.84999990
   17.87166595  128.62899780    0.81999999    2.84999990
   17.87472153  137.89999390    0.81999999    2.82999992
   17.87805557  143.74099731    0.83999997    2.82999992
   17.89055634  144.43800354    0.00000000    0.00000000
   17.89388847  137.13800049    0.81999999    2.82999992
   17.89694405  147.49800110    0.81999999    2.82999992
   17.90027809  131.72999573    0.81999999    2.82999992
   17.90361023  140.72399902    0.81999999    2.82999992
   17.91499901  138.13200378    0.81999999    2.82999992
   17.91611099  128.63900757    0.81999999    2.82999992
   17.91944313  136.63699341    0.81999999    2.82999992
   17.92444420  136.63699341    0.81999999    2.82999992
   17.92916679  134.17399597    0.81999999    2.82999992
   17.93249893  138.54400635    0.81999999    2.82999992
   17.93583298  132.20500183    0.81999999    2.82999992
   17.93888855  131.84800720    0.81999999    2.82999992
   17.93972206  139.07499695    0.81999999    2.82999992
   17.94249916  126.63999939    0.83999997    2.82999992
   17.94583321  129.53300476    0.83999997    2.82999992
   17.94888878  128.11599731    0.83999997    2.82999992
   17.95222282  138.16900635    0.83999997    2.82999992
   17.95555687  123.90299988    0.83999997    2.82999992
   17.95861244  128.61300659    0.81999999    2.80999994
   17.96194458  123.11799622    0.81999999    2.82999992
   17.96750069  123.11799622    0.83999997    2.82999992
   17.97138977  124.98300171    0.83999997    2.80999994
   17.97305679  121.22000122    0.83999997    2.80999994
   17.98416710  125.08999634    0.00000000    0.00000000
   17.98722267  121.61100006    0.81999999    2.82999992
   17.99055672  123.00599670    0.81999999    2.82999992
   17.99388885  123.85099792    0.81999999    2.82999992
   17.99694443  120.20099640    0.81999999    2.82999992
   18.00027847  123.60299683    0.83999997    2.82999992
   18.00333405  129.77400208    0.86000001    2.82999992
   18.00638962  122.88200378    0.86000001    2.82999992
   18.00694466  121.18800354    0.86000001    2.82999992
   18.01305580  121.18800354    0.86000001    2.82999992
   18.01694489  135.99400330    0.86000001    2.82999992
   18.02027702  129.78999329    0.86000001    2.82999992
   18.02361107  126.64700317    0.88000000    2.82999992
   18.02666664  126.65599823    0.88000000    2.82999992
   18.03000069  127.82399750    0.88000000    2.80999994
   18.03333282  131.62199402    0.88000000    2.82999992
   18.03638840  131.35800171    0.86000001    2.82999992
   18.03972244  127.84200287    0.83999997    2.82999992
   18.03999901  124.09799957    0.83999997    2.82999992
   18.04333305  127.23300171    0.83999997    2.82999992
   18.04638863  131.91799927    0.83999997    2.82999992
   18.04972076  130.95399475    0.83999997    2.82999992
   18.05444336  130.95399475    0.83999997    2.82999992
   18.05861092  131.97200012    0.83999997    2.82999992
   18.06194305  133.34599304    0.83999997    2.82999992
   18.06499863  140.15499878    0.83999997    2.82999992
   18.06861115  143.10099792    0.86000001    2.82999992
   18.07166672  139.50399780    0.83999997    2.84999990
   18.07305717  144.82800293    0.83999997    2.84999990
   18.07527924  139.34800720    0.86000001    2.80999994
   18.07861137  141.39399719    0.86000001    2.84999990
   18.08194542  140.60000610    0.86000001    2.82999992
   18.08500099  146.97999573    0.86000001    2.82999992
   18.08833313  143.59800720    0.86000001    2.82999992
   18.09138870  132.44000244    0.86000001    2.82999992
   18.09749985  132.44000244    0.86000001    2.82999992
   18.10138893  129.36900330    0.86000001    2.82999992
   18.10472298  131.64599609    0.86000001    2.82999992
   18.10639000  134.46899414    0.86000001    2.82999992
   18.10833359  133.11399841    0.86000001    2.82999992
   18.11194420  138.62300110    0.86000001    2.82999992
   18.11527824  139.08299255    0.86000001    2.82999992
   18.11833382  139.11099243    0.88000000    2.80999994
   18.12166595  122.85099792    0.86000001    2.82999992
   18.12500000  133.33099365    0.88000000    2.82999992
   18.12805557  136.76199341    0.88000000    2.82999992
   18.13138962  132.49699402    0.88000000    2.82999992
   18.13472176  135.87600708    0.88000000    2.82999992
   18.14027786  135.87600708    0.88000000    2.82999992
   18.14444351  133.59700012    0.88000000    2.82999992
   18.15611076  134.62300110    0.00000000    0.00000000
   18.15944481  139.72700500    0.88000000    2.82999992
   18.16250038  133.85400391    0.88000000    2.82999992
   18.16583252  144.55499268    0.88000000    2.82999992
   18.16916656  137.35200500    0.89999998    2.82999992
   18.17277718  140.30299377    0.89999998    2.80999994
   18.17333221  141.91499329    0.89999998    2.80999994
   18.17611122  130.19799805    0.89999998    2.80999994
   18.17944336  133.89100647    0.89999998    2.82999992
   18.20194435  133.89100647    0.00000000    0.00000000
   18.20611191  132.71200562    0.89999998    2.82999992
   18.20916748  143.99099731    0.89999998    2.82999992
   18.23111153  135.01499939    0.92000002    2.80999994
   18.23194504  141.60600281    0.92000002    2.80999994
   18.23472214  135.96000671    0.92000002    2.80999994
   18.24055672  135.96000671    0.92000002    2.80999994
   18.24472237  132.21299744    0.95999998    2.80999994
   18.24805641  137.94799805    0.94000000    2.80999994
   18.25111198  136.30099487    0.94000000    2.80999994
   18.26916695  132.19700623    0.95999998    2.80999994
   18.26972198  148.18800354    0.98000002    2.80999994
   18.27277756  141.88699341    0.98000002    2.80999994
   18.27583313  134.09700012    1.00000000    2.80999994
   18.27916718  152.69799805    1.00000000    2.80999994
   18.28222275  150.59500122    0.98000002    2.80999994
   18.28555489  141.37500000    0.98000002    2.80999994
   18.28888893  146.79400635    1.00000000    2.82999992
   18.29194450  141.07800293    1.01999998    2.78999996
   18.29666710  141.07800293    1.03999996    2.80999994
   18.30944443  157.27900696    1.00000000    2.80999994
   18.31972313  140.55400085    1.00000000    2.80999994
   18.32277870  157.13400269    1.01999998    2.80999994
   18.32583427  141.35400391    1.01999998    2.80999994
   18.32916832  140.98300171    1.01999998    2.80999994
   18.33250046  149.95500183    1.00000000    2.80999994
   18.33555603  136.21899414    1.00000000    2.80999994
   18.33889008  144.33299255    1.01999998    2.78999996
   18.34222221  143.75799561    1.01999998    2.80999994
   18.36083412  141.91999817    1.05999994    2.80999994
   18.36499977  141.91999817    1.03999996    2.80999994
   18.36888885  126.37799835    1.03999996    2.78999996
   18.38166618  125.04599762    0.00000000    0.00000000
   18.38222313  116.25900269    1.03999996    2.80999994
   18.38527679  121.47699738    1.03999996    2.80999994
   18.38833237  120.91000366    1.03999996    2.80999994
   18.39166641  126.43800354    1.03999996    2.80999994
   18.39500046  116.01699829    1.03999996    2.80999994
   18.39805603  129.95300293    1.03999996    2.80999994
   18.40138817  135.83700562    1.05999994    2.80999994
   18.40472221  133.07699585    1.05999994    2.80999994
   18.40916634  133.07699585    1.05999994    2.80999994
   18.41333389  123.31800079    1.05999994    2.80999994
   18.41555595  124.51699829    1.05999994    2.80999994
   18.41722107  129.17599487    1.05999994    2.78999996
   18.42027664  128.03399658    1.05999994    2.80999994
   18.42361069  134.19599915    1.05999994    2.80999994
   18.42694473  129.09399414    1.05999994    2.80999994
   18.43027687  144.17599487    1.05999994    2.80999994
   18.43333244  142.07499695    1.03999996    2.80999994
   18.43666649  140.97500610    1.03999996    2.80999994
   18.43999863  139.14599609    1.03999996    2.80999994
   18.44305420  144.46699524    1.03999996    2.80999994
   18.44638824  139.60200500    1.03999996    2.78999996
   18.45222282  139.60200500    1.03999996    2.80999994
   18.45639038  131.19700623    1.03999996    2.78999996
   18.45944595  126.05999756    1.05999994    2.80999994
   18.46277809  143.46899414    1.05999994    2.80999994
   18.46611214  145.47300720    1.05999994    2.80999994
   18.46916771  141.93400574    1.05999994    2.80999994
   18.47249985  135.24099731    1.05999994    2.80999994
   18.47555542  130.59899902    1.05999994    2.80999994
   18.47888947  158.07699585    1.05999994    2.80999994
   18.48222351  145.53300476    1.05999994    2.80999994
   18.48305511  141.77400208    1.05999994    2.80999994
   18.48583412  138.49899292    1.05999994    2.80999994
   18.50611115  142.81799316    0.00000000    0.00000000
   18.51027870  142.81799316    1.05999994    2.80999994
   18.51444435  126.66600037    1.05999994    2.80999994
   18.51777840  134.69500732    1.05999994    2.80999994
   18.52083397  128.85299683    1.05999994    2.80999994
   18.52194405  125.62899780    1.05999994    2.80999994
   18.52444458  134.93400574    1.05999994    2.80999994
   18.52777672  128.67999268    1.05999994    2.80999994
   18.53083229  129.58700562    1.05999994    2.80999994
   18.53416634  144.81399536    1.05999994    2.80999994
   18.53750038  146.50300598    1.05999994    2.82999992
   18.54055595  142.36799622    1.05999994    2.80999994
   18.54388809  138.97500610    1.05999994    2.80999994
   18.54722214  159.30099487    1.07000005    2.80999994
   18.55333328  159.30099487    1.07000005    2.80999994
   18.55722237  132.72399902    1.07000005    2.80999994
   18.56055450  140.13900757    1.07000005    2.80999994
   18.56388855  134.94900513    1.07000005    2.80999994
   18.56722260  132.21600342    1.07000005    2.80999994
   18.57055664  145.90499878    1.09000003    2.80999994
   18.57389069  131.37399292    1.09000003    2.80999994
   18.57722282  136.69000244    1.09000003    2.80999994
   18.58027840  130.36099243    1.11000001    2.80999994
   18.58361244  135.08900452    1.11000001    2.80999994
   18.58666801  134.66499329    1.11000001    2.78999996
   18.58861160  124.28299713    1.11000001    2.80999994
   18.59027863  129.50900269    1.11000001    2.80999994
   18.59583473  129.50900269    1.11000001    2.80999994
   18.60000038  118.42700195    1.11000001    2.78999996
   18.60333443  110.30999756    1.11000001    2.80999994
   18.60666656  115.15799713    1.11000001    2.80999994
   18.60972214  114.65899658    1.11000001    2.78999996
   18.61305618  115.87500000    1.11000001    2.80999994
   18.61638832  112.13899994    1.13000000    2.80999994
   18.61944389  119.71499634    1.13000000    2.80999994
   18.62194443  120.22699738    1.13000000    2.80999994
   18.62305641  116.22899628    1.13000000    2.80999994
   18.62638855  116.36199951    1.11000001    2.80999994
   18.62972260  112.39700317    1.11000001    2.80999994
   18.63277817  109.23899841    1.11000001    2.80999994
   18.63888931  109.23899841    1.13000000    2.80999994
   18.64305496  113.48500061    1.13000000    2.80999994
   18.64611053  114.91899872    1.13000000    2.80999994
   18.64944458  113.61100006    1.13000000    2.78999996
   18.65250015  116.77500153    1.14999998    2.78999996
   18.65527725  110.64199829    1.14999998    2.78999996
   18.66722107  114.36100006    0.00000000    0.00000000
   18.67055511  115.38700104    1.16999996    2.78999996
   18.67361069  115.54000092    1.16999996    2.78999996
   18.67694473  109.30200195    1.16999996    2.80999994
   18.68166542  109.30200195    1.16999996    2.80999994
   18.68583298  108.70400238    1.16999996    2.78999996
   18.68861008   99.67880249    1.16999996    2.78999996
   18.68944359  103.39600372    1.16999996    2.78999996
   18.69277763  107.82700348    1.16999996    2.78999996
   18.70166779  106.19499969    0.00000000    0.00000000
   18.70499992  109.27700043    1.19000006    2.78999996
   18.70833397  110.98000336    1.19000006    2.78999996
   18.71138954  100.63099670    1.19000006    2.78999996
   18.71472359  115.36499786    1.19000006    2.78999996
   18.72750092  113.07399750    0.00000000    0.00000000
   18.72805595  117.85600281    1.21000004    2.78999996
   18.73083305  107.71800232    1.21000004    2.78999996
   18.73694420  107.71800232    1.23000002    2.78999996
   18.74083328  112.16699982    1.23000002    2.78999996
   18.74416733  107.83200073    1.23000002    2.78999996
   18.74749947  105.05999756    1.23000002    2.78999996
   18.75083351  110.29499817    1.25000000    2.78999996
   18.75388908  105.70200348    1.23000002    2.78999996
   18.75722313  104.62400055    1.23000002    2.78999996
   18.76055527   99.98539734    1.23000002    2.78999996
   18.76138878  104.06600189    1.23000002    2.78999996
   18.76416588  106.60700226    1.23000002    2.78999996
   18.76749992  106.71199799    1.23000002    2.78999996
   18.77083397  103.97799683    1.23000002    2.78999996
   18.77388954  109.04299927    1.23000002    2.78999996
   18.77972221  109.04299927    1.23000002    2.78999996
   18.78388786  105.85399628    1.23000002    2.78999996
   18.78694344  107.64600372    1.23000002    2.78999996
   18.79027748  105.16699982    1.25000000    2.78999996
   18.79361153  116.74700165    1.26999998    2.78999996
   18.79472160  114.96600342    1.26999998    2.78999996
   18.79694366  107.16100311    1.28999996    2.76999998
   18.80027771  110.22200012    1.28999996    2.78999996
   18.80360985  106.69799805    1.26999998    2.78999996
   18.80666542  103.08799744    1.28999996    2.78999996
   18.80999947  103.53900146    1.28999996    2.78999996
   18.81305504  109.53800201    1.28999996    2.78999996
   18.81638718  105.40299988    1.30999994    2.78999996
   18.82250023  105.40299988    1.30999994    2.78999996
   18.82666779  104.56600189    1.28999996    2.78999996
   18.82805634   99.27130127    1.28999996    2.78999996
   18.83027840  104.65599823    1.28999996    2.78999996
   18.83361244  102.52899933    1.28999996    2.78999996
   18.85305595  109.21800232    1.28999996    2.78999996
   18.85639000  110.32499695    1.28999996    2.78999996
   18.85944557  116.47100067    1.28999996    2.78999996
   18.86138916  110.75499725    1.28999996    2.76999998
   18.86583328  110.75499725    1.28999996    2.78999996
   18.86972237  112.78800201    1.28999996    2.78999996
   18.87305641  118.38300323    1.30999994    2.76999998
   18.87638855  112.63899994    1.28999996    2.76999998
   18.87972260  112.58499908    1.30999994    2.78999996
   18.88277817  119.55799866    1.30999994    2.78999996
   18.88611031  119.92400360    1.30999994    2.76999998
   18.88944435  119.81900024    1.33000004    2.78999996
   18.89277840  111.50800323    1.33000004    2.76999998
   18.89472198  113.84200287    1.33000004    2.78999996
   18.89638901  130.80700684    1.33000004    2.78999996
   18.89972115  129.72099304    1.33000004    2.76999998
   18.90277672  120.26200104    1.33000004    2.76999998
   18.90833282  120.26200104    1.33000004    2.76999998
   18.91250038  121.46600342    1.33000004    2.76999998
   18.91583252  129.69799805    1.34000003    2.76999998
   18.91916656  121.04199982    1.34000003    2.76999998
   18.92222214  123.44200134    1.33000004    2.78999996
   18.92555428  129.54200745    1.33000004    2.76999998
   18.92805481  127.33399963    1.33000004    2.76999998
   18.92916679  128.02799988    1.30999994    2.78999996
   18.93222237  131.43699646    1.30999994    2.78999996
   18.93555450  140.67300415    1.30999994    2.78999996
   18.93888855  131.53100586    1.30999994    2.78999996
   18.94194412  146.21499634    1.30999994    2.76999998
   18.94527626  143.79200745    1.30999994    2.76999998
   18.95138931  143.79200745    1.33000004    2.76999998
   18.95555687  141.88600159    1.30999994    2.76999998
   18.95861244  134.26400757    1.30999994    2.76999998
   18.96138954  143.43600464    1.30999994    2.76999998
   18.96222305  133.99600220    1.30999994    2.76999998
   18.96527863  121.36900330    1.30999994    2.76999998
   18.96861076  129.24600220    1.33000004    2.78999996
   18.97194481  128.06900024    1.33000004    2.76999998
   18.97500038  131.13699341    1.34000003    2.76999998
   18.97833443  141.23500061    1.34000003    2.76999998
   18.98166656  138.94599915    1.34000003    2.76999998
   18.98500061  137.49899292    1.33000004    2.76999998
   18.98805618  136.45399475    1.33000004    2.76999998
   18.99416733  136.45399475    1.30999994    2.78999996
   18.99833298  129.25000000    1.30999994    2.76999998
   19.00138855  136.15299988    1.30999994    2.76999998
   19.00472260  135.97900391    1.28999996    2.78999996
   19.00805473  142.26100159    1.30999994    2.76999998
   19.01111031  139.63000488    1.28999996    2.76999998
   19.01444435  131.59899902    1.28999996    2.76999998
   19.01749992  133.18899536    1.26999998    2.76999998
   19.02083397  131.42500305    1.26999998    2.76999998
   19.02416611  137.25799561    1.28999996    2.76999998
   19.02722168  137.34899902    1.30999994    2.78999996
   19.02916718  136.69599915    1.30999994    2.78999996
   19.03111076  140.42399597    1.28999996    2.76999998
   19.04666710  140.42399597    1.28999996    2.78999996
   19.05055428  128.94799805    1.30999994    2.78999996
   19.05388832  132.23599243    1.30999994    2.78999996
   19.05722237  132.12800598    1.33000004    2.78999996
   19.06027794  133.71000671    1.33000004    2.76999998
   19.06277657  123.18599701    1.33000004    2.78999996
   19.06416512  130.75999451    1.33000004    2.78999996
   19.06722260  132.68899536    1.33000004    2.76999998
   19.07055664  134.58399963    1.30999994    2.76999998
   19.07361221  140.21000671    1.30999994    2.78999996
   19.08027840  140.21000671    1.33000004    2.78999996
   19.08444595  117.70200348    1.33000004    2.78999996
   19.08777809  133.15600586    1.30999994    2.76999998
   19.09083366  130.33999634    1.30999994    2.76999998
   19.09416771  131.66200256    1.33000004    2.78999996
   19.09611130  124.32099915    1.33000004    2.78999996
   19.09777832  124.44799805    1.33000004    2.78999996
   19.10111237  133.74299622    1.33000004    2.76999998
   19.10416794  133.23199463    1.33000004    2.76999998
   19.10750008  131.60299683    1.33000004    2.76999998
   19.11083412  123.03199768    1.34000003    2.76999998
   19.11416626  127.24400330    1.36000001    2.76999998
   19.11722183  123.21499634    1.36000001    2.76999998
   19.12277794  123.21499634    1.38000000    2.76999998
   19.12666702  112.93900299    1.38000000    2.78999996
   19.12972260  127.83300018    1.38000000    2.78999996
   19.13027763  134.80799866    1.38000000    2.78999996
   19.13361168  122.16999817    1.39999998    2.76999998
   19.14611053  118.91400146    0.00000000    0.00000000
   19.14944458  113.42299652    1.41999996    2.76999998
   19.15277672  121.94599915    1.44000006    2.76999998
   19.15583229  118.84899902    1.44000006    2.76999998
   19.15916634  121.24299622    1.44000006    2.76999998
   19.17166519  110.56700134    0.00000000    0.00000000
   19.17222214  110.34799957    1.46000004    2.75000000
   19.17527771  113.55799866    1.46000004    2.76999998
   19.18138885  113.55799866    1.46000004    2.76999998
   19.19388771  114.61399841    0.00000000    0.00000000
   19.19722176  125.22100067    1.48000002    2.76999998
   19.20027924  114.79399872    1.48000002    2.76999998
   19.20361137  117.89399719    1.48000002    2.75000000
   19.20694542  116.66699982    1.50000000    2.76999998
   19.21833420  113.76300049    1.50000000    2.76999998
   19.21944427  117.34300232    1.50000000    2.75000000
   19.22277832  117.95899963    1.50000000    2.75000000
   19.22777748  117.95899963    1.50000000    2.76999998
   19.24055672  110.99500275    0.00000000    0.00000000
   19.24305534  114.95600128    1.53999996    2.75000000
   19.24416733  116.62500000    1.53999996    2.75000000
   19.24749947  126.64700317    1.55999994    2.75000000
   19.25083351  125.80899811    1.55999994    2.75000000
   19.25416756  125.21299744    1.58000004    2.75000000
   19.25722313  123.05200195    1.58000004    2.75000000
   19.26055527  121.49400330    1.58000004    2.75000000
   19.27277756  124.65799713    0.00000000    0.00000000
   19.27694511  124.65799713    1.53999996    2.75000000
   19.28111076  117.61499786    1.53999996    2.75000000
   19.28444481  115.14199829    1.53999996    2.75000000
   19.28750038  106.30799866    1.53999996    2.75000000
   19.29944420  119.14499664    0.00000000    0.00000000
   19.30277634  113.03700256    1.55999994    2.75000000
   19.30583191  110.16899872    1.55999994    2.75000000
   19.30916595  109.72399902    1.55999994    2.75000000
   19.31250000  106.04000092    1.58000004    2.75000000
   19.31527710  114.69999695    1.55999994    2.75000000
   19.31611061  109.70099640    1.55999994    2.75000000
   19.31944466  108.88500214    1.55999994    2.75000000
   19.32250023  102.34999847    1.55999994    2.75000000
   19.32833481  102.34999847    1.58000004    2.75000000
   19.33250046  111.01599884    1.58000004    2.73000002
   19.33583450  107.13500214    1.58000004    2.73000002
   19.34583473  107.01799774    0.00000000    0.00000000
   19.34833336  111.69200134    1.61000001    2.75000000
   19.34944534  120.85199738    1.61000001    2.75000000
   19.35277748  107.99700165    1.61000001    2.75000000
   19.35611153  110.72499847    1.61000001    2.73000002
   19.35944557  118.25900269    1.63000000    2.75000000
   19.37166595  106.77100372    0.00000000    0.00000000
   19.37500000  111.52700043    1.64999998    2.75000000
   19.38111115  111.52700043    1.64999998    2.73000002
   19.38527679  120.68299866    1.64999998    2.75000000
   19.38777733  120.51000214    1.64999998    2.73000002
   19.38916588  122.19699860    1.64999998    2.73000002
   19.40166664  133.57400513    0.00000000    0.00000000
   19.40499878  122.55400085    1.64999998    2.73000002
   19.40805435  119.76899719    1.64999998    2.73000002
   19.41138840  129.64399719    1.63000000    2.73000002
   19.41472244  131.51499939    1.63000000    2.73000002
   19.41805458  116.83100128    1.64999998    2.73000002
   19.42111015  124.09799957    1.64999998    2.73000002
   19.42194366  116.90499878    1.64999998    2.73000002
   19.42583275  114.55000305    1.64999998    2.73000002
   19.43000031  114.55000305    1.64999998    2.73000002
   19.44277763  113.74199677    0.00000000    0.00000000
   19.44610977  121.47200012    1.66999996    2.73000002
   19.44944382  120.75199890    1.66999996    2.73000002
   19.45250130  122.28700256    1.66999996    2.73000002
   19.45583344  114.80000305    1.63000000    2.73000002
   19.47722244  124.14099884    0.00000000    0.00000000
   19.47833443  112.09899902    1.66999996    2.73000002
   19.48166656  120.91600037    1.66999996    2.73000002
   19.48666763  120.91600037    1.66999996    2.73000002
   19.49083328  121.91799927    1.66999996    2.73000002
   19.49305534  114.11799622    1.66999996    2.73000002
   19.49444389  120.01799774    1.60000002    2.73000002
   19.49777794  114.43399811    1.60000002    2.73000002
   19.50111198  126.02600098    1.60000002    2.73000002
   19.50416756  126.19799805    1.60000002    2.73000002
   19.50749969  127.76899719    1.60000002    2.73000002
   19.51083374  132.10000610    1.60000002    2.73000002
   19.51388931  127.06700134    1.63000000    2.71000004
   19.51722145  127.15299988    1.71000004    2.73000002
   19.52027702  128.15800476    1.64999998    2.73000002
   19.52361107  118.15799713    1.66999996    2.73000002
   19.52944374  118.15799713    1.69000006    2.73000002
   19.53361130  120.07700348    1.66999996    2.71000004
   19.53694344  124.89299774    1.66999996    2.71000004
   19.54027748  118.49299622    1.64999998    2.71000004
   19.54333305  136.47300720    1.69000006    2.73000002
   19.54666710  120.09899902    1.69000006    2.73000002
   19.54999924  122.22799683    1.69000006    2.73000002
   19.55305481  123.81700134    1.69000006    2.71000004
   19.55638885  123.48200226    1.66999996    2.71000004
   19.55944443  121.41799927    1.69000006    2.73000002
   19.56055450  117.91200256    1.69000006    2.73000002
   19.56305504  122.87699890    1.69000006    2.73000002
   19.56638718  110.31500244    1.66999996    2.71000004
   19.57250023  110.31500244    1.66999996    2.71000004
   19.57666779  117.71700287    1.66999996    2.73000002
   19.57972336  113.63600159    1.69000006    2.71000004
   19.58305550  118.63200378    1.69000006    2.73000002
   19.58638954  113.92299652    1.69000006    2.73000002
   19.61527824  120.34500122    0.00000000    0.00000000
   19.61583328  120.84700012    1.73000002    2.71000004
   19.61861038  117.23999786    1.73000002    2.71000004
   19.63444519  117.23999786    1.75000000    2.71000004
   19.63861084  115.06600189    1.75000000    2.71000004
   19.65083313  125.70800018    0.00000000    0.00000000
   19.65138817  127.12100220    1.75000000    2.71000004
   19.65444374  139.49699402    1.75000000    2.71000004
   19.65777779  142.79400635    1.76999998    2.71000004
   19.66083336  136.40100098    1.75000000    2.71000004
   19.66777802  136.40100098    1.76999998    2.71000004
   19.67194366  147.19000244    1.75000000    2.71000004
   19.67499924  141.36500549    1.75000000    2.71000004
   19.67833328  150.08500671    1.75000000    2.71000004
   19.68138885  137.75500488    1.76999998    2.71000004
   19.68472099  142.02200317    1.75000000    2.71000004
   19.68555450  147.77200317    1.75000000    2.71000004
   19.68861008  146.85600281    1.75000000    2.71000004
   19.69194412  161.68800354    1.76999998    2.71000004
   19.69499969  167.24299622    1.75000000    2.71000004
   19.69833183  143.42900085    1.76999998    2.71000004
   19.70166779  142.76600647    1.78999996    2.71000004
   19.70472336  136.32200623    1.76999998    2.71000004
   19.71944427  136.32200623    1.80999994    2.71000004
   19.72361183  120.05300140    1.80999994    2.71000004
   19.72694588  127.98500061    1.78999996    2.69000006
   19.73027802  121.01899719    1.80999994    2.71000004
   19.73333359  125.36299896    1.80999994    2.71000004
   19.73666763  124.54399872    1.83000004    2.71000004
   19.73999977  116.45099640    1.83000004    2.71000004
   19.74361229  119.61799622    1.83000004    2.71000004
   19.74694443  116.90200043    1.85000002    2.71000004
   19.75333405  116.90200043    1.83000004    2.71000004
   19.75722313  113.06099701    1.78999996    2.71000004
   19.76055527  122.67299652    1.76999998    2.71000004
   19.76388931  128.98100281    1.76999998    2.71000004
   19.76722145  120.46399689    1.73000002    2.71000004
   19.77027702  110.84799957    1.73000002    2.71000004
   19.77361107  112.97399902    1.73000002    2.71000004
   19.77694511  111.14800262    1.73000002    2.71000004
   19.78000069  119.42400360    1.71000004    2.71000004
   19.78333282  116.77700043    1.69000006    2.73000002
   19.79500008  126.55300140    0.00000000    0.00000000
   19.80888748  126.55300140    0.00000000    0.00000000
   19.81277657  123.80200195    1.76999998    2.71000004
   19.81611061  112.00199890    1.78999996    2.71000004
   19.81944466  109.53299713    1.78999996    2.71000004
   19.82250023  108.97200012    1.78999996    2.71000004
   19.83500099  107.28800201    0.00000000    0.00000000
   19.83555603  113.98999786    1.78999996    2.71000004
   19.83861160  108.54900360    1.80999994    2.71000004
   19.84444427  108.54900360    1.83000004    2.71000004
   19.85722351   93.47250366    0.00000000    0.00000000
   19.86055565  106.54199982    1.80999994    2.71000004
   19.86361122  115.23999786    1.80999994    2.71000004
   19.86694527  114.32499695    1.80999994    2.71000004
   19.87027740  127.83699799    1.80999994    2.71000004
   19.87277794  116.01999664    1.78999996    2.69000006
   19.87388992  136.25999451    1.78999996    2.69000006
   19.87722206  116.80899811    1.76999998    2.71000004
   19.88027763  100.25499725    1.75000000    2.71000004
   19.88750076  100.25499725    1.75000000    2.71000004
   19.90916634  132.67599487    0.00000000    0.00000000
   19.91833305  111.46199799    0.00000000    0.00000000
   19.93083191  125.66200256    0.00000000    0.00000000
   19.95166779  125.66200256    1.83000004    2.71000004
   19.95583344  130.99499512    1.83000004    2.71000004
   19.95916748  119.41300201    1.83000004    2.71000004
   19.96222305  125.97100067    1.83000004    2.71000004
   19.96555710  118.99900055    1.85000002    2.71000004
   19.96861076  110.54299927    1.86000001    2.69000006
   19.97194481  145.32000732    1.86000001    2.69000006
   19.97527885  114.79900360    1.88000000    2.71000004
   19.97833443  118.34600067    1.88000000    2.71000004
   19.99055672  131.22399902    0.00000000    0.00000000
   19.99111176  117.22299957    1.89999998    2.71000004
   19.99416733  112.07599640    1.91999996    2.71000004
   20.00000000  112.07599640    1.94000006    2.71000004
   20.00416756  117.03500366    1.94000006    2.71000004
   20.00749969  114.09200287    2.01999998    2.71000004
   20.01055527  115.25199890    2.01999998    2.71000004
   20.01388931  103.99400330    2.00000000    2.69000006
   20.01722145  102.02100372    2.01999998    2.71000004
   20.02027702  127.36699677    2.01999998    2.69000006
   20.02361107  112.06900024    2.03999996    2.71000004
   20.02444458  111.16000366    2.05999994    2.69000006
   20.02722168  121.66000366    2.09999990    2.71000004
   20.03055573  121.62100220    2.11999989    2.69000006
   20.03361130  124.76200104    2.13000011    2.71000004
   20.03694344  124.95600128    2.13000011    2.71000004
   20.04305458  124.95600128    2.15000010    2.69000006
   20.04722214  143.22700500    2.21000004    2.67000008
   20.05055428  142.37199402    2.26999998    2.69000006
   20.05360985  130.05900574    2.30999994    2.69000006
   20.05694389  144.94400024    2.32999992    2.69000006
   20.05777740  142.15100098    2.32999992    2.69000006
   20.06055450  139.25999451    2.32999992    2.69000006
   20.06388855  118.80000305    2.34999990    2.69000006
   20.07611275  122.17800140    0.00000000    0.00000000
   20.07944489  122.95600128    2.61999989    2.69000006
   20.08583450  122.95600128    2.69000006    2.69000006
   20.09000015  121.98400116    2.75000000    2.67000008
   20.09333420  125.88700104    2.82999992    2.69000006
   20.09527779  122.29299927    2.86999989    2.67000008
   20.09833336  104.49700165    2.98000002    2.67000008
   20.10166740  112.32700348    3.09999990    2.67000008
   20.10499954  119.48999786    3.32999992    2.67000008
   20.10805511  110.66400146    3.78999996    2.67000008
   20.11138916  104.52999878    4.09999990    2.67000008
   20.11444473  113.81500244    4.15999985    2.67000008
   20.11777878  109.04399872    4.11999989    2.67000008
   20.12111092  102.47799683    4.13999987    2.67000008
   20.12416649  119.45999908    4.19999981    2.67000008
   20.12861061  119.45999908    4.28999996    2.67000008
   20.13277817  132.38000488    4.53000021    2.66000009
   20.13638878  121.45500183    4.73999977    2.66000009
   20.13972282  125.03399658    4.90999985    2.66000009
   20.14305496  119.11599731    4.90999985    2.66000009
   20.14611053  114.95400238    4.90999985    2.66000009
   20.14944458  115.69999695    4.90999985    2.67000008
   20.15277672  123.81900024    4.88999987    2.66000009
   20.15583229  129.96099854    4.86999989    2.66000009
   20.16027832  114.73600006    4.80999994    2.66000009
   20.16083336  123.11799622    4.80999994    2.66000009
   20.16416550  116.88400269    4.90999985    2.66000009
   20.16722107  106.73400116    4.90999985    2.64000010
   20.17166519  106.73400116    4.90999985    2.66000009
   20.17583275  126.91799927    4.90999985    2.66000009
   20.17888832  118.86100006    4.90999985    2.66000009
   20.18222237   99.34719849    4.90999985    2.64000010
   20.18555450  147.62800598    4.90999985    2.66000009
   20.18861008  132.48100281    4.90999985    2.66000009
   20.19194412  130.87699890    4.90999985    2.66000009
   20.19416618  121.56400299    4.90999985    2.66000009
   20.19555473  126.67099762    4.90999985    2.64000010
   20.19888878  125.27700043    4.90999985    2.66000009
   20.20194435  131.68899536    4.90999985    2.66000009
   20.21389008  121.43499756    0.00000000    0.00000000
   20.22777748  121.43499756    4.90999985    2.66000009
   20.23194504  121.30500031    4.90999985    2.66000009
   20.23500061  129.25100708    4.90999985    2.66000009
   20.23833275  139.50599670    4.90999985    2.66000009
   20.25055504  117.50099945    4.90999985    2.66000009
   20.25388908  114.90699768    4.90999985    2.66000009
   20.25694466  102.98899841    4.90999985    2.64000010
   20.26972198  102.98899841    4.90999985    2.61999989
   20.27388954  102.40499878    4.90999985    2.59999990
   20.27694511  106.86499786    4.90999985    2.59999990
   20.28944397  105.58699799    0.00000000    0.00000000
   20.29277802  134.57200623    4.90999985    2.42000008
   20.29583359  106.88700104    4.90999985    2.50000000
   20.29916573  114.03600311    4.90999985    2.51999998
   20.30416679  114.03600311    4.90999985    2.32999992
   20.30805397  161.21400452    4.90999985    2.23000002
   20.31138802  388.38900757    4.90999985    2.01999998
   20.31472206  154.30700684    4.90999985    1.88000000
   20.31805611  371.30700684    4.90999985    1.83000004
   20.33083344  317.54800415    4.90999985    2.09999990
   20.33416748  185.49099731    4.90999985    2.13000011
   20.33750153  152.76800537    4.90999985    2.11999989
   20.34055710  125.11299896    4.90999985    2.13000011
   20.35611153  125.11299896    4.90999985    2.30999994
   20.36027908   75.22029877    4.90999985    2.36999989
   20.36361122   74.47360229    4.90999985    2.42000008
   20.36666679   72.29180145    4.90999985    2.42000008
   20.37000084   75.92089844    4.90999985    2.30999994
   20.37333298   74.24900055    4.90999985    2.40000010
   20.37638855   70.37079620    4.90999985    2.40000010
   20.37972260   72.27500153    4.90999985    2.51999998
   20.38027763   71.11170197    4.90999985    2.51999998
   20.38361168   69.15370178    4.90999985    2.50000000
   20.38972282   69.15370178    4.90999985    2.48000002
   20.39388847   71.61470032    4.90999985    2.50000000
   20.39694405   73.25610352    4.90999985    2.46000004
   20.40027809   75.05889893    4.90999985    2.42000008
   20.40361023   73.76529694    4.90999985    2.36999989
   20.40666580   77.81089783    4.90999985    2.34999990
   20.40999985   73.80419922    4.90999985    2.39000010
   20.42194366   72.65820313    0.00000000    0.00000000
   20.42249870   72.35109711    4.90999985    2.42000008
   20.42555428   72.65899658    4.90999985    2.46000004
   20.42888832   73.70619965    4.90999985    2.48000002
   20.43305397   73.70619965    4.90999985    2.48000002
   20.43722153   73.46839905    4.90999985    2.50000000
   20.44027710   72.19490051    4.90999985    2.51999998
   20.44361115   71.87989807    4.90999985    2.53999996
   20.44666672   70.71140289    4.90999985    2.55999994
   20.45000076   72.27590179    4.90999985    2.55999994
   20.45333481   70.85620117    4.90999985    2.55999994
   20.45583344   71.41320038    4.90999985    2.57999992
   20.45694542   72.82250214    4.90999985    2.57999992
   20.46027946  129.14300537    4.90999985    2.59999990
   20.46333504   71.95130157    4.90999985    2.61999989
   20.46666718   74.65029907    4.90999985    2.61999989
   20.48722267   70.04709625    0.00000000    0.00000000
   20.50333405   70.04709625    4.90999985    2.59999990
   20.50749969   71.36869812    4.90999985    2.61999989
   20.51083374   70.88600159    4.90999985    2.61999989
   20.51388931   69.94190216    4.90999985    2.64000010
   20.51722145   69.50650024    4.90999985    2.64000010
   20.52055550   70.22689819    4.90999985    2.64000010
   20.53277779   71.03469849    0.00000000    0.00000000
   20.53610992   69.81670380    4.90999985    2.61999989
   20.53833199   68.91259766    4.90999985    2.61999989
   20.54249954   68.91259766    4.90999985    2.59999990
   20.54666710   70.51149750    4.90999985    2.61999989
   20.54999924   68.27010345    4.90999985    2.61999989
   20.55305481   69.37280273    4.90999985    2.64000010
   20.55638885   69.61309814    4.90999985    2.64000010
   20.55972099   70.50119781    4.90999985    2.61999989
   20.56277657   69.40329742    4.90999985    2.61999989
   20.56611061   69.73609924    4.90999985    2.61999989
   20.56944466   69.46710205    4.90999985    2.61999989
   20.57194519   70.33869934    4.90999985    2.59999990
   20.57277870   69.10800171    4.90999985    2.59999990
   20.57611275   70.12529755    4.90999985    2.57999992
   20.57944489   69.53589630    4.90999985    2.59999990
   20.58583450   69.53589630    4.90999985    2.59999990
   20.59000015   68.55519867    4.90999985    2.55999994
   20.59305573   69.02130127    4.90999985    2.55999994
   20.59638977   70.06330109    4.90999985    2.53999996
   20.59972191   68.27179718    4.90999985    2.55999994
   20.60277748   68.99829865    4.90999985    2.55999994
   20.60527802   69.59760284    4.90999985    2.59999990
   20.60639000   69.97550201    4.90999985    2.59999990
   20.60972214   68.97699738    4.90999985    2.57999992
   20.61305618   69.42790222    4.90999985    2.57999992
   20.61611176   70.57959747    4.90999985    2.59999990
   20.61944389   69.52610016    4.90999985    2.59999990
   20.62249947   69.58270264    4.90999985    2.59999990
   20.62861061   69.58270264    4.90999985    2.61999989
   20.63249969   71.16870117    4.90999985    2.61999989
   20.63583374   68.96540070    4.63999987    2.61999989
   20.63861084   69.50530243    4.46999979    2.61999989
   20.63944435   68.45230103    4.46999979    2.61999989
   20.64277840   69.60179901    4.36999989    2.64000010
   20.64611053   69.11019897    4.63999987    2.61999989
   20.64916611   68.32240295    4.82999992    2.61999989
   20.65250015   70.44550323    4.90999985    2.61999989
   20.65583229   68.65540314    4.90999985    2.59999990
   20.65888786   68.97190094    4.90999985    2.57999992
   20.66222191   68.14800262    4.90999985    2.57999992
   20.66527748   70.88909912    4.90999985    2.59999990
   20.67111015   70.88909912    4.90999985    2.48000002
   20.67527771   73.58419800    4.90999985    2.44000006
   20.67860985   73.09329987    4.90999985    2.42000008
   20.68222237   72.67960358    4.90999985    2.42000008
   20.68527603   72.75009918    4.90999985    2.46000004
   20.68861008   74.29199982    4.90999985    2.39000010
   20.69166565   75.23750305    4.90999985    2.23000002
   20.69499969   76.86689758    4.90999985    2.17000008
   20.69833183  172.75999451    4.90999985    2.17000008
   20.70138931   76.96170044    4.90999985    2.19000006
   20.70472336   75.51730347    4.90999985    2.17000008
   20.70611191   74.72129822    4.90999985    2.17000008
   20.70833397   73.57409668    4.90999985    2.25000000
   20.71389008   73.57409668    4.90999985    2.40000010
   20.71805573   72.23789978    4.90999985    2.42000008
   20.72138977   69.66970062    4.90999985    2.46000004
   20.72444534   68.76439667    4.90999985    2.48000002
   20.72777748   70.56710052    4.90999985    2.51999998
   20.73111153   71.72360229    4.90999985    2.53999996
   20.73416710   69.22419739    4.90999985    2.53999996
   20.73750114   68.77320099    4.90999985    2.55999994
   20.73972321   69.36440277    4.90999985    2.55999994
   20.74111176   69.03309631    4.90999985    2.55999994
   20.74444389   71.25229645    4.90999985    2.55999994
   20.74749947   71.72350311    4.90999985    2.55999994
   20.75083351   70.16149902    4.90999985    2.55999994
   20.75694466   70.16149902    4.90999985    2.57999992
   20.76083374   68.76959991    4.90999985    2.59999990
   20.76416588   63.66889954    4.90999985    2.57999992
   20.76749992   66.28569794    4.90999985    2.57999992
   20.77055550   73.48799896    4.90999985    2.57999992
   20.77305603   74.17350006    4.90999985    2.57999992
   20.77444458   77.22209930    4.90999985    2.57999992
   20.77750015   91.19640350    4.90999985    2.57999992
   20.78083229  119.29699707    4.90999985    2.59999990
   20.78416634   -1.00000000    4.90999985    2.57999992
   20.78722191   -1.00000000    4.90999985    2.57999992
   20.79055595   -1.00000000    4.90999985    2.57999992
   20.79361153   -1.00000000    4.90999985    2.57999992
   20.80360985   -1.00000000    4.90999985    2.57999992
   20.80722237   -1.00000000    4.90999985    2.53999996
   20.81055450   -1.00000000    4.90999985    2.46000004
   20.81388855   -1.00000000    4.90999985    2.48000002
